time/ms;Fluo/V;P700 deltaI/I x10³;
-199.8000;0.1506;-0.2444;
-199.5000;0.1522;-0.2444;
-199.2000;0.1522;-0.2540;
-198.9000;0.1530;-0.2564;
-198.6000;0.1514;-0.2636;
-198.3000;0.1538;-0.2636;
-198.0000;0.1547;-0.2516;
-197.7000;0.1530;-0.2516;
-197.4000;0.1530;-0.2564;
-197.1000;0.1530;-0.2492;
-196.8000;0.1530;-0.2444;
-196.5000;0.1538;-0.2444;
-196.2000;0.1514;-0.2444;
-195.9000;0.1522;-0.2420;
-195.6000;0.1514;-0.2420;
-195.3000;0.1530;-0.2396;
-195.0000;0.1522;-0.2444;
-194.7000;0.1514;-0.2516;
-194.4000;0.1449;-0.2755;
-194.1000;0.1530;-0.2564;
-193.8000;0.1530;-0.2588;
-193.5000;0.1522;-0.2540;
-193.2000;0.1530;-0.2468;
-192.9000;0.1530;-0.2468;
-192.6000;0.1514;-0.2492;
-192.3000;0.1522;-0.2444;
-192.0000;0.1514;-0.2348;
-191.7000;0.1522;-0.2372;
-191.4000;0.1514;-0.2444;
-191.1000;0.1514;-0.2444;
-190.8000;0.1538;-0.2420;
-190.5000;0.1514;-0.2468;
-190.2000;0.1538;-0.2420;
-189.9000;0.1514;-0.2516;
-189.6000;0.1522;-0.2540;
-189.3000;0.1514;-0.2516;
-189.0000;0.1538;-0.2564;
-188.7000;0.1514;-0.2636;
-188.4000;0.1530;-0.2612;
-188.1000;0.1522;-0.2612;
-187.8000;0.1538;-0.2660;
-187.5000;0.1530;-0.2731;
-187.2000;0.1449;-0.2947;
-186.9000;0.1563;-0.2612;
-186.6000;0.1514;-0.2707;
-186.3000;0.1522;-0.2707;
-186.0000;0.1530;-0.2684;
-185.7000;0.1522;-0.2660;
-185.4000;0.1628;-0.2348;
-185.1000;0.1522;-0.2540;
-184.8000;0.1522;-0.2636;
-184.5000;0.1514;-0.2636;
-184.2000;0.1522;-0.2660;
-183.9000;0.1538;-0.2660;
-183.6000;0.1490;-0.2779;
-183.3000;0.1506;-0.2660;
-183.0000;0.1514;-0.2660;
-182.7000;0.1547;-0.2636;
-182.4000;0.1522;-0.2636;
-182.1000;0.1530;-0.2492;
-181.8000;0.1514;-0.2588;
-181.5000;0.1530;-0.2540;
-181.2000;0.1522;-0.2492;
-180.9000;0.1522;-0.2564;
-180.6000;0.1538;-0.2516;
-180.3000;0.1514;-0.2636;
-180.0000;0.1522;-0.2660;
-179.7000;0.1522;-0.2755;
-179.4000;0.1400;-0.2995;
-179.1000;0.1514;-0.2660;
-178.8000;0.1522;-0.2564;
-178.5000;0.1481;-0.2636;
-178.2000;0.1506;-0.2660;
-177.9000;0.1514;-0.2636;
-177.6000;0.1522;-0.2660;
-177.3000;0.1571;-0.2612;
-177.0000;0.1530;-0.2755;
-176.7000;0.1530;-0.2755;
-176.4000;0.1538;-0.2731;
-176.1000;0.1522;-0.2779;
-175.8000;0.1522;-0.2636;
-175.5000;0.1530;-0.2636;
-175.2000;0.1514;-0.2684;
-174.9000;0.1530;-0.2731;
-174.6000;0.1506;-0.2803;
-174.3000;0.1506;-0.2827;
-174.0000;0.1514;-0.2779;
-173.7000;0.1514;-0.2684;
-173.4000;0.1514;-0.2564;
-173.1000;0.1514;-0.2444;
-172.8000;0.1514;-0.2516;
-172.5000;0.1506;-0.2540;
-172.2000;0.1522;-0.2540;
-171.9000;0.1522;-0.2564;
-171.6000;0.1514;-0.2612;
-171.3000;0.1514;-0.2588;
-171.0000;0.1522;-0.2540;
-170.7000;0.1457;-0.2779;
-170.4000;0.1538;-0.2684;
-170.1000;0.1449;-0.2923;
-169.8000;0.1514;-0.2803;
-169.5000;0.1579;-0.2588;
-169.2000;0.1571;-0.2588;
-168.9000;0.1530;-0.2684;
-168.6000;0.1514;-0.2731;
-168.3000;0.1636;-0.2468;
-168.0000;0.1514;-0.2731;
-167.7000;0.1522;-0.2779;
-167.4000;0.1506;-0.2899;
-167.1000;0.1530;-0.2827;
-166.8000;0.1465;-0.2875;
-166.5000;0.1530;-0.2588;
-166.2000;0.1408;-0.2971;
-165.9000;0.1555;-0.2612;
-165.6000;0.1514;-0.2755;
-165.3000;0.1449;-0.2971;
-165.0000;0.1514;-0.2731;
-164.7000;0.1538;-0.2660;
-164.4000;0.1473;-0.2803;
-164.1000;0.1530;-0.2660;
-163.8000;0.1514;-0.2803;
-163.5000;0.1498;-0.2827;
-163.2000;0.1522;-0.2779;
-162.9000;0.1547;-0.2684;
-162.6000;0.1506;-0.2803;
-162.3000;0.1587;-0.2540;
-162.0000;0.1522;-0.2731;
-161.7000;0.1514;-0.2779;
-161.4000;0.1530;-0.2660;
-161.1000;0.1530;-0.2684;
-160.8000;0.1530;-0.2684;
-160.5000;0.1530;-0.2707;
-160.2000;0.1547;-0.2779;
-159.9000;0.1514;-0.2731;
-159.6000;0.1522;-0.2660;
-159.3000;0.1612;-0.2492;
-159.0000;0.1498;-0.2731;
-158.7000;0.1506;-0.2707;
-158.4000;0.1563;-0.2588;
-158.1000;0.1530;-0.2612;
-157.8000;0.1514;-0.2564;
-157.5000;0.1522;-0.2516;
-157.2000;0.1506;-0.2516;
-156.9000;0.1530;-0.2492;
-156.6000;0.1555;-0.2516;
-156.3000;0.1530;-0.2612;
-156.0000;0.1530;-0.2636;
-155.7000;0.1522;-0.2636;
-155.4000;0.1506;-0.2612;
-155.1000;0.1530;-0.2492;
-154.8000;0.1514;-0.2612;
-154.5000;0.1416;-0.2923;
-154.2000;0.1522;-0.2731;
-153.9000;0.1530;-0.2707;
-153.6000;0.1498;-0.2779;
-153.3000;0.1530;-0.2636;
-153.0000;0.1530;-0.2540;
-152.7000;0.1522;-0.2660;
-152.4000;0.1514;-0.2636;
-152.1000;0.1522;-0.2564;
-151.8000;0.1481;-0.2660;
-151.5000;0.1522;-0.2588;
-151.2000;0.1498;-0.2707;
-150.9000;0.1595;-0.2468;
-150.6000;0.1506;-0.2660;
-150.3000;0.1481;-0.2779;
-150.0000;0.1522;-0.2684;
-149.7000;0.1457;-0.2827;
-149.4000;0.1522;-0.2684;
-149.1000;0.1530;-0.2779;
-148.8000;0.1522;-0.2803;
-148.5000;0.1522;-0.2779;
-148.2000;0.1522;-0.2755;
-147.9000;0.1506;-0.2731;
-147.6000;0.1384;-0.2971;
-147.3000;0.1506;-0.2755;
-147.0000;0.1522;-0.2731;
-146.7000;0.1481;-0.2899;
-146.4000;0.1538;-0.2827;
-146.1000;0.1433;-0.2899;
-145.8000;0.1530;-0.2636;
-145.5000;0.1506;-0.2660;
-145.2000;0.1538;-0.2636;
-144.9000;0.1555;-0.2540;
-144.6000;0.1522;-0.2612;
-144.3000;0.1555;-0.2468;
-144.0000;0.1530;-0.2588;
-143.7000;0.1530;-0.2612;
-143.4000;0.1547;-0.2707;
-143.1000;0.1522;-0.2803;
-142.8000;0.1514;-0.2660;
-142.5000;0.1587;-0.2540;
-142.2000;0.1522;-0.2684;
-141.9000;0.1522;-0.2660;
-141.6000;0.1522;-0.2684;
-141.3000;0.1481;-0.2827;
-141.0000;0.1522;-0.2707;
-140.7000;0.1547;-0.2731;
-140.4000;0.1392;-0.3139;
-140.1000;0.1530;-0.2731;
-139.8000;0.1530;-0.2755;
-139.5000;0.1481;-0.2899;
-139.2000;0.1530;-0.2827;
-138.9000;0.1522;-0.2803;
-138.6000;0.1530;-0.2779;
-138.3000;0.1522;-0.2684;
-138.0000;0.1530;-0.2755;
-137.7000;0.1522;-0.2612;
-137.4000;0.1555;-0.2564;
-137.1000;0.1514;-0.2755;
-136.8000;0.1522;-0.2731;
-136.5000;0.1530;-0.2684;
-136.2000;0.1522;-0.2731;
-135.9000;0.1498;-0.2899;
-135.6000;0.1506;-0.2947;
-135.3000;0.1473;-0.3067;
-135.0000;0.1530;-0.2899;
-134.7000;0.1522;-0.2827;
-134.4000;0.1514;-0.2755;
-134.1000;0.1530;-0.2612;
-133.8000;0.1522;-0.2564;
-133.5000;0.1506;-0.2588;
-133.2000;0.1538;-0.2516;
-132.9000;0.1538;-0.2492;
-132.6000;0.1376;-0.2923;
-132.3000;0.1538;-0.2516;
-132.0000;0.1522;-0.2516;
-131.7000;0.1571;-0.2300;
-131.4000;0.1538;-0.2396;
-131.1000;0.1522;-0.2540;
-130.8000;0.1555;-0.2564;
-130.5000;0.1490;-0.2684;
-130.2000;0.1530;-0.2612;
-129.9000;0.1538;-0.2516;
-129.6000;0.1522;-0.2468;
-129.3000;0.1538;-0.2564;
-129.0000;0.1522;-0.2516;
-128.7000;0.1538;-0.2516;
-128.4000;0.1538;-0.2420;
-128.1000;0.1530;-0.2516;
-127.8000;0.1530;-0.2444;
-127.5000;0.1530;-0.2492;
-127.2000;0.1522;-0.2468;
-126.9000;0.1514;-0.2564;
-126.6000;0.1538;-0.2636;
-126.3000;0.1522;-0.2636;
-126.0000;0.1506;-0.2612;
-125.7000;0.1522;-0.2612;
-125.4000;0.1514;-0.2660;
-125.1000;0.1530;-0.2660;
-124.8000;0.1465;-0.2779;
-124.5000;0.1538;-0.2540;
-124.2000;0.1530;-0.2564;
-123.9000;0.1522;-0.2540;
-123.6000;0.1547;-0.2444;
-123.3000;0.1669;-0.2132;
-123.0000;0.1465;-0.2731;
-122.7000;0.1538;-0.2540;
-122.4000;0.1530;-0.2636;
-122.1000;0.1538;-0.2612;
-121.8000;0.1522;-0.2636;
-121.5000;0.1530;-0.2636;
-121.2000;0.1522;-0.2731;
-120.9000;0.1530;-0.2612;
-120.6000;0.1530;-0.2588;
-120.3000;0.1522;-0.2612;
-120.0000;0.1522;-0.2612;
-119.7000;0.1506;-0.2636;
-119.4000;0.1441;-0.2803;
-119.1000;0.1514;-0.2588;
-118.8000;0.1514;-0.2588;
-118.5000;0.1538;-0.2612;
-118.2000;0.1522;-0.2684;
-117.9000;0.1530;-0.2588;
-117.6000;0.1538;-0.2564;
-117.3000;0.1547;-0.2612;
-117.0000;0.1506;-0.2684;
-116.7000;0.1538;-0.2588;
-116.4000;0.1481;-0.2755;
-116.1000;0.1506;-0.2660;
-115.8000;0.1555;-0.2612;
-115.5000;0.1449;-0.2803;
-115.2000;0.1514;-0.2540;
-114.9000;0.1530;-0.2516;
-114.6000;0.1547;-0.2468;
-114.3000;0.1522;-0.2660;
-114.0000;0.1522;-0.2660;
-113.7000;0.1522;-0.2731;
-113.4000;0.1522;-0.2684;
-113.1000;0.1538;-0.2731;
-112.8000;0.1514;-0.2731;
-112.5000;0.1530;-0.2636;
-112.2000;0.1522;-0.2707;
-111.9000;0.1522;-0.2684;
-111.6000;0.1522;-0.2707;
-111.3000;0.1522;-0.2564;
-111.0000;0.1522;-0.2588;
-110.7000;0.1538;-0.2564;
-110.4000;0.1555;-0.2707;
-110.1000;0.1514;-0.2851;
-109.8000;0.1506;-0.2803;
-109.5000;0.1530;-0.2731;
-109.2000;0.1522;-0.2707;
-108.9000;0.1514;-0.2684;
-108.6000;0.1530;-0.2588;
-108.3000;0.1530;-0.2444;
-108.0000;0.1538;-0.2420;
-107.7000;0.1506;-0.2612;
-107.4000;0.1498;-0.2612;
-107.1000;0.1530;-0.2564;
-106.8000;0.1490;-0.2660;
-106.5000;0.1530;-0.2492;
-106.2000;0.1587;-0.2228;
-105.9000;0.1514;-0.2348;
-105.6000;0.1522;-0.2228;
-105.3000;0.1514;-0.2300;
-105.0000;0.1628;-0.1965;
-104.7000;0.1498;-0.2372;
-104.4000;0.1555;-0.2300;
-104.1000;0.1490;-0.2468;
-103.8000;0.1368;-0.2947;
-103.5000;0.1538;-0.2492;
-103.2000;0.1538;-0.2540;
-102.9000;0.1538;-0.2540;
-102.6000;0.1530;-0.2636;
-102.3000;0.1530;-0.2684;
-102.0000;0.1530;-0.2731;
-101.7000;0.1522;-0.2779;
-101.4000;0.1636;-0.2396;
-101.1000;0.1506;-0.2779;
-100.8000;0.1547;-0.2660;
-100.5000;0.1530;-0.2684;
-100.2000;0.1530;-0.2707;
-99.9000;0.1530;-0.2684;
-99.6000;0.1644;-0.2444;
-99.3000;0.1530;-0.2755;
-99.0000;0.1522;-0.2803;
-98.7000;0.1514;-0.2707;
-98.4000;0.1514;-0.2636;
-98.1000;0.1538;-0.2564;
-97.8000;0.1530;-0.2636;
-97.5000;0.1538;-0.2612;
-97.2000;0.1522;-0.2660;
-96.9000;0.1498;-0.2636;
-96.6000;0.1514;-0.2660;
-96.3000;0.1547;-0.2540;
-96.0000;0.1514;-0.2564;
-95.7000;0.1538;-0.2516;
-95.4000;0.1522;-0.2636;
-95.1000;0.1547;-0.2516;
-94.8000;0.1530;-0.2564;
-94.5000;0.1514;-0.2636;
-94.2000;0.1506;-0.2588;
-93.9000;0.1522;-0.2660;
-93.6000;0.1530;-0.2636;
-93.3000;0.1547;-0.2612;
-93.0000;0.1506;-0.2707;
-92.7000;0.1522;-0.2660;
-92.4000;0.1506;-0.2660;
-92.1000;0.1555;-0.2564;
-91.8000;0.1506;-0.2612;
-91.5000;0.1522;-0.2540;
-91.2000;0.1506;-0.2636;
-90.9000;0.1522;-0.2684;
-90.6000;0.1498;-0.2731;
-90.3000;0.1400;-0.2971;
-90.0000;0.1498;-0.2707;
-89.7000;0.1579;-0.2516;
-89.4000;0.1547;-0.2588;
-89.1000;0.1522;-0.2707;
-88.8000;0.1498;-0.2731;
-88.5000;0.1522;-0.2564;
-88.2000;0.1522;-0.2564;
-87.9000;0.1506;-0.2636;
-87.6000;0.1473;-0.2707;
-87.3000;0.1661;-0.2180;
-87.0000;0.1522;-0.2420;
-86.7000;0.1522;-0.2516;
-86.4000;0.1538;-0.2468;
-86.1000;0.1530;-0.2468;
-85.8000;0.1538;-0.2516;
-85.5000;0.1392;-0.2923;
-85.2000;0.1449;-0.2755;
-84.9000;0.1514;-0.2468;
-84.6000;0.1457;-0.2660;
-84.3000;0.1498;-0.2588;
-84.0000;0.1514;-0.2564;
-83.7000;0.1530;-0.2492;
-83.4000;0.1522;-0.2516;
-83.1000;0.1538;-0.2588;
-82.8000;0.1538;-0.2516;
-82.5000;0.1522;-0.2564;
-82.2000;0.1506;-0.2588;
-81.9000;0.1538;-0.2468;
-81.6000;0.1530;-0.2468;
-81.3000;0.1522;-0.2540;
-81.0000;0.1522;-0.2540;
-80.7000;0.1530;-0.2492;
-80.4000;0.1538;-0.2444;
-80.1000;0.1530;-0.2540;
-79.8000;0.1465;-0.2707;
-79.5000;0.1530;-0.2492;
-79.2000;0.1547;-0.2444;
-78.9000;0.1522;-0.2468;
-78.6000;0.1514;-0.2516;
-78.3000;0.1522;-0.2540;
-78.0000;0.1522;-0.2660;
-77.7000;0.1547;-0.2564;
-77.4000;0.1514;-0.2612;
-77.1000;0.1530;-0.2588;
-76.8000;0.1604;-0.2396;
-76.5000;0.1538;-0.2636;
-76.2000;0.1425;-0.2875;
-75.9000;0.1538;-0.2636;
-75.6000;0.1530;-0.2612;
-75.3000;0.1490;-0.2707;
-75.0000;0.1530;-0.2636;
-74.7000;0.1547;-0.2588;
-74.4000;0.1538;-0.2612;
-74.1000;0.1514;-0.2684;
-73.8000;0.1538;-0.2636;
-73.5000;0.1514;-0.2612;
-73.2000;0.1538;-0.2564;
-72.9000;0.1498;-0.2636;
-72.6000;0.1514;-0.2540;
-72.3000;0.1506;-0.2660;
-72.0000;0.1522;-0.2588;
-71.7000;0.1514;-0.2636;
-71.4000;0.1473;-0.2755;
-71.1000;0.1506;-0.2707;
-70.8000;0.1530;-0.2684;
-70.5000;0.1538;-0.2684;
-70.2000;0.1522;-0.2779;
-69.9000;0.1506;-0.2755;
-69.6000;0.1514;-0.2731;
-69.3000;0.1538;-0.2660;
-69.0000;0.1506;-0.2707;
-68.7000;0.1514;-0.2755;
-68.4000;0.1514;-0.2731;
-68.1000;0.1514;-0.2827;
-67.8000;0.1490;-0.2851;
-67.5000;0.1514;-0.2779;
-67.2000;0.1473;-0.2899;
-66.9000;0.1514;-0.2803;
-66.6000;0.1514;-0.2707;
-66.3000;0.1538;-0.2612;
-66.0000;0.1506;-0.2660;
-65.7000;0.1498;-0.2731;
-65.4000;0.1490;-0.2731;
-65.1000;0.1522;-0.2660;
-64.8000;0.1514;-0.2660;
-64.5000;0.1441;-0.2803;
-64.2000;0.1538;-0.2420;
-63.9000;0.1538;-0.2444;
-63.6000;0.1514;-0.2420;
-63.3000;0.1530;-0.2396;
-63.0000;0.1538;-0.2468;
-62.7000;0.1522;-0.2468;
-62.4000;0.1498;-0.2540;
-62.1000;0.1522;-0.2444;
-61.8000;0.1481;-0.2540;
-61.5000;0.1522;-0.2420;
-61.2000;0.1538;-0.2420;
-60.9000;0.1538;-0.2420;
-60.6000;0.1522;-0.2516;
-60.3000;0.1481;-0.2636;
-60.0000;0.1522;-0.2540;
-59.7000;0.1530;-0.2540;
-59.4000;0.1506;-0.2612;
-59.1000;0.1522;-0.2564;
-58.8000;0.1522;-0.2612;
-58.5000;0.1514;-0.2636;
-58.2000;0.1481;-0.2731;
-57.9000;0.1530;-0.2540;
-57.6000;0.1538;-0.2492;
-57.3000;0.1506;-0.2588;
-57.0000;0.1506;-0.2540;
-56.7000;0.1481;-0.2636;
-56.4000;0.1473;-0.2803;
-56.1000;0.1498;-0.2707;
-55.8000;0.1579;-0.2372;
-55.5000;0.1506;-0.2564;
-55.2000;0.1538;-0.2492;
-54.9000;0.1522;-0.2468;
-54.6000;0.1538;-0.2468;
-54.3000;0.1506;-0.2516;
-54.0000;0.1538;-0.2468;
-53.7000;0.1530;-0.2588;
-53.4000;0.1571;-0.2492;
-53.1000;0.1530;-0.2588;
-52.8000;0.1547;-0.2540;
-52.5000;0.1563;-0.2588;
-52.2000;0.1457;-0.2923;
-51.9000;0.1498;-0.2875;
-51.6000;0.1506;-0.2899;
-51.3000;0.1530;-0.2779;
-51.0000;0.1441;-0.2971;
-50.7000;0.1522;-0.2755;
-50.4000;0.1457;-0.2947;
-50.1000;0.1522;-0.2827;
-49.8000;0.1530;-0.2827;
-49.5000;0.1481;-0.2971;
-49.2000;0.1538;-0.2899;
-48.9000;0.1522;-0.2947;
-48.6000;0.1547;-0.2851;
-48.3000;0.1530;-0.2803;
-48.0000;0.1604;-0.2660;
-47.7000;0.1514;-0.2779;
-47.4000;0.1522;-0.2660;
-47.1000;0.1522;-0.2684;
-46.8000;0.1514;-0.2684;
-46.5000;0.1538;-0.2660;
-46.2000;0.1490;-0.2779;
-45.9000;0.1514;-0.2731;
-45.6000;0.1514;-0.2755;
-45.3000;0.1530;-0.2707;
-45.0000;0.1538;-0.2636;
-44.7000;0.1530;-0.2588;
-44.4000;0.1514;-0.2660;
-44.1000;0.1530;-0.2636;
-43.8000;0.1555;-0.2612;
-43.5000;0.1538;-0.2588;
-43.2000;0.1538;-0.2755;
-42.9000;0.1522;-0.2827;
-42.6000;0.1538;-0.2803;
-42.3000;0.1522;-0.2755;
-42.0000;0.1498;-0.2731;
-41.7000;0.1530;-0.2612;
-41.4000;0.1538;-0.2612;
-41.1000;0.1514;-0.2660;
-40.8000;0.1612;-0.2468;
-40.5000;0.1522;-0.2731;
-40.2000;0.1538;-0.2803;
-39.9000;0.1514;-0.2875;
-39.6000;0.1538;-0.2875;
-39.3000;0.1522;-0.2923;
-39.0000;0.1538;-0.2851;
-38.7000;0.1433;-0.3019;
-38.4000;0.1538;-0.2827;
-38.1000;0.1530;-0.2803;
-37.8000;0.1530;-0.2803;
-37.5000;0.1530;-0.2827;
-37.2000;0.1530;-0.2779;
-36.9000;0.1514;-0.2755;
-36.6000;0.1498;-0.2684;
-36.3000;0.1506;-0.2636;
-36.0000;0.1514;-0.2564;
-35.7000;0.1449;-0.2779;
-35.4000;0.1522;-0.2588;
-35.1000;0.1514;-0.2660;
-34.8000;0.1538;-0.2684;
-34.5000;0.1514;-0.2755;
-34.2000;0.1538;-0.2684;
-33.9000;0.1514;-0.2779;
-33.6000;0.1538;-0.2660;
-33.3000;0.1522;-0.2707;
-33.0000;0.1514;-0.2731;
-32.7000;0.1473;-0.2779;
-32.4000;0.1522;-0.2564;
-32.1000;0.1522;-0.2468;
-31.8000;0.1530;-0.2516;
-31.5000;0.1571;-0.2468;
-31.2000;0.1522;-0.2612;
-30.9000;0.1506;-0.2684;
-30.6000;0.1547;-0.2660;
-30.3000;0.1522;-0.2731;
-30.0000;0.1522;-0.2684;
-29.7000;0.1587;-0.2540;
-29.4000;0.1530;-0.2779;
-29.1000;0.1514;-0.2827;
-28.8000;0.1514;-0.2803;
-28.5000;0.1506;-0.2779;
-28.2000;0.1522;-0.2803;
-27.9000;0.1522;-0.2779;
-27.6000;0.1506;-0.2707;
-27.3000;0.1522;-0.2684;
-27.0000;0.1514;-0.2731;
-26.7000;0.1481;-0.2827;
-26.4000;0.1555;-0.2636;
-26.1000;0.1473;-0.2899;
-25.8000;0.1563;-0.2636;
-25.5000;0.1628;-0.2324;
-25.2000;0.1538;-0.2612;
-24.9000;0.1514;-0.2564;
-24.6000;0.1522;-0.2516;
-24.3000;0.1555;-0.2468;
-24.0000;0.1530;-0.2516;
-23.7000;0.1522;-0.2444;
-23.4000;0.1498;-0.2564;
-23.1000;0.1530;-0.2516;
-22.8000;0.1522;-0.2516;
-22.5000;0.1530;-0.2540;
-22.2000;0.1514;-0.2564;
-21.9000;0.1514;-0.2636;
-21.6000;0.1522;-0.2564;
-21.3000;0.1506;-0.2636;
-21.0000;0.1514;-0.2731;
-20.7000;0.1490;-0.2755;
-20.4000;0.1522;-0.2588;
-20.1000;0.1530;-0.2588;
-19.8000;0.1514;-0.2588;
-19.5000;0.1522;-0.2492;
-19.2000;0.1522;-0.2468;
-18.9000;0.1530;-0.2444;
-18.6000;0.1506;-0.2588;
-18.3000;0.1514;-0.2540;
-18.0000;0.1538;-0.2588;
-17.7000;0.1636;-0.2300;
-17.4000;0.1522;-0.2540;
-17.1000;0.1530;-0.2492;
-16.8000;0.1522;-0.2540;
-16.5000;0.1530;-0.2516;
-16.2000;0.1538;-0.2492;
-15.9000;0.1522;-0.2492;
-15.6000;0.1522;-0.2492;
-15.3000;0.1530;-0.2492;
-15.0000;0.1522;-0.2540;
-14.7000;0.1490;-0.2540;
-14.4000;0.1498;-0.2588;
-14.1000;0.1522;-0.2540;
-13.8000;0.1530;-0.2516;
-13.5000;0.1506;-0.2612;
-13.2000;0.1514;-0.2612;
-12.9000;0.1408;-0.2899;
-12.6000;0.1506;-0.2684;
-12.3000;0.1522;-0.2564;
-12.0000;0.1538;-0.2540;
-11.7000;0.1465;-0.2827;
-11.4000;0.1522;-0.2660;
-11.1000;0.1530;-0.2660;
-10.8000;0.1522;-0.2731;
-10.5000;0.1498;-0.2827;
-10.2000;0.1530;-0.2684;
-9.9000;0.1579;-0.2564;
-9.6000;0.1579;-0.2492;
-9.3000;0.1514;-0.2707;
-9.0000;0.1514;-0.2564;
-8.7000;0.1522;-0.2516;
-8.4000;0.1538;-0.2372;
-8.1000;0.1514;-0.2468;
-7.8000;0.1522;-0.2468;
-7.5000;0.1555;-0.2492;
-7.2000;0.1530;-0.2540;
-6.9000;0.1514;-0.2564;
-6.6000;0.1563;-0.2516;
-6.3000;0.1538;-0.2468;
-6.0000;0.1538;-0.2372;
-5.7000;0.1498;-0.2492;
-5.4000;0.1514;-0.2444;
-5.1000;0.1530;-0.2396;
-4.8000;0.1538;-0.2444;
-4.5000;0.1538;-0.2468;
-4.2000;0.1498;-0.2516;
-3.9000;0.1530;-0.2444;
-3.6000;0.1514;-0.2540;
-3.3000;0.1506;-0.2636;
-3.0000;0.1514;-0.2707;
-2.7000;0.1481;-0.2707;
-2.4000;0.1514;-0.2588;
-2.1000;0.1571;-0.2468;
-1.8000;0.1514;-0.2516;
-1.5000;0.1514;-0.2492;
-1.2000;0.1538;-0.2516;
-0.9000;0.1530;-0.2516;
-0.6000;0.1514;-0.2516;
-0.3000;0.1490;-0.2588;
0.0000;0.1490;-0.2588;
0.3000;0.1563;-0.2444;
0.6000;0.1547;-0.2228;
0.9000;0.1547;-0.2108;
1.2000;0.1563;-0.1941;
1.5000;0.1644;-0.1605;
1.8000;0.1563;-0.1821;
2.1000;0.1538;-0.1653;
2.4000;0.1563;-0.1414;
2.7000;0.1571;-0.1270;
3.0000;0.1579;-0.1174;
3.3000;0.1579;-0.1150;
3.6000;0.1579;-0.1150;
3.9000;0.1571;-0.1078;
4.2000;0.1571;-0.1054;
4.5000;0.1636;-0.0934;
4.8000;0.1587;-0.1078;
5.1000;0.1587;-0.1030;
5.4000;0.1563;-0.1102;
5.7000;0.1604;-0.1006;
6.0000;0.1595;-0.1006;
6.3000;0.1587;-0.0934;
6.6000;0.1563;-0.1126;
6.9000;0.1587;-0.0958;
7.2000;0.1587;-0.0887;
7.5000;0.1587;-0.0887;
7.8000;0.1628;-0.0863;
8.1000;0.1538;-0.1006;
8.4000;0.1579;-0.0982;
8.7000;0.1636;-0.0887;
9.0000;0.1587;-0.0934;
9.3000;0.1473;-0.1246;
9.6000;0.1604;-0.0839;
9.9000;0.1571;-0.0934;
10.2000;0.1506;-0.1246;
10.5000;0.1595;-0.1006;
10.8000;0.1595;-0.0982;
11.1000;0.1644;-0.0863;
11.4000;0.1587;-0.1006;
11.7000;0.1612;-0.0863;
12.0000;0.1612;-0.0863;
12.3000;0.1652;-0.0791;
12.6000;0.1612;-0.0839;
12.9000;0.1563;-0.1006;
13.2000;0.1595;-0.0839;
13.5000;0.1612;-0.0791;
13.8000;0.1595;-0.0887;
14.1000;0.1604;-0.0839;
14.4000;0.1750;-0.0311;
14.7000;0.1538;-0.0887;
15.0000;0.1587;-0.0815;
15.3000;0.1604;-0.0863;
15.6000;0.1579;-0.0934;
15.9000;0.1465;-0.1198;
16.2000;0.1473;-0.1174;
16.5000;0.1604;-0.0863;
16.8000;0.1701;-0.0599;
17.1000;0.1604;-0.0863;
17.4000;0.1587;-0.0863;
17.7000;0.1595;-0.0815;
18.0000;0.1595;-0.0767;
18.3000;0.1571;-0.0910;
18.6000;0.1587;-0.0910;
18.9000;0.1587;-0.0982;
19.2000;0.1595;-0.0910;
19.5000;0.1595;-0.0934;
19.8000;0.1587;-0.1030;
20.1000;0.1587;-0.1054;
20.4000;0.1571;-0.1102;
20.7000;0.1612;-0.1030;
21.0000;0.1595;-0.0958;
21.3000;0.1587;-0.0887;
21.6000;0.1563;-0.0839;
21.9000;0.1506;-0.0982;
22.2000;0.1612;-0.0719;
22.5000;0.1612;-0.0647;
22.8000;0.1587;-0.0791;
23.1000;0.1579;-0.0863;
23.4000;0.1571;-0.0839;
23.7000;0.1604;-0.0767;
24.0000;0.1587;-0.0839;
24.3000;0.1595;-0.0863;
24.6000;0.1538;-0.0982;
24.9000;0.1677;-0.0599;
25.2000;0.1628;-0.0719;
25.5000;0.1587;-0.0695;
25.8000;0.1669;-0.0527;
26.1000;0.1579;-0.0743;
26.4000;0.1604;-0.0695;
26.7000;0.1587;-0.0719;
27.0000;0.1604;-0.0647;
27.3000;0.1579;-0.0671;
27.6000;0.1571;-0.0695;
27.9000;0.1604;-0.0623;
28.2000;0.1604;-0.0671;
28.5000;0.1604;-0.0647;
28.8000;0.1587;-0.0719;
29.1000;0.1604;-0.0647;
29.4000;0.1579;-0.0671;
29.7000;0.1587;-0.0599;
30.0000;0.1547;-0.0671;
30.3000;0.1587;-0.0623;
30.6000;0.1620;-0.0479;
30.9000;0.1587;-0.0575;
31.2000;0.1579;-0.0671;
31.5000;0.1530;-0.0887;
31.8000;0.1628;-0.0623;
32.1000;0.1571;-0.0695;
32.4000;0.1604;-0.0671;
32.7000;0.1595;-0.0647;
33.0000;0.1587;-0.0647;
33.3000;0.1587;-0.0599;
33.6000;0.1587;-0.0575;
33.9000;0.1579;-0.0647;
34.2000;0.1661;-0.0431;
34.5000;0.1595;-0.0623;
34.8000;0.1595;-0.0647;
35.1000;0.1628;-0.0575;
35.4000;0.1595;-0.0551;
35.7000;0.1604;-0.0527;
36.0000;0.1595;-0.0551;
36.3000;0.1620;-0.0527;
36.6000;0.1644;-0.0455;
36.9000;0.1612;-0.0551;
37.2000;0.1612;-0.0503;
37.5000;0.1587;-0.0599;
37.8000;0.1595;-0.0599;
38.1000;0.1604;-0.0551;
38.4000;0.1604;-0.0503;
38.7000;0.1604;-0.0479;
39.0000;0.1612;-0.0455;
39.3000;0.1612;-0.0455;
39.6000;0.1612;-0.0407;
39.9000;0.1628;-0.0335;
40.2000;0.1604;-0.0455;
40.5000;0.1595;-0.0503;
40.8000;0.1538;-0.0719;
41.1000;0.1587;-0.0575;
41.4000;0.1612;-0.0551;
41.7000;0.1612;-0.0503;
42.0000;0.1595;-0.0503;
42.3000;0.1579;-0.0551;
42.6000;0.1612;-0.0455;
42.9000;0.1595;-0.0527;
43.2000;0.1612;-0.0479;
43.5000;0.1604;-0.0599;
43.8000;0.1620;-0.0551;
44.1000;0.1587;-0.0671;
44.4000;0.1604;-0.0671;
44.7000;0.1514;-0.0958;
45.0000;0.1555;-0.0863;
45.3000;0.1563;-0.0887;
45.6000;0.1628;-0.0719;
45.9000;0.1604;-0.0791;
46.2000;0.1685;-0.0647;
46.5000;0.1661;-0.0695;
46.8000;0.1587;-0.0934;
47.1000;0.1595;-0.0934;
47.4000;0.1571;-0.1054;
47.7000;0.1604;-0.0982;
48.0000;0.1571;-0.1078;
48.3000;0.1595;-0.0982;
48.6000;0.1604;-0.0910;
48.9000;0.1587;-0.0934;
49.2000;0.1595;-0.0982;
49.5000;0.1587;-0.1006;
49.8000;0.1620;-0.0863;
50.1000;0.1595;-0.0887;
50.4000;0.1604;-0.0863;
50.7000;0.1579;-0.0887;
51.0000;0.1685;-0.0551;
51.3000;0.1587;-0.0791;
51.6000;0.1563;-0.0910;
51.9000;0.1587;-0.0767;
52.2000;0.1579;-0.0839;
52.5000;0.1579;-0.0839;
52.8000;0.1579;-0.0839;
53.1000;0.1620;-0.0671;
53.4000;0.1563;-0.0671;
53.7000;0.1604;-0.0575;
54.0000;0.1612;-0.0479;
54.3000;0.1587;-0.0551;
54.6000;0.1628;-0.0407;
54.9000;0.1595;-0.0479;
55.2000;0.1571;-0.0479;
55.5000;0.1563;-0.0407;
55.8000;0.1579;-0.0383;
56.1000;0.1604;-0.0479;
56.4000;0.1522;-0.0767;
56.7000;0.1595;-0.0623;
57.0000;0.1579;-0.0695;
57.3000;0.1555;-0.0815;
57.6000;0.1547;-0.0791;
57.9000;0.1587;-0.0743;
58.2000;0.1498;-0.1054;
58.5000;0.1628;-0.0599;
58.8000;0.1620;-0.0599;
59.1000;0.1579;-0.0695;
59.4000;0.1604;-0.0671;
59.7000;0.1604;-0.0647;
60.0000;0.1595;-0.0599;
60.3000;0.1604;-0.0599;
60.6000;0.1604;-0.0623;
60.9000;0.1579;-0.0719;
61.2000;0.1579;-0.0743;
61.5000;0.1612;-0.0695;
61.8000;0.1628;-0.0599;
62.1000;0.1604;-0.0599;
62.4000;0.1685;-0.0455;
62.7000;0.1530;-0.0767;
63.0000;0.1571;-0.0695;
63.3000;0.1595;-0.0599;
63.6000;0.1628;-0.0503;
63.9000;0.1595;-0.0575;
64.2000;0.1579;-0.0599;
64.5000;0.1587;-0.0671;
64.8000;0.1571;-0.0671;
65.1000;0.1587;-0.0599;
65.4000;0.1522;-0.0791;
65.7000;0.1595;-0.0575;
66.0000;0.1587;-0.0527;
66.3000;0.1587;-0.0551;
66.6000;0.1620;-0.0455;
66.9000;0.1595;-0.0503;
67.2000;0.1587;-0.0551;
67.5000;0.1571;-0.0551;
67.8000;0.1571;-0.0599;
68.1000;0.1579;-0.0671;
68.4000;0.1620;-0.0575;
68.7000;0.1587;-0.0599;
69.0000;0.1595;-0.0503;
69.3000;0.1595;-0.0503;
69.6000;0.1604;-0.0455;
69.9000;0.1644;-0.0359;
70.2000;0.1571;-0.0575;
70.5000;0.1604;-0.0431;
70.8000;0.1620;-0.0479;
71.1000;0.1595;-0.0575;
71.4000;0.1604;-0.0527;
71.7000;0.1579;-0.0623;
72.0000;0.1612;-0.0527;
72.3000;0.1604;-0.0575;
72.6000;0.1555;-0.0695;
72.9000;0.1595;-0.0647;
73.2000;0.1604;-0.0647;
73.5000;0.1595;-0.0695;
73.8000;0.1620;-0.0575;
74.1000;0.1604;-0.0647;
74.4000;0.1636;-0.0647;
74.7000;0.1604;-0.0863;
75.0000;0.1595;-0.0887;
75.3000;0.1595;-0.0863;
75.6000;0.1587;-0.0887;
75.9000;0.1595;-0.0815;
76.2000;0.1587;-0.0743;
76.5000;0.1579;-0.0839;
76.8000;0.1563;-0.0815;
77.1000;0.1587;-0.0839;
77.4000;0.1587;-0.0815;
77.7000;0.1522;-0.0982;
78.0000;0.1579;-0.0767;
78.3000;0.1563;-0.0839;
78.6000;0.1538;-0.0887;
78.9000;0.1579;-0.0815;
79.2000;0.1555;-0.0934;
79.5000;0.1595;-0.0863;
79.8000;0.1685;-0.0599;
80.1000;0.1604;-0.0839;
80.4000;0.1620;-0.0791;
80.7000;0.1595;-0.0863;
81.0000;0.1595;-0.0887;
81.3000;0.1604;-0.0887;
81.6000;0.1522;-0.1078;
81.9000;0.1612;-0.0887;
82.2000;0.1587;-0.0910;
82.5000;0.1587;-0.0815;
82.8000;0.1595;-0.0767;
83.1000;0.1490;-0.1054;
83.4000;0.1538;-0.0982;
83.7000;0.1587;-0.0934;
84.0000;0.1595;-0.0934;
84.3000;0.1604;-0.0910;
84.6000;0.1587;-0.1078;
84.9000;0.1587;-0.1126;
85.2000;0.1579;-0.1174;
85.5000;0.1547;-0.1174;
85.8000;0.1522;-0.1222;
86.1000;0.1587;-0.0958;
86.4000;0.1718;-0.0527;
86.7000;0.1652;-0.0767;
87.0000;0.1604;-0.0887;
87.3000;0.1677;-0.0767;
87.6000;0.1563;-0.1078;
87.9000;0.1628;-0.0910;
88.2000;0.1604;-0.0934;
88.5000;0.1571;-0.0958;
88.8000;0.1571;-0.1030;
89.1000;0.1587;-0.0934;
89.4000;0.1547;-0.0982;
89.7000;0.1628;-0.0863;
90.0000;0.1571;-0.0934;
90.3000;0.1604;-0.0958;
90.6000;0.1595;-0.0934;
90.9000;0.1604;-0.0910;
91.2000;0.1604;-0.0839;
91.5000;0.1587;-0.0982;
91.8000;0.1579;-0.0982;
92.1000;0.1595;-0.0958;
92.4000;0.1587;-0.1078;
92.7000;0.1604;-0.1006;
93.0000;0.1604;-0.0982;
93.3000;0.1620;-0.0934;
93.6000;0.1595;-0.0934;
93.9000;0.1506;-0.1078;
94.2000;0.1652;-0.0719;
94.5000;0.1612;-0.0743;
94.8000;0.1579;-0.0671;
95.1000;0.1563;-0.0719;
95.4000;0.1587;-0.0671;
95.7000;0.1587;-0.0767;
96.0000;0.1612;-0.0767;
96.3000;0.1563;-0.0887;
96.6000;0.1587;-0.0839;
96.9000;0.1612;-0.0767;
97.2000;0.1571;-0.0839;
97.5000;0.1563;-0.0863;
97.8000;0.1595;-0.0743;
98.1000;0.1579;-0.0791;
98.4000;0.1604;-0.0743;
98.7000;0.1612;-0.0719;
99.0000;0.1587;-0.0791;
99.3000;0.1563;-0.0791;
99.6000;0.1498;-0.0982;
99.9000;0.1587;-0.0671;
100.2000;0.1595;-0.0647;
100.5000;0.1579;-0.0719;
100.8000;0.1709;-0.0311;
101.1000;0.1587;-0.0647;
101.4000;0.1571;-0.0647;
101.7000;0.1587;-0.0623;
102.0000;0.1587;-0.0623;
102.3000;0.1587;-0.0479;
102.6000;0.1571;-0.0599;
102.9000;0.1571;-0.0671;
103.2000;0.1563;-0.0719;
103.5000;0.1579;-0.0767;
103.8000;0.1563;-0.0767;
104.1000;0.1563;-0.0671;
104.4000;0.1587;-0.0551;
104.7000;0.1563;-0.0599;
105.0000;0.1579;-0.0575;
105.3000;0.1514;-0.0767;
105.6000;0.1628;-0.0527;
105.9000;0.1612;-0.0623;
106.2000;0.1506;-0.0815;
106.5000;0.1555;-0.0719;
106.8000;0.1579;-0.0647;
107.1000;0.1718;-0.0383;
107.4000;0.1547;-0.0815;
107.7000;0.1718;-0.0407;
108.0000;0.1571;-0.0695;
108.3000;0.1547;-0.0839;
108.6000;0.1644;-0.0479;
108.9000;0.1563;-0.0623;
109.2000;0.1579;-0.0551;
109.5000;0.1555;-0.0527;
109.8000;0.1604;-0.0503;
110.1000;0.1579;-0.0575;
110.4000;0.1571;-0.0671;
110.7000;0.1587;-0.0623;
111.0000;0.1595;-0.0551;
111.3000;0.1587;-0.0623;
111.6000;0.1571;-0.0695;
111.9000;0.1612;-0.0575;
112.2000;0.1579;-0.0671;
112.5000;0.1587;-0.0527;
112.8000;0.1628;-0.0503;
113.1000;0.1604;-0.0575;
113.4000;0.1595;-0.0527;
113.7000;0.1604;-0.0551;
114.0000;0.1612;-0.0551;
114.3000;0.1595;-0.0527;
114.6000;0.1579;-0.0575;
114.9000;0.1612;-0.0527;
115.2000;0.1612;-0.0479;
115.5000;0.1587;-0.0551;
115.8000;0.1595;-0.0647;
116.1000;0.1571;-0.0695;
116.4000;0.1579;-0.0767;
116.7000;0.1571;-0.0695;
117.0000;0.1587;-0.0575;
117.3000;0.1587;-0.0527;
117.6000;0.1612;-0.0455;
117.9000;0.1644;-0.0383;
118.2000;0.1620;-0.0527;
118.5000;0.1595;-0.0647;
118.8000;0.1587;-0.0647;
119.1000;0.1595;-0.0623;
119.4000;0.1612;-0.0623;
119.7000;0.1587;-0.0623;
120.0000;0.1579;-0.0623;
120.3000;0.1579;-0.0599;
120.6000;0.1563;-0.0647;
120.9000;0.1579;-0.0575;
121.2000;0.1644;-0.0407;
121.5000;0.1579;-0.0455;
121.8000;0.1587;-0.0527;
122.1000;0.1595;-0.0647;
122.4000;0.1595;-0.0623;
122.7000;0.1604;-0.0671;
123.0000;0.1604;-0.0695;
123.3000;0.1652;-0.0551;
123.6000;0.1604;-0.0695;
123.9000;0.1587;-0.0815;
124.2000;0.1579;-0.0767;
124.5000;0.1595;-0.0719;
124.8000;0.1579;-0.0695;
125.1000;0.1636;-0.0575;
125.4000;0.1587;-0.0767;
125.7000;0.1555;-0.0887;
126.0000;0.1563;-0.0887;
126.3000;0.1628;-0.0623;
126.6000;0.1604;-0.0647;
126.9000;0.1587;-0.0695;
127.2000;0.1579;-0.0719;
127.5000;0.1587;-0.0695;
127.8000;0.1579;-0.0743;
128.1000;0.1579;-0.0743;
128.4000;0.1595;-0.0767;
128.7000;0.1612;-0.0719;
129.0000;0.1595;-0.0767;
129.3000;0.1579;-0.0887;
129.6000;0.1538;-0.1054;
129.9000;0.1571;-0.0958;
130.2000;0.1571;-0.0863;
130.5000;0.1604;-0.0695;
130.8000;0.1481;-0.1006;
131.1000;0.1587;-0.0719;
131.4000;0.1612;-0.0743;
131.7000;0.1538;-0.0863;
132.0000;0.1587;-0.0719;
132.3000;0.1595;-0.0743;
132.6000;0.1579;-0.0695;
132.9000;0.1547;-0.0767;
133.2000;0.1571;-0.0695;
133.5000;0.1555;-0.0743;
133.8000;0.1571;-0.0767;
134.1000;0.1612;-0.0623;
134.4000;0.1595;-0.0647;
134.7000;0.1571;-0.0743;
135.0000;0.1571;-0.0623;
135.3000;0.1587;-0.0551;
135.6000;0.1628;-0.0455;
135.9000;0.1595;-0.0431;
136.2000;0.1587;-0.0479;
136.5000;0.1587;-0.0407;
136.8000;0.1563;-0.0479;
137.1000;0.1604;-0.0335;
137.4000;0.1579;-0.0359;
137.7000;0.1628;-0.0288;
138.0000;0.1587;-0.0407;
138.3000;0.1604;-0.0407;
138.6000;0.1579;-0.0599;
138.9000;0.1514;-0.0839;
139.2000;0.1620;-0.0551;
139.5000;0.1579;-0.0647;
139.8000;0.1595;-0.0599;
140.1000;0.1555;-0.0839;
140.4000;0.1579;-0.0743;
140.7000;0.1595;-0.0695;
141.0000;0.1579;-0.0743;
141.3000;0.1555;-0.0767;
141.6000;0.1604;-0.0719;
141.9000;0.1587;-0.0791;
142.2000;0.1604;-0.0791;
142.5000;0.1579;-0.0767;
142.8000;0.1563;-0.0767;
143.1000;0.1587;-0.0743;
143.4000;0.1620;-0.0671;
143.7000;0.1604;-0.0719;
144.0000;0.1595;-0.0743;
144.3000;0.1595;-0.0671;
144.6000;0.1587;-0.0695;
144.9000;0.1628;-0.0575;
145.2000;0.1677;-0.0503;
145.5000;0.1571;-0.0695;
145.8000;0.1595;-0.0575;
146.1000;0.1604;-0.0527;
146.4000;0.1620;-0.0407;
146.7000;0.1498;-0.0815;
147.0000;0.1595;-0.0479;
147.3000;0.1587;-0.0575;
147.6000;0.1547;-0.0599;
147.9000;0.1514;-0.0623;
148.2000;0.1579;-0.0407;
148.5000;0.1538;-0.0527;
148.8000;0.1587;-0.0479;
149.1000;0.1612;-0.0407;
149.4000;0.1595;-0.0431;
149.7000;0.1595;-0.0431;
150.0000;0.1604;-0.0335;
150.3000;0.1595;-0.0359;
150.6000;0.1620;-0.0311;
150.9000;0.1612;-0.0335;
151.2000;0.1530;-0.0455;
151.5000;0.1547;-0.0455;
151.8000;0.1530;-0.0527;
152.1000;0.1612;-0.0311;
152.4000;0.1579;-0.0503;
152.7000;0.1604;-0.0455;
153.0000;0.1522;-0.0599;
153.3000;0.1595;-0.0431;
153.6000;0.1587;-0.0431;
153.9000;0.1579;-0.0455;
154.2000;0.1579;-0.0479;
154.5000;0.1563;-0.0575;
154.8000;0.1587;-0.0527;
155.1000;0.1579;-0.0527;
155.4000;0.1579;-0.0623;
155.7000;0.1587;-0.0575;
156.0000;0.1587;-0.0575;
156.3000;0.1571;-0.0623;
156.6000;0.1604;-0.0527;
156.9000;0.1571;-0.0623;
157.2000;0.1571;-0.0623;
157.5000;0.1587;-0.0575;
157.8000;0.1579;-0.0647;
158.1000;0.1579;-0.0647;
158.4000;0.1563;-0.0599;
158.7000;0.1579;-0.0551;
159.0000;0.1579;-0.0575;
159.3000;0.1587;-0.0575;
159.6000;0.1587;-0.0671;
159.9000;0.1579;-0.0623;
160.2000;0.1579;-0.0695;
160.5000;0.1595;-0.0551;
160.8000;0.1563;-0.0503;
161.1000;0.1595;-0.0383;
161.4000;0.1571;-0.0503;
161.7000;0.1604;-0.0455;
162.0000;0.1652;-0.0311;
162.3000;0.1595;-0.0431;
162.6000;0.1612;-0.0383;
162.9000;0.1587;-0.0527;
163.2000;0.1587;-0.0455;
163.5000;0.1595;-0.0479;
163.8000;0.1628;-0.0359;
164.1000;0.1547;-0.0455;
164.4000;0.1579;-0.0383;
164.7000;0.1579;-0.0311;
165.0000;0.1587;-0.0192;
165.3000;0.1604;-0.0168;
165.6000;0.1587;-0.0311;
165.9000;0.1595;-0.0359;
166.2000;0.1677;-0.0144;
166.5000;0.1571;-0.0407;
166.8000;0.1595;-0.0455;
167.1000;0.1587;-0.0527;
167.4000;0.1587;-0.0599;
167.7000;0.1579;-0.0671;
168.0000;0.1579;-0.0647;
168.3000;0.1587;-0.0599;
168.6000;0.1579;-0.0623;
168.9000;0.1579;-0.0527;
169.2000;0.1595;-0.0551;
169.5000;0.1555;-0.0695;
169.8000;0.1587;-0.0623;
170.1000;0.1579;-0.0623;
170.4000;0.1579;-0.0623;
170.7000;0.1579;-0.0623;
171.0000;0.1587;-0.0719;
171.3000;0.1620;-0.0623;
171.6000;0.1579;-0.0671;
171.9000;0.1587;-0.0671;
172.2000;0.1579;-0.0743;
172.5000;0.1644;-0.0551;
172.8000;0.1506;-0.0815;
173.1000;0.1522;-0.0815;
173.4000;0.1677;-0.0383;
173.7000;0.1587;-0.0695;
174.0000;0.1538;-0.0743;
174.3000;0.1579;-0.0599;
174.6000;0.1571;-0.0599;
174.9000;0.1571;-0.0551;
175.2000;0.1571;-0.0527;
175.5000;0.1587;-0.0383;
175.8000;0.1595;-0.0407;
176.1000;0.1587;-0.0407;
176.4000;0.1563;-0.0479;
176.7000;0.1709;-0.0048;
177.0000;0.1587;-0.0383;
177.3000;0.1587;-0.0383;
177.6000;0.1563;-0.0455;
177.9000;0.1595;-0.0407;
178.2000;0.1579;-0.0455;
178.5000;0.1587;-0.0479;
178.8000;0.1587;-0.0431;
179.1000;0.1579;-0.0431;
179.4000;0.1579;-0.0503;
179.7000;0.1563;-0.0527;
180.0000;0.1538;-0.0527;
180.3000;0.1587;-0.0455;
180.6000;0.1644;-0.0335;
180.9000;0.1571;-0.0551;
181.2000;0.1579;-0.0503;
181.5000;0.1620;-0.0431;
181.8000;0.1595;-0.0599;
182.1000;0.1579;-0.0575;
182.4000;0.1595;-0.0527;
182.7000;0.1571;-0.0647;
183.0000;0.1604;-0.0551;
183.3000;0.1579;-0.0527;
183.6000;0.1620;-0.0383;
183.9000;0.1604;-0.0479;
184.2000;0.1595;-0.0503;
184.5000;0.1579;-0.0431;
184.8000;0.1595;-0.0455;
185.1000;0.1604;-0.0335;
185.4000;0.1563;-0.0335;
185.7000;0.1709;-0.0024;
186.0000;0.1579;-0.0383;
186.3000;0.1563;-0.0383;
186.6000;0.1579;-0.0383;
186.9000;0.1587;-0.0455;
187.2000;0.1669;-0.0240;
187.5000;0.1620;-0.0264;
187.8000;0.1579;-0.0335;
188.1000;0.1571;-0.0503;
188.4000;0.1547;-0.0527;
188.7000;0.1579;-0.0359;
189.0000;0.1595;-0.0359;
189.3000;0.1587;-0.0383;
189.6000;0.1595;-0.0431;
189.9000;0.1661;-0.0288;
190.2000;0.1587;-0.0575;
190.5000;0.1579;-0.0599;
190.8000;0.1604;-0.0551;
191.1000;0.1587;-0.0527;
191.4000;0.1490;-0.0743;
191.7000;0.1579;-0.0551;
192.0000;0.1587;-0.0455;
192.3000;0.1587;-0.0479;
192.6000;0.1604;-0.0479;
192.9000;0.1604;-0.0455;
193.2000;0.1644;-0.0240;
193.5000;0.1620;-0.0264;
193.8000;0.1612;-0.0311;
194.1000;0.1587;-0.0383;
194.4000;0.1579;-0.0455;
194.7000;0.1620;-0.0311;
195.0000;0.1595;-0.0575;
195.3000;0.1547;-0.0647;
195.6000;0.1571;-0.0575;
195.9000;0.1612;-0.0359;
196.2000;0.1620;-0.0407;
196.5000;0.1595;-0.0479;
196.8000;0.1677;-0.0288;
197.1000;0.1571;-0.0671;
197.4000;0.1538;-0.0647;
197.7000;0.1595;-0.0503;
198.0000;0.1587;-0.0503;
198.3000;0.1579;-0.0431;
198.6000;0.1579;-0.0431;
198.9000;0.1579;-0.0407;
199.2000;0.1571;-0.0431;
199.5000;0.1563;-0.0503;
199.8000;0.1587;-0.0479;
200.1000;0.1587;-0.0575;
200.4000;0.1595;-0.0503;
200.7000;0.1595;-0.0647;
201.0000;0.1579;-0.0815;
201.3000;0.1595;-0.0743;
201.6000;0.1595;-0.0767;
201.9000;0.1579;-0.0815;
202.2000;0.1579;-0.0695;
202.5000;0.1547;-0.0791;
202.8000;0.1595;-0.0647;
203.1000;0.1604;-0.0599;
203.4000;0.1693;-0.0383;
203.7000;0.1595;-0.0527;
204.0000;0.1604;-0.0431;
204.3000;0.1595;-0.0479;
204.6000;0.1579;-0.0431;
204.9000;0.1571;-0.0431;
205.2000;0.1579;-0.0431;
205.5000;0.1538;-0.0551;
205.8000;0.1587;-0.0455;
206.1000;0.1595;-0.0455;
206.4000;0.1587;-0.0431;
206.7000;0.1579;-0.0503;
207.0000;0.1587;-0.0623;
207.3000;0.1587;-0.0695;
207.6000;0.1612;-0.0647;
207.9000;0.1563;-0.0815;
208.2000;0.1579;-0.0671;
208.5000;0.1579;-0.0599;
208.8000;0.1579;-0.0503;
209.1000;0.1579;-0.0527;
209.4000;0.1595;-0.0575;
209.7000;0.1587;-0.0647;
210.0000;0.1604;-0.0623;
210.3000;0.1595;-0.0599;
210.6000;0.1701;-0.0311;
210.9000;0.1571;-0.0623;
211.2000;0.1579;-0.0503;
211.5000;0.1612;-0.0431;
211.8000;0.1587;-0.0431;
212.1000;0.1571;-0.0551;
212.4000;0.1604;-0.0455;
212.7000;0.1579;-0.0575;
213.0000;0.1530;-0.0695;
213.3000;0.1449;-0.0910;
213.6000;0.1595;-0.0647;
213.9000;0.1530;-0.0671;
214.2000;0.1579;-0.0479;
214.5000;0.1587;-0.0527;
214.8000;0.1571;-0.0599;
215.1000;0.1604;-0.0479;
215.4000;0.1612;-0.0479;
215.7000;0.1587;-0.0479;
216.0000;0.1579;-0.0503;
216.3000;0.1604;-0.0503;
216.6000;0.1734;-0.0144;
216.9000;0.1587;-0.0551;
217.2000;0.1555;-0.0695;
217.5000;0.1571;-0.0647;
217.8000;0.1579;-0.0527;
218.1000;0.1587;-0.0479;
218.4000;0.1677;-0.0288;
218.7000;0.1636;-0.0431;
219.0000;0.1587;-0.0575;
219.3000;0.1571;-0.0719;
219.6000;0.1587;-0.0647;
219.9000;0.1571;-0.0647;
220.2000;0.1595;-0.0599;
220.5000;0.1612;-0.0479;
220.8000;0.1571;-0.0503;
221.1000;0.1555;-0.0551;
221.4000;0.1579;-0.0527;
221.7000;0.1571;-0.0455;
222.0000;0.1587;-0.0479;
222.3000;0.1636;-0.0359;
222.6000;0.1604;-0.0455;
222.9000;0.1579;-0.0503;
223.2000;0.1628;-0.0383;
223.5000;0.1587;-0.0671;
223.8000;0.1579;-0.0719;
224.1000;0.1490;-0.0934;
224.4000;0.1579;-0.0623;
224.7000;0.1595;-0.0527;
225.0000;0.1579;-0.0479;
225.3000;0.1555;-0.0551;
225.6000;0.1571;-0.0551;
225.9000;0.1604;-0.0551;
226.2000;0.1604;-0.0527;
226.5000;0.1595;-0.0527;
226.8000;0.1595;-0.0407;
227.1000;0.1595;-0.0407;
227.4000;0.1587;-0.0431;
227.7000;0.1587;-0.0527;
228.0000;0.1571;-0.0599;
228.3000;0.1579;-0.0527;
228.6000;0.1595;-0.0479;
228.9000;0.1563;-0.0551;
229.2000;0.1612;-0.0431;
229.5000;0.1587;-0.0431;
229.8000;0.1595;-0.0503;
230.1000;0.1579;-0.0479;
230.4000;0.1579;-0.0503;
230.7000;0.1595;-0.0551;
231.0000;0.1587;-0.0647;
231.3000;0.1587;-0.0647;
231.6000;0.1595;-0.0671;
231.9000;0.1587;-0.0671;
232.2000;0.1612;-0.0503;
232.5000;0.1587;-0.0503;
232.8000;0.1563;-0.0551;
233.1000;0.1579;-0.0623;
233.4000;0.1563;-0.0671;
233.7000;0.1587;-0.0719;
234.0000;0.1579;-0.0791;
234.3000;0.1563;-0.0719;
234.6000;0.1595;-0.0599;
234.9000;0.1628;-0.0575;
235.2000;0.1481;-0.0958;
235.5000;0.1604;-0.0647;
235.8000;0.1563;-0.0743;
236.1000;0.1579;-0.0647;
236.4000;0.1604;-0.0527;
236.7000;0.1587;-0.0503;
237.0000;0.1587;-0.0431;
237.3000;0.1595;-0.0431;
237.6000;0.1465;-0.0743;
237.9000;0.1506;-0.0695;
238.2000;0.1563;-0.0527;
238.5000;0.1587;-0.0455;
238.8000;0.1595;-0.0479;
239.1000;0.1612;-0.0431;
239.4000;0.1538;-0.0575;
239.7000;0.1571;-0.0479;
240.0000;0.1587;-0.0575;
240.3000;0.1538;-0.0671;
240.6000;0.1595;-0.0479;
240.9000;0.1514;-0.0743;
241.2000;0.1587;-0.0551;
241.5000;0.1563;-0.0623;
241.8000;0.1579;-0.0599;
242.1000;0.1604;-0.0527;
242.4000;0.1604;-0.0647;
242.7000;0.1571;-0.0671;
243.0000;0.1571;-0.0623;
243.3000;0.1587;-0.0623;
243.6000;0.1538;-0.0695;
243.9000;0.1587;-0.0575;
244.2000;0.1595;-0.0551;
244.5000;0.1579;-0.0551;
244.8000;0.1571;-0.0527;
245.1000;0.1612;-0.0551;
245.4000;0.1595;-0.0575;
245.7000;0.1604;-0.0575;
246.0000;0.1571;-0.0575;
246.3000;0.1563;-0.0671;
246.6000;0.1612;-0.0455;
246.9000;0.1579;-0.0551;
247.2000;0.1547;-0.0599;
247.5000;0.1587;-0.0407;
247.8000;0.1579;-0.0431;
248.1000;0.1538;-0.0551;
248.4000;0.1579;-0.0479;
248.7000;0.1595;-0.0383;
249.0000;0.1587;-0.0407;
249.3000;0.1612;-0.0264;
249.6000;0.1571;-0.0407;
249.9000;0.1587;-0.0407;
250.2000;0.1587;-0.0383;
250.5000;0.1571;-0.0455;
250.8000;0.1457;-0.0719;
251.1000;0.1571;-0.0431;
251.4000;0.1587;-0.0359;
251.7000;0.1604;-0.0359;
252.0000;0.1579;-0.0455;
252.3000;0.1587;-0.0503;
252.6000;0.1587;-0.0479;
252.9000;0.1612;-0.0479;
253.2000;0.1571;-0.0671;
253.5000;0.1473;-0.0887;
253.8000;0.1498;-0.0839;
254.1000;0.1571;-0.0599;
254.4000;0.1595;-0.0551;
254.7000;0.1587;-0.0599;
255.0000;0.1604;-0.0551;
255.3000;0.1563;-0.0575;
255.6000;0.1620;-0.0407;
255.9000;0.1490;-0.0791;
256.2000;0.1530;-0.0671;
256.5000;0.1530;-0.0743;
256.8000;0.1579;-0.0647;
257.1000;0.1587;-0.0575;
257.4000;0.1563;-0.0575;
257.7000;0.1563;-0.0623;
258.0000;0.1465;-0.0910;
258.3000;0.1595;-0.0695;
258.6000;0.1563;-0.0743;
258.9000;0.1563;-0.0743;
259.2000;0.1595;-0.0623;
259.5000;0.1547;-0.0719;
259.8000;0.1595;-0.0551;
260.1000;0.1628;-0.0383;
260.4000;0.1579;-0.0455;
260.7000;0.1587;-0.0335;
261.0000;0.1587;-0.0431;
261.3000;0.1571;-0.0503;
261.6000;0.1579;-0.0431;
261.9000;0.1579;-0.0431;
262.2000;0.1579;-0.0407;
262.5000;0.1587;-0.0431;
262.8000;0.1595;-0.0359;
263.1000;0.1612;-0.0335;
263.4000;0.1595;-0.0455;
263.7000;0.1563;-0.0455;
264.0000;0.1595;-0.0455;
264.3000;0.1587;-0.0455;
264.6000;0.1595;-0.0431;
264.9000;0.1579;-0.0407;
265.2000;0.1555;-0.0479;
265.5000;0.1587;-0.0455;
265.8000;0.1701;-0.0144;
266.1000;0.1604;-0.0455;
266.4000;0.1547;-0.0599;
266.7000;0.1636;-0.0407;
267.0000;0.1522;-0.0791;
267.3000;0.1579;-0.0695;
267.6000;0.1587;-0.0623;
267.9000;0.1587;-0.0575;
268.2000;0.1579;-0.0551;
268.5000;0.1604;-0.0479;
268.8000;0.1612;-0.0623;
269.1000;0.1579;-0.0719;
269.4000;0.1587;-0.0623;
269.7000;0.1595;-0.0503;
270.0000;0.1595;-0.0503;
270.3000;0.1579;-0.0623;
270.6000;0.1522;-0.0791;
270.9000;0.1571;-0.0647;
271.2000;0.1604;-0.0527;
271.5000;0.1587;-0.0455;
271.8000;0.1587;-0.0359;
272.1000;0.1579;-0.0407;
272.4000;0.1563;-0.0455;
272.7000;0.1595;-0.0455;
273.0000;0.1571;-0.0503;
273.3000;0.1587;-0.0455;
273.6000;0.1522;-0.0671;
273.9000;0.1636;-0.0359;
274.2000;0.1579;-0.0551;
274.5000;0.1547;-0.0623;
274.8000;0.1579;-0.0527;
275.1000;0.1587;-0.0599;
275.4000;0.1579;-0.0599;
275.7000;0.1579;-0.0671;
276.0000;0.1563;-0.0671;
276.3000;0.1579;-0.0623;
276.6000;0.1587;-0.0671;
276.9000;0.1595;-0.0647;
277.2000;0.1587;-0.0647;
277.5000;0.1416;-0.1150;
277.8000;0.1595;-0.0551;
278.1000;0.1587;-0.0599;
278.4000;0.1579;-0.0647;
278.7000;0.1595;-0.0623;
279.0000;0.1587;-0.0623;
279.3000;0.1571;-0.0527;
279.6000;0.1604;-0.0407;
279.9000;0.1579;-0.0479;
280.2000;0.1522;-0.0599;
280.5000;0.1612;-0.0288;
280.8000;0.1571;-0.0359;
281.1000;0.1595;-0.0288;
281.4000;0.1571;-0.0407;
281.7000;0.1612;-0.0311;
282.0000;0.1579;-0.0503;
282.3000;0.1571;-0.0527;
282.6000;0.1555;-0.0551;
282.9000;0.1579;-0.0479;
283.2000;0.1563;-0.0503;
283.5000;0.1604;-0.0407;
283.8000;0.1661;-0.0311;
284.1000;0.1587;-0.0527;
284.4000;0.1571;-0.0599;
284.7000;0.1579;-0.0479;
285.0000;0.1604;-0.0431;
285.3000;0.1538;-0.0599;
285.6000;0.1522;-0.0623;
285.9000;0.1579;-0.0479;
286.2000;0.1604;-0.0455;
286.5000;0.1579;-0.0503;
286.8000;0.1555;-0.0527;
287.1000;0.1571;-0.0431;
287.4000;0.1595;-0.0431;
287.7000;0.1612;-0.0431;
288.0000;0.1587;-0.0503;
288.3000;0.1490;-0.0719;
288.6000;0.1587;-0.0527;
288.9000;0.1595;-0.0527;
289.2000;0.1555;-0.0623;
289.5000;0.1563;-0.0551;
289.8000;0.1587;-0.0503;
290.1000;0.1579;-0.0455;
290.4000;0.1571;-0.0575;
290.7000;0.1628;-0.0407;
291.0000;0.1579;-0.0503;
291.3000;0.1685;-0.0168;
291.6000;0.1604;-0.0407;
291.9000;0.1490;-0.0767;
292.2000;0.1644;-0.0359;
292.5000;0.1604;-0.0575;
292.8000;0.1587;-0.0551;
293.1000;0.1579;-0.0623;
293.4000;0.1579;-0.0647;
293.7000;0.1595;-0.0647;
294.0000;0.1579;-0.0671;
294.3000;0.1587;-0.0623;
294.6000;0.1571;-0.0695;
294.9000;0.1563;-0.0695;
295.2000;0.1587;-0.0623;
295.5000;0.1620;-0.0431;
295.8000;0.1579;-0.0527;
296.1000;0.1571;-0.0575;
296.4000;0.1530;-0.0647;
296.7000;0.1579;-0.0575;
297.0000;0.1579;-0.0599;
297.3000;0.1555;-0.0647;
297.6000;0.1604;-0.0503;
297.9000;0.1547;-0.0551;
298.2000;0.1563;-0.0479;
298.5000;0.1644;-0.0240;
298.8000;0.1620;-0.0335;
299.1000;0.1587;-0.0455;
299.4000;0.1579;-0.0527;
299.7000;0.1563;-0.0623;
300.0000;0.1563;-0.0527;
300.3000;0.1604;-0.0455;
300.6000;0.1587;-0.0503;
300.9000;0.1587;-0.0455;
301.2000;0.1604;-0.0407;
301.5000;0.1555;-0.0623;
301.8000;0.1604;-0.0503;
302.1000;0.1595;-0.0455;
302.4000;0.1595;-0.0407;
302.7000;0.1571;-0.0407;
303.0000;0.1579;-0.0407;
303.3000;0.1571;-0.0479;
303.6000;0.1563;-0.0551;
303.9000;0.1571;-0.0575;
304.2000;0.1571;-0.0503;
304.5000;0.1563;-0.0575;
304.8000;0.1587;-0.0503;
305.1000;0.1571;-0.0623;
305.4000;0.1538;-0.0910;
305.7000;0.1612;-0.0743;
306.0000;0.1644;-0.0551;
306.3000;0.1628;-0.0575;
306.6000;0.1579;-0.0743;
306.9000;0.1644;-0.0575;
307.2000;0.1595;-0.0719;
307.5000;0.1555;-0.0815;
307.8000;0.1555;-0.0815;
308.1000;0.1587;-0.0767;
308.4000;0.1579;-0.0719;
308.7000;0.1636;-0.0527;
309.0000;0.1571;-0.0623;
309.3000;0.1595;-0.0503;
309.6000;0.1538;-0.0719;
309.9000;0.1571;-0.0575;
310.2000;0.1595;-0.0575;
310.5000;0.1571;-0.0575;
310.8000;0.1579;-0.0647;
311.1000;0.1587;-0.0599;
311.4000;0.1628;-0.0671;
311.7000;0.1595;-0.0791;
312.0000;0.1595;-0.0767;
312.3000;0.1595;-0.0815;
312.6000;0.1571;-0.0887;
312.9000;0.1571;-0.0934;
313.2000;0.1538;-0.1030;
313.5000;0.1579;-0.0791;
313.8000;0.1587;-0.0791;
314.1000;0.1579;-0.0887;
314.4000;0.1579;-0.0839;
314.7000;0.1612;-0.0767;
315.0000;0.1595;-0.0767;
315.3000;0.1522;-0.0910;
315.6000;0.1579;-0.0743;
315.9000;0.1579;-0.0743;
316.2000;0.1571;-0.0743;
316.5000;0.1579;-0.0671;
316.8000;0.1522;-0.0815;
317.1000;0.1571;-0.0575;
317.4000;0.1579;-0.0599;
317.7000;0.1587;-0.0623;
318.0000;0.1587;-0.0623;
318.3000;0.1652;-0.0431;
318.6000;0.1547;-0.0647;
318.9000;0.1587;-0.0479;
319.2000;0.1636;-0.0431;
319.5000;0.1547;-0.0647;
319.8000;0.1604;-0.0455;
320.1000;0.1563;-0.0503;
320.4000;0.1514;-0.0695;
320.7000;0.1579;-0.0431;
321.0000;0.1595;-0.0383;
321.3000;0.1612;-0.0431;
321.6000;0.1587;-0.0623;
321.9000;0.1481;-0.0887;
322.2000;0.1595;-0.0623;
322.5000;0.1595;-0.0575;
322.8000;0.1604;-0.0527;
323.1000;0.1571;-0.0623;
323.4000;0.1587;-0.0599;
323.7000;0.1587;-0.0647;
324.0000;0.1579;-0.0671;
324.3000;0.1620;-0.0599;
324.6000;0.1579;-0.0599;
324.9000;0.1604;-0.0527;
325.2000;0.1571;-0.0719;
325.5000;0.1555;-0.0719;
325.8000;0.1579;-0.0671;
326.1000;0.1587;-0.0647;
326.4000;0.1587;-0.0719;
326.7000;0.1571;-0.0719;
327.0000;0.1595;-0.0671;
327.3000;0.1563;-0.0671;
327.6000;0.1579;-0.0575;
327.9000;0.1587;-0.0503;
328.2000;0.1595;-0.0527;
328.5000;0.1595;-0.0479;
328.8000;0.1587;-0.0527;
329.1000;0.1612;-0.0479;
329.4000;0.1685;-0.0359;
329.7000;0.1579;-0.0623;
330.0000;0.1693;-0.0335;
330.3000;0.1571;-0.0743;
330.6000;0.1563;-0.0743;
330.9000;0.1579;-0.0647;
331.2000;0.1595;-0.0551;
331.5000;0.1587;-0.0527;
331.8000;0.1587;-0.0575;
332.1000;0.1604;-0.0575;
332.4000;0.1587;-0.0599;
332.7000;0.1595;-0.0647;
333.0000;0.1587;-0.0695;
333.3000;0.1587;-0.0647;
333.6000;0.1595;-0.0599;
333.9000;0.1595;-0.0623;
334.2000;0.1587;-0.0503;
334.5000;0.1636;-0.0264;
334.8000;0.1636;-0.0216;
335.1000;0.1604;-0.0359;
335.4000;0.1547;-0.0599;
335.7000;0.1563;-0.0527;
336.0000;0.1563;-0.0647;
336.3000;0.1604;-0.0527;
336.6000;0.1604;-0.0503;
336.9000;0.1628;-0.0503;
337.2000;0.1587;-0.0599;
337.5000;0.1522;-0.0743;
337.8000;0.1547;-0.0767;
338.1000;0.1587;-0.0647;
338.4000;0.1595;-0.0623;
338.7000;0.1587;-0.0719;
339.0000;0.1595;-0.0695;
339.3000;0.1538;-0.0719;
339.6000;0.1587;-0.0575;
339.9000;0.1595;-0.0575;
340.2000;0.1563;-0.0551;
340.5000;0.1595;-0.0455;
340.8000;0.1587;-0.0599;
341.1000;0.1579;-0.0647;
341.4000;0.1612;-0.0623;
341.7000;0.1579;-0.0695;
342.0000;0.1571;-0.0575;
342.3000;0.1571;-0.0527;
342.6000;0.1587;-0.0431;
342.9000;0.1669;-0.0240;
343.2000;0.1579;-0.0479;
343.5000;0.1595;-0.0479;
343.8000;0.1620;-0.0455;
344.1000;0.1595;-0.0503;
344.4000;0.1587;-0.0527;
344.7000;0.1595;-0.0479;
345.0000;0.1555;-0.0551;
345.3000;0.1587;-0.0431;
345.6000;0.1571;-0.0503;
345.9000;0.1644;-0.0311;
346.2000;0.1563;-0.0527;
346.5000;0.1587;-0.0623;
346.8000;0.1587;-0.0647;
347.1000;0.1571;-0.0647;
347.4000;0.1571;-0.0623;
347.7000;0.1571;-0.0671;
348.0000;0.1587;-0.0599;
348.3000;0.1563;-0.0623;
348.6000;0.1571;-0.0575;
348.9000;0.1579;-0.0575;
349.2000;0.1571;-0.0623;
349.5000;0.1595;-0.0551;
349.8000;0.1661;-0.0407;
350.1000;0.1718;-0.0288;
350.4000;0.1579;-0.0599;
350.7000;0.1620;-0.0527;
351.0000;0.1571;-0.0551;
351.3000;0.1579;-0.0575;
351.6000;0.1677;-0.0407;
351.9000;0.1481;-0.0791;
352.2000;0.1579;-0.0503;
352.5000;0.1604;-0.0479;
352.8000;0.1555;-0.0671;
353.1000;0.1579;-0.0575;
353.4000;0.1530;-0.0719;
353.7000;0.1604;-0.0575;
354.0000;0.1579;-0.0647;
354.3000;0.1701;-0.0264;
354.6000;0.1579;-0.0551;
354.9000;0.1620;-0.0503;
355.2000;0.1693;-0.0264;
355.5000;0.1595;-0.0479;
355.8000;0.1677;-0.0240;
356.1000;0.1579;-0.0455;
356.4000;0.1457;-0.0839;
356.7000;0.1579;-0.0479;
357.0000;0.1587;-0.0407;
357.3000;0.1547;-0.0575;
357.6000;0.1620;-0.0431;
357.9000;0.1579;-0.0647;
358.2000;0.1563;-0.0575;
358.5000;0.1612;-0.0431;
358.8000;0.1506;-0.0623;
359.1000;0.1579;-0.0479;
359.4000;0.1644;-0.0264;
359.7000;0.1604;-0.0383;
360.0000;0.1595;-0.0479;
360.3000;0.1579;-0.0503;
360.6000;0.1587;-0.0479;
360.9000;0.1587;-0.0527;
361.2000;0.1595;-0.0623;
361.5000;0.1587;-0.0719;
361.8000;0.1628;-0.0527;
362.1000;0.1579;-0.0647;
362.4000;0.1604;-0.0479;
362.7000;0.1481;-0.0743;
363.0000;0.1604;-0.0407;
363.3000;0.1571;-0.0503;
363.6000;0.1595;-0.0479;
363.9000;0.1579;-0.0599;
364.2000;0.1587;-0.0671;
364.5000;0.1587;-0.0767;
364.8000;0.1571;-0.0815;
365.1000;0.1595;-0.0743;
365.4000;0.1579;-0.0719;
365.7000;0.1547;-0.0743;
366.0000;0.1571;-0.0743;
366.3000;0.1612;-0.0695;
366.6000;0.1595;-0.0671;
366.9000;0.1571;-0.0815;
367.2000;0.1579;-0.0695;
367.5000;0.1587;-0.0623;
367.8000;0.1620;-0.0551;
368.1000;0.1571;-0.0647;
368.4000;0.1571;-0.0719;
368.7000;0.1571;-0.0647;
369.0000;0.1579;-0.0623;
369.3000;0.1563;-0.0623;
369.6000;0.1555;-0.0671;
369.9000;0.1571;-0.0647;
370.2000;0.1587;-0.0623;
370.5000;0.1604;-0.0623;
370.8000;0.1604;-0.0623;
371.1000;0.1579;-0.0647;
371.4000;0.1595;-0.0647;
371.7000;0.1579;-0.0719;
372.0000;0.1595;-0.0743;
372.3000;0.1595;-0.0671;
372.6000;0.1604;-0.0599;
372.9000;0.1685;-0.0407;
373.2000;0.1571;-0.0719;
373.5000;0.1465;-0.0958;
373.8000;0.1563;-0.0791;
374.1000;0.1547;-0.0958;
374.4000;0.1579;-0.0910;
374.7000;0.1579;-0.0982;
375.0000;0.1498;-0.1246;
375.3000;0.1595;-0.0887;
375.6000;0.1571;-0.0958;
375.9000;0.1522;-0.1054;
376.2000;0.1661;-0.0599;
376.5000;0.1604;-0.0695;
376.8000;0.1579;-0.0719;
377.1000;0.1571;-0.0767;
377.4000;0.1587;-0.0671;
377.7000;0.1587;-0.0647;
378.0000;0.1595;-0.0623;
378.3000;0.1571;-0.0695;
378.6000;0.1563;-0.0743;
378.9000;0.1579;-0.0695;
379.2000;0.1571;-0.0599;
379.5000;0.1644;-0.0311;
379.8000;0.1563;-0.0623;
380.1000;0.1563;-0.0623;
380.4000;0.1587;-0.0623;
380.7000;0.1579;-0.0695;
381.0000;0.1587;-0.0743;
381.3000;0.1612;-0.0719;
381.6000;0.1604;-0.0647;
381.9000;0.1595;-0.0647;
382.2000;0.1587;-0.0719;
382.5000;0.1595;-0.0791;
382.8000;0.1571;-0.0839;
383.1000;0.1579;-0.0839;
383.4000;0.1571;-0.0958;
383.7000;0.1555;-0.0958;
384.0000;0.1587;-0.0982;
384.3000;0.1579;-0.0982;
384.6000;0.1595;-0.0887;
384.9000;0.1506;-0.1078;
385.2000;0.1628;-0.0767;
385.5000;0.1595;-0.0934;
385.8000;0.1579;-0.1030;
386.1000;0.1571;-0.0958;
386.4000;0.1571;-0.0910;
386.7000;0.1579;-0.0934;
387.0000;0.1579;-0.0958;
387.3000;0.1579;-0.1006;
387.6000;0.1571;-0.0982;
387.9000;0.1587;-0.0910;
388.2000;0.1587;-0.0887;
388.5000;0.1587;-0.0863;
388.8000;0.1579;-0.0839;
389.1000;0.1587;-0.0695;
389.4000;0.1571;-0.0719;
389.7000;0.1595;-0.0695;
390.0000;0.1587;-0.0719;
390.3000;0.1563;-0.0743;
390.6000;0.1612;-0.0527;
390.9000;0.1587;-0.0599;
391.2000;0.1579;-0.0647;
391.5000;0.1571;-0.0743;
391.8000;0.1595;-0.0623;
392.1000;0.1587;-0.0599;
392.4000;0.1636;-0.0479;
392.7000;0.1579;-0.0623;
393.0000;0.1571;-0.0575;
393.3000;0.1587;-0.0575;
393.6000;0.1579;-0.0623;
393.9000;0.1595;-0.0671;
394.2000;0.1555;-0.0743;
394.5000;0.1571;-0.0671;
394.8000;0.1636;-0.0575;
395.1000;0.1579;-0.0719;
395.4000;0.1563;-0.0839;
395.7000;0.1587;-0.0839;
396.0000;0.1571;-0.0839;
396.3000;0.1579;-0.0863;
396.6000;0.1587;-0.0839;
396.9000;0.1571;-0.0791;
397.2000;0.1579;-0.0671;
397.5000;0.1604;-0.0551;
397.8000;0.1595;-0.0551;
398.1000;0.1506;-0.0863;
398.4000;0.1571;-0.0719;
398.7000;0.1563;-0.0743;
399.0000;0.1587;-0.0839;
399.3000;0.1530;-0.0934;
399.6000;0.1579;-0.0719;
399.9000;0.1538;-0.0743;
400.2000;0.1587;-0.0623;
400.5000;0.1587;-0.0671;
400.8000;0.1587;-0.0647;
401.1000;0.1636;-0.0479;
401.4000;0.1571;-0.0671;
401.7000;0.1612;-0.0599;
402.0000;0.1530;-0.0815;
402.3000;0.1579;-0.0743;
402.6000;0.1587;-0.0719;
402.9000;0.1579;-0.0743;
403.2000;0.1612;-0.0647;
403.5000;0.1612;-0.0623;
403.8000;0.1652;-0.0431;
404.1000;0.1579;-0.0599;
404.4000;0.1628;-0.0599;
404.7000;0.1604;-0.0695;
405.0000;0.1604;-0.0695;
405.3000;0.1514;-0.0982;
405.6000;0.1587;-0.0815;
405.9000;0.1563;-0.0887;
406.2000;0.1579;-0.0839;
406.5000;0.1579;-0.0767;
406.8000;0.1538;-0.0863;
407.1000;0.1604;-0.0719;
407.4000;0.1579;-0.0815;
407.7000;0.1563;-0.0815;
408.0000;0.1604;-0.0743;
408.3000;0.1595;-0.0743;
408.6000;0.1571;-0.0767;
408.9000;0.1498;-0.1054;
409.2000;0.1620;-0.0599;
409.5000;0.1579;-0.0647;
409.8000;0.1595;-0.0671;
410.1000;0.1604;-0.0647;
410.4000;0.1555;-0.0767;
410.7000;0.1481;-0.0958;
411.0000;0.1587;-0.0671;
411.3000;0.1652;-0.0479;
411.6000;0.1555;-0.0719;
411.9000;0.1579;-0.0599;
412.2000;0.1571;-0.0647;
412.5000;0.1547;-0.0767;
412.8000;0.1579;-0.0695;
413.1000;0.1571;-0.0695;
413.4000;0.1538;-0.0767;
413.7000;0.1612;-0.0527;
414.0000;0.1620;-0.0527;
414.3000;0.1563;-0.0671;
414.6000;0.1604;-0.0599;
414.9000;0.1587;-0.0575;
415.2000;0.1604;-0.0527;
415.5000;0.1555;-0.0815;
415.8000;0.1587;-0.0719;
416.1000;0.1579;-0.0815;
416.4000;0.1538;-0.0910;
416.7000;0.1571;-0.0863;
417.0000;0.1563;-0.0910;
417.3000;0.1595;-0.0815;
417.6000;0.1563;-0.0863;
417.9000;0.1571;-0.0719;
418.2000;0.1547;-0.0791;
418.5000;0.1571;-0.0743;
418.8000;0.1587;-0.0719;
419.1000;0.1563;-0.0791;
419.4000;0.1587;-0.0647;
419.7000;0.1595;-0.0575;
420.0000;0.1677;-0.0383;
420.3000;0.1587;-0.0695;
420.6000;0.1595;-0.0623;
420.9000;0.1604;-0.0551;
421.2000;0.1555;-0.0623;
421.5000;0.1579;-0.0671;
421.8000;0.1563;-0.0767;
422.1000;0.1563;-0.0719;
422.4000;0.1563;-0.0599;
422.7000;0.1587;-0.0527;
423.0000;0.1530;-0.0647;
423.3000;0.1506;-0.0743;
423.6000;0.1563;-0.0575;
423.9000;0.1547;-0.0695;
424.2000;0.1652;-0.0503;
424.5000;0.1571;-0.0719;
424.8000;0.1587;-0.0647;
425.1000;0.1522;-0.0839;
425.4000;0.1571;-0.0623;
425.7000;0.1522;-0.0791;
426.0000;0.1587;-0.0599;
426.3000;0.1579;-0.0671;
426.6000;0.1579;-0.0719;
426.9000;0.1555;-0.0767;
427.2000;0.1579;-0.0743;
427.5000;0.1563;-0.0743;
427.8000;0.1579;-0.0695;
428.1000;0.1579;-0.0671;
428.4000;0.1555;-0.0623;
428.7000;0.1563;-0.0647;
429.0000;0.1579;-0.0671;
429.3000;0.1547;-0.0719;
429.6000;0.1538;-0.0863;
429.9000;0.1571;-0.0743;
430.2000;0.1579;-0.0671;
430.5000;0.1587;-0.0743;
430.8000;0.1604;-0.0719;
431.1000;0.1579;-0.0719;
431.4000;0.1587;-0.0647;
431.7000;0.1595;-0.0599;
432.0000;0.1595;-0.0551;
432.3000;0.1604;-0.0575;
432.6000;0.1506;-0.0863;
432.9000;0.1514;-0.0767;
433.2000;0.1604;-0.0479;
433.5000;0.1604;-0.0359;
433.8000;0.1595;-0.0455;
434.1000;0.1579;-0.0431;
434.4000;0.1587;-0.0383;
434.7000;0.1538;-0.0503;
435.0000;0.1547;-0.0503;
435.3000;0.1652;-0.0192;
435.6000;0.1547;-0.0479;
435.9000;0.1587;-0.0407;
436.2000;0.1571;-0.0455;
436.5000;0.1563;-0.0527;
436.8000;0.1571;-0.0599;
437.1000;0.1595;-0.0623;
437.4000;0.1587;-0.0527;
437.7000;0.1530;-0.0695;
438.0000;0.1587;-0.0623;
438.3000;0.1587;-0.0623;
438.6000;0.1628;-0.0527;
438.9000;0.1571;-0.0695;
439.2000;0.1587;-0.0671;
439.5000;0.1555;-0.0743;
439.8000;0.1612;-0.0575;
440.1000;0.1571;-0.0647;
440.4000;0.1579;-0.0647;
440.7000;0.1571;-0.0647;
441.0000;0.1604;-0.0647;
441.3000;0.1571;-0.0767;
441.6000;0.1652;-0.0527;
441.9000;0.1587;-0.0743;
442.2000;0.1612;-0.0815;
442.5000;0.1579;-0.0863;
442.8000;0.1538;-0.0863;
443.1000;0.1563;-0.0839;
443.4000;0.1563;-0.0791;
443.7000;0.1595;-0.0647;
444.0000;0.1514;-0.0863;
444.3000;0.1563;-0.0695;
444.6000;0.1579;-0.0623;
444.9000;0.1595;-0.0551;
445.2000;0.1595;-0.0575;
445.5000;0.1636;-0.0455;
445.8000;0.1595;-0.0623;
446.1000;0.1579;-0.0647;
446.4000;0.1563;-0.0695;
446.7000;0.1571;-0.0743;
447.0000;0.1571;-0.0695;
447.3000;0.1555;-0.0767;
447.6000;0.1587;-0.0671;
447.9000;0.1595;-0.0647;
448.2000;0.1595;-0.0647;
448.5000;0.1571;-0.0623;
448.8000;0.1587;-0.0551;
449.1000;0.1612;-0.0551;
449.4000;0.1579;-0.0647;
449.7000;0.1579;-0.0647;
450.0000;0.1579;-0.0647;
450.3000;0.1636;-0.0479;
450.6000;0.1571;-0.0623;
450.9000;0.1555;-0.0647;
451.2000;0.1579;-0.0647;
451.5000;0.1604;-0.0551;
451.8000;0.1669;-0.0383;
452.1000;0.1547;-0.0671;
452.4000;0.1555;-0.0647;
452.7000;0.1587;-0.0503;
453.0000;0.1579;-0.0599;
453.3000;0.1579;-0.0599;
453.6000;0.1604;-0.0527;
453.9000;0.1612;-0.0479;
454.2000;0.1555;-0.0671;
454.5000;0.1595;-0.0599;
454.8000;0.1563;-0.0671;
455.1000;0.1579;-0.0575;
455.4000;0.1571;-0.0647;
455.7000;0.1571;-0.0647;
456.0000;0.1571;-0.0599;
456.3000;0.1579;-0.0575;
456.6000;0.1604;-0.0503;
456.9000;0.1587;-0.0671;
457.2000;0.1579;-0.0599;
457.5000;0.1579;-0.0551;
457.8000;0.1571;-0.0527;
458.1000;0.1563;-0.0527;
458.4000;0.1595;-0.0431;
458.7000;0.1595;-0.0407;
459.0000;0.1571;-0.0455;
459.3000;0.1571;-0.0431;
459.6000;0.1571;-0.0503;
459.9000;0.1571;-0.0455;
460.2000;0.1587;-0.0455;
460.5000;0.1555;-0.0527;
460.8000;0.1587;-0.0575;
461.1000;0.1579;-0.0623;
461.4000;0.1547;-0.0743;
461.7000;0.1571;-0.0743;
462.0000;0.1587;-0.0719;
462.3000;0.1579;-0.0671;
462.6000;0.1587;-0.0647;
462.9000;0.1579;-0.0671;
463.2000;0.1579;-0.0599;
463.5000;0.1571;-0.0623;
463.8000;0.1595;-0.0599;
464.1000;0.1595;-0.0575;
464.4000;0.1612;-0.0527;
464.7000;0.1538;-0.0743;
465.0000;0.1571;-0.0647;
465.3000;0.1587;-0.0695;
465.6000;0.1604;-0.0623;
465.9000;0.1579;-0.0719;
466.2000;0.1587;-0.0671;
466.5000;0.1579;-0.0647;
466.8000;0.1563;-0.0767;
467.1000;0.1685;-0.0407;
467.4000;0.1579;-0.0647;
467.7000;0.1587;-0.0671;
468.0000;0.1514;-0.0815;
468.3000;0.1555;-0.0599;
468.6000;0.1628;-0.0479;
468.9000;0.1579;-0.0719;
469.2000;0.1669;-0.0527;
469.5000;0.1685;-0.0431;
469.8000;0.1579;-0.0767;
470.1000;0.1628;-0.0647;
470.4000;0.1669;-0.0455;
470.7000;0.1587;-0.0671;
471.0000;0.1636;-0.0503;
471.3000;0.1709;-0.0240;
471.6000;0.1587;-0.0575;
471.9000;0.1661;-0.0335;
472.2000;0.1628;-0.0335;
472.5000;0.1571;-0.0527;
472.8000;0.1595;-0.0575;
473.1000;0.1587;-0.0647;
473.4000;0.1563;-0.0791;
473.7000;0.1571;-0.0863;
474.0000;0.1579;-0.0791;
474.3000;0.1604;-0.0767;
474.6000;0.1644;-0.0575;
474.9000;0.1571;-0.0719;
475.2000;0.1555;-0.0791;
475.5000;0.1555;-0.0839;
475.8000;0.1563;-0.0839;
476.1000;0.1563;-0.0863;
476.4000;0.1555;-0.0887;
476.7000;0.1547;-0.0910;
477.0000;0.1571;-0.0934;
477.3000;0.1587;-0.0887;
477.6000;0.1579;-0.0887;
477.9000;0.1563;-0.0815;
478.2000;0.1595;-0.0815;
478.5000;0.1563;-0.0863;
478.8000;0.1538;-0.0791;
479.1000;0.1579;-0.0647;
479.4000;0.1579;-0.0551;
479.7000;0.1709;-0.0192;
480.0000;0.1587;-0.0479;
480.3000;0.1563;-0.0503;
480.6000;0.1587;-0.0503;
480.9000;0.1579;-0.0503;
481.2000;0.1661;-0.0335;
481.5000;0.1579;-0.0599;
481.8000;0.1506;-0.0863;
482.1000;0.1571;-0.0695;
482.4000;0.1587;-0.0647;
482.7000;0.1571;-0.0719;
483.0000;0.1555;-0.0623;
483.3000;0.1579;-0.0575;
483.6000;0.1563;-0.0455;
483.9000;0.1587;-0.0311;
484.2000;0.1587;-0.0335;
484.5000;0.1587;-0.0359;
484.8000;0.1530;-0.0455;
485.1000;0.1587;-0.0407;
485.4000;0.1604;-0.0407;
485.7000;0.1555;-0.0623;
486.0000;0.1538;-0.0719;
486.3000;0.1571;-0.0551;
486.6000;0.1563;-0.0575;
486.9000;0.1579;-0.0527;
487.2000;0.1579;-0.0527;
487.5000;0.1604;-0.0503;
487.8000;0.1595;-0.0551;
488.1000;0.1563;-0.0575;
488.4000;0.1571;-0.0551;
488.7000;0.1595;-0.0527;
489.0000;0.1563;-0.0527;
489.3000;0.1579;-0.0503;
489.6000;0.1579;-0.0503;
489.9000;0.1612;-0.0455;
490.2000;0.1571;-0.0551;
490.5000;0.1563;-0.0599;
490.8000;0.1685;-0.0288;
491.1000;0.1604;-0.0503;
491.4000;0.1579;-0.0479;
491.7000;0.1571;-0.0575;
492.0000;0.1587;-0.0623;
492.3000;0.1587;-0.0647;
492.6000;0.1652;-0.0503;
492.9000;0.1457;-0.1054;
493.2000;0.1571;-0.0695;
493.5000;0.1571;-0.0599;
493.8000;0.1604;-0.0455;
494.1000;0.1522;-0.0599;
494.4000;0.1652;-0.0311;
494.7000;0.1587;-0.0551;
495.0000;0.1628;-0.0503;
495.3000;0.1587;-0.0575;
495.6000;0.1579;-0.0575;
495.9000;0.1652;-0.0311;
496.2000;0.1522;-0.0719;
496.5000;0.1587;-0.0527;
496.8000;0.1595;-0.0503;
497.1000;0.1693;-0.0240;
497.4000;0.1579;-0.0575;
497.7000;0.1579;-0.0527;
498.0000;0.1587;-0.0527;
498.3000;0.1595;-0.0551;
498.6000;0.1620;-0.0407;
498.9000;0.1571;-0.0503;
499.2000;0.1595;-0.0455;
499.5000;0.1604;-0.0431;
499.8000;0.1604;-0.0407;
500.1000;0.1579;-0.0479;
500.4000;0.1595;-0.0503;
500.7000;0.1563;-0.0599;
501.0000;0.1587;-0.0575;
501.3000;0.1506;-0.0767;
501.6000;0.1628;-0.0359;
501.9000;0.1579;-0.0503;
502.2000;0.1579;-0.0551;
502.5000;0.1595;-0.0623;
502.8000;0.1587;-0.0719;
503.1000;0.1595;-0.0695;
503.4000;0.1579;-0.0647;
503.7000;0.1579;-0.0599;
504.0000;0.1604;-0.0623;
504.3000;0.1587;-0.0551;
504.6000;0.1587;-0.0503;
504.9000;0.1595;-0.0551;
505.2000;0.1604;-0.0551;
505.5000;0.1587;-0.0575;
505.8000;0.1563;-0.0599;
506.1000;0.1587;-0.0575;
506.4000;0.1587;-0.0671;
506.7000;0.1579;-0.0743;
507.0000;0.1563;-0.0815;
507.3000;0.1587;-0.0767;
507.6000;0.1587;-0.0743;
507.9000;0.1571;-0.0695;
508.2000;0.1595;-0.0575;
508.5000;0.1579;-0.0671;
508.8000;0.1587;-0.0647;
509.1000;0.1579;-0.0647;
509.4000;0.1587;-0.0767;
509.7000;0.1563;-0.0839;
510.0000;0.1547;-0.0863;
510.3000;0.1587;-0.0839;
510.6000;0.1579;-0.0863;
510.9000;0.1701;-0.0599;
511.2000;0.1571;-0.0910;
511.5000;0.1587;-0.0887;
511.8000;0.1612;-0.0767;
512.1000;0.1604;-0.0695;
512.4000;0.1563;-0.0767;
512.7000;0.1587;-0.0743;
513.0000;0.1579;-0.0719;
513.3000;0.1604;-0.0719;
513.6000;0.1571;-0.0839;
513.9000;0.1555;-0.0839;
514.2000;0.1579;-0.0815;
514.5000;0.1571;-0.0791;
514.8000;0.1579;-0.0839;
515.1000;0.1587;-0.0815;
515.4000;0.1579;-0.0839;
515.7000;0.1595;-0.0719;
516.0000;0.1579;-0.0623;
516.3000;0.1571;-0.0575;
516.6000;0.1563;-0.0623;
516.9000;0.1579;-0.0695;
517.2000;0.1514;-0.0910;
517.5000;0.1571;-0.0791;
517.8000;0.1579;-0.0719;
518.1000;0.1579;-0.0719;
518.4000;0.1685;-0.0431;
518.7000;0.1555;-0.0743;
519.0000;0.1579;-0.0575;
519.3000;0.1612;-0.0551;
519.6000;0.1595;-0.0503;
519.9000;0.1547;-0.0743;
520.2000;0.1579;-0.0743;
520.5000;0.1587;-0.0647;
520.8000;0.1579;-0.0647;
521.1000;0.1604;-0.0503;
521.4000;0.1604;-0.0551;
521.7000;0.1587;-0.0719;
522.0000;0.1604;-0.0647;
522.3000;0.1604;-0.0623;
522.6000;0.1571;-0.0671;
522.9000;0.1587;-0.0671;
523.2000;0.1595;-0.0623;
523.5000;0.1579;-0.0647;
523.8000;0.1620;-0.0551;
524.1000;0.1571;-0.0695;
524.4000;0.1644;-0.0527;
524.7000;0.1579;-0.0671;
525.0000;0.1595;-0.0647;
525.3000;0.1547;-0.0887;
525.6000;0.1571;-0.0815;
525.9000;0.1604;-0.0695;
526.2000;0.1587;-0.0719;
526.5000;0.1579;-0.0839;
526.8000;0.1563;-0.0815;
527.1000;0.1563;-0.0910;
527.4000;0.1571;-0.0839;
527.7000;0.1595;-0.0767;
528.0000;0.1595;-0.0623;
528.3000;0.1579;-0.0623;
528.6000;0.1718;-0.0288;
528.9000;0.1604;-0.0599;
529.2000;0.1563;-0.0743;
529.5000;0.1604;-0.0599;
529.8000;0.1587;-0.0671;
530.1000;0.1563;-0.0695;
530.4000;0.1522;-0.0791;
530.7000;0.1555;-0.0623;
531.0000;0.1547;-0.0671;
531.3000;0.1563;-0.0599;
531.6000;0.1579;-0.0575;
531.9000;0.1579;-0.0623;
532.2000;0.1595;-0.0575;
532.5000;0.1587;-0.0599;
532.8000;0.1555;-0.0671;
533.1000;0.1579;-0.0599;
533.4000;0.1563;-0.0647;
533.7000;0.1579;-0.0623;
534.0000;0.1579;-0.0671;
534.3000;0.1571;-0.0647;
534.6000;0.1563;-0.0695;
534.9000;0.1579;-0.0599;
535.2000;0.1579;-0.0575;
535.5000;0.1555;-0.0695;
535.8000;0.1547;-0.0767;
536.1000;0.1563;-0.0767;
536.4000;0.1587;-0.0623;
536.7000;0.1571;-0.0695;
537.0000;0.1595;-0.0695;
537.3000;0.1563;-0.0743;
537.6000;0.1604;-0.0599;
537.9000;0.1587;-0.0623;
538.2000;0.1579;-0.0551;
538.5000;0.1587;-0.0551;
538.8000;0.1555;-0.0599;
539.1000;0.1579;-0.0527;
539.4000;0.1579;-0.0575;
539.7000;0.1555;-0.0623;
540.0000;0.1726;-0.0192;
540.3000;0.1587;-0.0575;
540.6000;0.1587;-0.0503;
540.9000;0.1579;-0.0503;
541.2000;0.1563;-0.0551;
541.5000;0.1530;-0.0671;
541.8000;0.1579;-0.0479;
542.1000;0.1530;-0.0599;
542.4000;0.1571;-0.0503;
542.7000;0.1587;-0.0575;
543.0000;0.1579;-0.0527;
543.3000;0.1522;-0.0719;
543.6000;0.1587;-0.0575;
543.9000;0.1547;-0.0719;
544.2000;0.1604;-0.0599;
544.5000;0.1555;-0.0671;
544.8000;0.1571;-0.0671;
545.1000;0.1587;-0.0647;
545.4000;0.1587;-0.0575;
545.7000;0.1498;-0.0839;
546.0000;0.1571;-0.0671;
546.3000;0.1579;-0.0599;
546.6000;0.1563;-0.0575;
546.9000;0.1587;-0.0503;
547.2000;0.1587;-0.0527;
547.5000;0.1530;-0.0695;
547.8000;0.1587;-0.0551;
548.1000;0.1571;-0.0575;
548.4000;0.1628;-0.0407;
548.7000;0.1571;-0.0551;
549.0000;0.1587;-0.0527;
549.3000;0.1595;-0.0599;
549.6000;0.1661;-0.0551;
549.9000;0.1555;-0.0839;
550.2000;0.1571;-0.0839;
550.5000;0.1587;-0.0743;
550.8000;0.1530;-0.0863;
551.1000;0.1563;-0.0671;
551.4000;0.1612;-0.0527;
551.7000;0.1587;-0.0623;
552.0000;0.1579;-0.0695;
552.3000;0.1571;-0.0767;
552.6000;0.1677;-0.0455;
552.9000;0.1579;-0.0743;
553.2000;0.1595;-0.0743;
553.5000;0.1530;-0.0982;
553.8000;0.1595;-0.0767;
554.1000;0.1514;-0.0910;
554.4000;0.1595;-0.0623;
554.7000;0.1538;-0.0743;
555.0000;0.1579;-0.0599;
555.3000;0.1579;-0.0647;
555.6000;0.1595;-0.0647;
555.9000;0.1473;-0.0958;
556.2000;0.1571;-0.0719;
556.5000;0.1579;-0.0767;
556.8000;0.1595;-0.0767;
557.1000;0.1587;-0.0791;
557.4000;0.1587;-0.0791;
557.7000;0.1514;-0.0934;
558.0000;0.1604;-0.0623;
558.3000;0.1595;-0.0575;
558.6000;0.1555;-0.0695;
558.9000;0.1579;-0.0647;
559.2000;0.1587;-0.0647;
559.5000;0.1579;-0.0719;
559.8000;0.1579;-0.0695;
560.1000;0.1620;-0.0623;
560.4000;0.1587;-0.0743;
560.7000;0.1595;-0.0767;
561.0000;0.1547;-0.0863;
561.3000;0.1587;-0.0719;
561.6000;0.1587;-0.0719;
561.9000;0.1595;-0.0695;
562.2000;0.1595;-0.0647;
562.5000;0.1587;-0.0647;
562.8000;0.1587;-0.0599;
563.1000;0.1547;-0.0695;
563.4000;0.1587;-0.0503;
563.7000;0.1604;-0.0479;
564.0000;0.1620;-0.0527;
564.3000;0.1604;-0.0503;
564.6000;0.1595;-0.0599;
564.9000;0.1587;-0.0575;
565.2000;0.1620;-0.0479;
565.5000;0.1555;-0.0671;
565.8000;0.1587;-0.0623;
566.1000;0.1587;-0.0551;
566.4000;0.1538;-0.0695;
566.7000;0.1579;-0.0671;
567.0000;0.1587;-0.0599;
567.3000;0.1563;-0.0623;
567.6000;0.1595;-0.0455;
567.9000;0.1571;-0.0551;
568.2000;0.1571;-0.0527;
568.5000;0.1563;-0.0647;
568.8000;0.1579;-0.0647;
569.1000;0.1571;-0.0647;
569.4000;0.1571;-0.0575;
569.7000;0.1579;-0.0503;
570.0000;0.1579;-0.0527;
570.3000;0.1547;-0.0647;
570.6000;0.1563;-0.0551;
570.9000;0.1587;-0.0551;
571.2000;0.1579;-0.0671;
571.5000;0.1579;-0.0695;
571.8000;0.1555;-0.0743;
572.1000;0.1547;-0.0695;
572.4000;0.1579;-0.0623;
572.7000;0.1571;-0.0647;
573.0000;0.1579;-0.0599;
573.3000;0.1563;-0.0647;
573.6000;0.1579;-0.0551;
573.9000;0.1595;-0.0551;
574.2000;0.1571;-0.0647;
574.5000;0.1563;-0.0719;
574.8000;0.1595;-0.0599;
575.1000;0.1587;-0.0527;
575.4000;0.1579;-0.0623;
575.7000;0.1481;-0.0887;
576.0000;0.1587;-0.0575;
576.3000;0.1612;-0.0575;
576.6000;0.1612;-0.0575;
576.9000;0.1661;-0.0407;
577.2000;0.1587;-0.0527;
577.5000;0.1595;-0.0599;
577.8000;0.1571;-0.0599;
578.1000;0.1595;-0.0575;
578.4000;0.1587;-0.0551;
578.7000;0.1579;-0.0599;
579.0000;0.1587;-0.0527;
579.3000;0.1563;-0.0551;
579.6000;0.1579;-0.0479;
579.9000;0.1563;-0.0503;
580.2000;0.1620;-0.0335;
580.5000;0.1587;-0.0383;
580.8000;0.1579;-0.0407;
581.1000;0.1563;-0.0479;
581.4000;0.1449;-0.0791;
581.7000;0.1579;-0.0479;
582.0000;0.1571;-0.0551;
582.3000;0.1579;-0.0575;
582.6000;0.1571;-0.0527;
582.9000;0.1604;-0.0455;
583.2000;0.1563;-0.0503;
583.5000;0.1571;-0.0503;
583.8000;0.1563;-0.0599;
584.1000;0.1604;-0.0455;
584.4000;0.1563;-0.0599;
584.7000;0.1530;-0.0719;
585.0000;0.1579;-0.0695;
585.3000;0.1538;-0.0791;
585.6000;0.1579;-0.0647;
585.9000;0.1547;-0.0743;
586.2000;0.1563;-0.0767;
586.5000;0.1563;-0.0743;
586.8000;0.1604;-0.0551;
587.1000;0.1612;-0.0407;
587.4000;0.1571;-0.0551;
587.7000;0.1587;-0.0527;
588.0000;0.1530;-0.0671;
588.3000;0.1579;-0.0575;
588.6000;0.1571;-0.0623;
588.9000;0.1604;-0.0575;
589.2000;0.1571;-0.0671;
589.5000;0.1595;-0.0527;
589.8000;0.1571;-0.0647;
590.1000;0.1555;-0.0767;
590.4000;0.1595;-0.0695;
590.7000;0.1555;-0.0815;
591.0000;0.1563;-0.0839;
591.3000;0.1587;-0.0791;
591.6000;0.1579;-0.0719;
591.9000;0.1595;-0.0599;
592.2000;0.1563;-0.0719;
592.5000;0.1571;-0.0743;
592.8000;0.1587;-0.0719;
593.1000;0.1563;-0.0719;
593.4000;0.1604;-0.0695;
593.7000;0.1555;-0.0719;
594.0000;0.1490;-0.0839;
594.3000;0.1579;-0.0599;
594.6000;0.1481;-0.0934;
594.9000;0.1571;-0.0623;
595.2000;0.1587;-0.0647;
595.5000;0.1579;-0.0671;
595.8000;0.1628;-0.0479;
596.1000;0.1587;-0.0575;
596.4000;0.1571;-0.0551;
596.7000;0.1595;-0.0503;
597.0000;0.1595;-0.0407;
597.3000;0.1636;-0.0288;
597.6000;0.1604;-0.0407;
597.9000;0.1636;-0.0240;
598.2000;0.1587;-0.0288;
598.5000;0.1579;-0.0383;
598.8000;0.1579;-0.0479;
599.1000;0.1644;-0.0431;
599.4000;0.1620;-0.0551;
599.7000;0.1644;-0.0503;
600.0000;0.1587;-0.0695;
600.3000;0.1522;-0.1006;
600.6000;0.1661;-0.0671;
600.9000;0.1563;-0.0910;
601.2000;0.1595;-0.0910;
601.5000;0.1473;-0.1318;
601.8000;0.1555;-0.1222;
602.1000;0.1579;-0.1222;
602.4000;0.1514;-0.1581;
602.7000;0.1530;-0.1653;
603.0000;0.1547;-0.1701;
603.3000;0.1522;-0.1773;
603.6000;0.1530;-0.1845;
603.9000;0.1530;-0.2037;
604.2000;0.1514;-0.2156;
604.5000;0.1530;-0.2061;
604.8000;0.1522;-0.2061;
605.1000;0.1522;-0.2180;
605.4000;0.1498;-0.2180;
605.7000;0.1498;-0.2252;
606.0000;0.1498;-0.2228;
606.3000;0.1490;-0.2372;
606.6000;0.1481;-0.2468;
606.9000;0.1514;-0.2492;
607.2000;0.1506;-0.2564;
607.5000;0.1514;-0.2516;
607.8000;0.1465;-0.2707;
608.1000;0.1490;-0.2660;
608.4000;0.1530;-0.2564;
608.7000;0.1522;-0.2564;
609.0000;0.1522;-0.2468;
609.3000;0.1555;-0.2420;
609.6000;0.1604;-0.2228;
609.9000;0.1506;-0.2612;
610.2000;0.1490;-0.2660;
610.5000;0.1498;-0.2612;
610.8000;0.1498;-0.2588;
611.1000;0.1538;-0.2372;
611.4000;0.1490;-0.2612;
611.7000;0.1481;-0.2516;
612.0000;0.1530;-0.2372;
612.3000;0.1514;-0.2492;
612.6000;0.1579;-0.2324;
612.9000;0.1498;-0.2636;
613.2000;0.1490;-0.2707;
613.5000;0.1506;-0.2707;
613.8000;0.1506;-0.2660;
614.1000;0.1506;-0.2636;
614.4000;0.1384;-0.2923;
614.7000;0.1473;-0.2755;
615.0000;0.1490;-0.2731;
615.3000;0.1481;-0.2636;
615.6000;0.1465;-0.2684;
615.9000;0.1433;-0.2827;
616.2000;0.1465;-0.2684;
616.5000;0.1449;-0.2779;
616.8000;0.1547;-0.2516;
617.1000;0.1449;-0.2660;
617.4000;0.1465;-0.2755;
617.7000;0.1530;-0.2612;
618.0000;0.1481;-0.2803;
618.3000;0.1473;-0.2779;
618.6000;0.1465;-0.2755;
618.9000;0.1490;-0.2684;
619.2000;0.1481;-0.2636;
619.5000;0.1481;-0.2588;
619.8000;0.1465;-0.2707;
620.1000;0.1481;-0.2779;
620.4000;0.1481;-0.2803;
620.7000;0.1490;-0.2827;
621.0000;0.1457;-0.2899;
621.3000;0.1498;-0.2731;
621.6000;0.1498;-0.2731;
621.9000;0.1490;-0.2660;
622.2000;0.1522;-0.2588;
622.5000;0.1481;-0.2707;
622.8000;0.1498;-0.2660;
623.1000;0.1481;-0.2684;
623.4000;0.1563;-0.2540;
623.7000;0.1465;-0.2755;
624.0000;0.1481;-0.2779;
624.3000;0.1612;-0.2420;
624.6000;0.1384;-0.3043;
624.9000;0.1425;-0.2875;
625.2000;0.1490;-0.2731;
625.5000;0.1490;-0.2803;
625.8000;0.1473;-0.2827;
626.1000;0.1481;-0.2755;
626.4000;0.1457;-0.2803;
626.7000;0.1441;-0.2923;
627.0000;0.1498;-0.2803;
627.3000;0.1465;-0.2875;
627.6000;0.1449;-0.2923;
627.9000;0.1490;-0.2827;
628.2000;0.1498;-0.2827;
628.5000;0.1465;-0.2899;
628.8000;0.1514;-0.2827;
629.1000;0.1604;-0.2612;
629.4000;0.1457;-0.2923;
629.7000;0.1457;-0.3019;
630.0000;0.1506;-0.2875;
630.3000;0.1490;-0.2923;
630.6000;0.1555;-0.2779;
630.9000;0.1481;-0.2971;
631.2000;0.1538;-0.2899;
631.5000;0.1490;-0.3067;
631.8000;0.1473;-0.3067;
632.1000;0.1449;-0.3043;
632.4000;0.1481;-0.3019;
632.7000;0.1473;-0.3139;
633.0000;0.1506;-0.3163;
633.3000;0.1490;-0.3283;
633.6000;0.1457;-0.3306;
633.9000;0.1481;-0.3211;
634.2000;0.1490;-0.3211;
634.5000;0.1490;-0.3187;
634.8000;0.1481;-0.3139;
635.1000;0.1465;-0.3115;
635.4000;0.1473;-0.3043;
635.7000;0.1481;-0.3091;
636.0000;0.1465;-0.3091;
636.3000;0.1441;-0.3163;
636.6000;0.1490;-0.3067;
636.9000;0.1416;-0.3306;
637.2000;0.1465;-0.3067;
637.5000;0.1351;-0.3402;
637.8000;0.1449;-0.3019;
638.1000;0.1457;-0.2899;
638.4000;0.1506;-0.2899;
638.7000;0.1457;-0.2923;
639.0000;0.1457;-0.2971;
639.3000;0.1473;-0.2971;
639.6000;0.1481;-0.2923;
639.9000;0.1408;-0.3115;
640.2000;0.1498;-0.2923;
640.5000;0.1498;-0.2923;
640.8000;0.1408;-0.3139;
641.1000;0.1522;-0.2947;
641.4000;0.1449;-0.3115;
641.7000;0.1490;-0.3019;
642.0000;0.1481;-0.3019;
642.3000;0.1465;-0.3067;
642.6000;0.1457;-0.3091;
642.9000;0.1473;-0.3067;
643.2000;0.1457;-0.3139;
643.5000;0.1490;-0.3115;
643.8000;0.1490;-0.3187;
644.1000;0.1433;-0.3306;
644.4000;0.1473;-0.3283;
644.7000;0.1473;-0.3235;
645.0000;0.1457;-0.3330;
645.3000;0.1473;-0.3211;
645.6000;0.1490;-0.3163;
645.9000;0.1465;-0.3259;
646.2000;0.1441;-0.3235;
646.5000;0.1441;-0.3306;
646.8000;0.1490;-0.3259;
647.1000;0.1595;-0.2947;
647.4000;0.1490;-0.3091;
647.7000;0.1506;-0.3019;
648.0000;0.1481;-0.3139;
648.3000;0.1465;-0.3163;
648.6000;0.1514;-0.3139;
648.9000;0.1514;-0.3067;
649.2000;0.1457;-0.3211;
649.5000;0.1498;-0.3139;
649.8000;0.1506;-0.3187;
650.1000;0.1473;-0.3306;
650.4000;0.1465;-0.3330;
650.7000;0.1490;-0.3235;
651.0000;0.1498;-0.3235;
651.3000;0.1457;-0.3306;
651.6000;0.1481;-0.3306;
651.9000;0.1392;-0.3522;
652.2000;0.1481;-0.3283;
652.5000;0.1506;-0.3235;
652.8000;0.1465;-0.3259;
653.1000;0.1481;-0.3163;
653.4000;0.1465;-0.3163;
653.7000;0.1457;-0.3235;
654.0000;0.1441;-0.3259;
654.3000;0.1465;-0.3163;
654.6000;0.1473;-0.3187;
654.9000;0.1441;-0.3330;
655.2000;0.1498;-0.3163;
655.5000;0.1547;-0.3019;
655.8000;0.1481;-0.3235;
656.1000;0.1490;-0.3187;
656.4000;0.1481;-0.3163;
656.7000;0.1465;-0.3235;
657.0000;0.1457;-0.3211;
657.3000;0.1473;-0.3163;
657.6000;0.1530;-0.3091;
657.9000;0.1547;-0.3067;
658.2000;0.1473;-0.3187;
658.5000;0.1449;-0.3283;
658.8000;0.1457;-0.3330;
659.1000;0.1351;-0.3498;
659.4000;0.1408;-0.3330;
659.7000;0.1490;-0.3139;
660.0000;0.1457;-0.3139;
660.3000;0.1465;-0.3115;
660.6000;0.1473;-0.3091;
660.9000;0.1490;-0.3019;
661.2000;0.1481;-0.2971;
661.5000;0.1490;-0.3067;
661.8000;0.1465;-0.3211;
662.1000;0.1490;-0.3163;
662.4000;0.1490;-0.3067;
662.7000;0.1490;-0.2995;
663.0000;0.1416;-0.3187;
663.3000;0.1473;-0.3091;
663.6000;0.1457;-0.3139;
663.9000;0.1457;-0.3163;
664.2000;0.1465;-0.3091;
664.5000;0.1351;-0.3330;
664.8000;0.1473;-0.3019;
665.1000;0.1481;-0.2947;
665.4000;0.1465;-0.2947;
665.7000;0.1473;-0.2923;
666.0000;0.1490;-0.2851;
666.3000;0.1506;-0.2827;
666.6000;0.1530;-0.2851;
666.9000;0.1473;-0.2971;
667.2000;0.1498;-0.3043;
667.5000;0.1498;-0.3019;
667.8000;0.1457;-0.3091;
668.1000;0.1490;-0.3019;
668.4000;0.1481;-0.3019;
668.7000;0.1425;-0.3163;
669.0000;0.1473;-0.3043;
669.3000;0.1498;-0.3019;
669.6000;0.1473;-0.3115;
669.9000;0.1490;-0.3115;
670.2000;0.1368;-0.3426;
670.5000;0.1473;-0.3115;
670.8000;0.1465;-0.3139;
671.1000;0.1465;-0.3163;
671.4000;0.1473;-0.3043;
671.7000;0.1481;-0.2971;
672.0000;0.1481;-0.3067;
672.3000;0.1368;-0.3450;
672.6000;0.1490;-0.3211;
672.9000;0.1465;-0.3306;
673.2000;0.1490;-0.3259;
673.5000;0.1498;-0.3235;
673.8000;0.1465;-0.3259;
674.1000;0.1481;-0.3211;
674.4000;0.1498;-0.3235;
674.7000;0.1473;-0.3330;
675.0000;0.1473;-0.3187;
675.3000;0.1473;-0.3139;
675.6000;0.1473;-0.3115;
675.9000;0.1473;-0.3163;
676.2000;0.1359;-0.3474;
676.5000;0.1498;-0.3067;
676.8000;0.1473;-0.3139;
677.1000;0.1481;-0.3115;
677.4000;0.1473;-0.3139;
677.7000;0.1457;-0.3163;
678.0000;0.1425;-0.3259;
678.3000;0.1490;-0.3115;
678.6000;0.1481;-0.3163;
678.9000;0.1498;-0.3115;
679.2000;0.1465;-0.3163;
679.5000;0.1498;-0.3115;
679.8000;0.1481;-0.3139;
680.1000;0.1481;-0.3091;
680.4000;0.1449;-0.3163;
680.7000;0.1490;-0.3187;
681.0000;0.1563;-0.3091;
681.3000;0.1465;-0.3402;
681.6000;0.1514;-0.3283;
681.9000;0.1490;-0.3330;
682.2000;0.1490;-0.3259;
682.5000;0.1498;-0.3187;
682.8000;0.1473;-0.3211;
683.1000;0.1351;-0.3546;
683.4000;0.1490;-0.3211;
683.7000;0.1465;-0.3235;
684.0000;0.1465;-0.3211;
684.3000;0.1490;-0.3211;
684.6000;0.1449;-0.3306;
684.9000;0.1416;-0.3426;
685.2000;0.1465;-0.3283;
685.5000;0.1457;-0.3378;
685.8000;0.1481;-0.3283;
686.1000;0.1481;-0.3235;
686.4000;0.1465;-0.3187;
686.7000;0.1473;-0.3163;
687.0000;0.1481;-0.3139;
687.3000;0.1490;-0.3187;
687.6000;0.1481;-0.3235;
687.9000;0.1547;-0.3091;
688.2000;0.1481;-0.3091;
688.5000;0.1465;-0.3091;
688.8000;0.1490;-0.3043;
689.1000;0.1465;-0.3091;
689.4000;0.1425;-0.3259;
689.7000;0.1473;-0.3115;
690.0000;0.1473;-0.3091;
690.3000;0.1473;-0.3115;
690.6000;0.1473;-0.2971;
690.9000;0.1481;-0.2971;
691.2000;0.1473;-0.3019;
691.5000;0.1449;-0.3115;
691.8000;0.1465;-0.3043;
692.1000;0.1498;-0.2947;
692.4000;0.1481;-0.3019;
692.7000;0.1473;-0.2971;
693.0000;0.1457;-0.3019;
693.3000;0.1490;-0.3091;
693.6000;0.1514;-0.3019;
693.9000;0.1473;-0.3115;
694.2000;0.1473;-0.3019;
694.5000;0.1457;-0.3067;
694.8000;0.1473;-0.3115;
695.1000;0.1506;-0.2899;
695.4000;0.1473;-0.3067;
695.7000;0.1490;-0.3019;
696.0000;0.1490;-0.2971;
696.3000;0.1481;-0.2947;
696.6000;0.1416;-0.3187;
696.9000;0.1457;-0.3091;
697.2000;0.1490;-0.3091;
697.5000;0.1473;-0.3043;
697.8000;0.1449;-0.3067;
698.1000;0.1408;-0.3163;
698.4000;0.1490;-0.2971;
698.7000;0.1498;-0.2923;
699.0000;0.1457;-0.3019;
699.3000;0.1457;-0.3043;
699.6000;0.1481;-0.3067;
699.9000;0.1481;-0.3019;
700.2000;0.1514;-0.2923;
700.5000;0.1490;-0.3139;
700.8000;0.1457;-0.3187;
701.1000;0.1490;-0.2971;
701.4000;0.1514;-0.2875;
701.7000;0.1449;-0.3067;
702.0000;0.1457;-0.3043;
702.3000;0.1465;-0.3091;
702.6000;0.1457;-0.3043;
702.9000;0.1481;-0.2995;
703.2000;0.1400;-0.3211;
703.5000;0.1481;-0.3043;
703.8000;0.1490;-0.3043;
704.1000;0.1595;-0.2636;
704.4000;0.1408;-0.3115;
704.7000;0.1498;-0.2803;
705.0000;0.1547;-0.2755;
705.3000;0.1490;-0.2923;
705.6000;0.1490;-0.3019;
705.9000;0.1555;-0.2875;
706.2000;0.1465;-0.2971;
706.5000;0.1490;-0.2899;
706.8000;0.1465;-0.2995;
707.1000;0.1506;-0.2947;
707.4000;0.1506;-0.2947;
707.7000;0.1473;-0.3043;
708.0000;0.1449;-0.3043;
708.3000;0.1473;-0.2875;
708.6000;0.1473;-0.2803;
708.9000;0.1457;-0.2851;
709.2000;0.1490;-0.2731;
709.5000;0.1441;-0.2899;
709.8000;0.1425;-0.2899;
710.1000;0.1481;-0.2779;
710.4000;0.1425;-0.2923;
710.7000;0.1465;-0.2827;
711.0000;0.1465;-0.2827;
711.3000;0.1604;-0.2540;
711.6000;0.1473;-0.2875;
711.9000;0.1481;-0.2851;
712.2000;0.1441;-0.2947;
712.5000;0.1514;-0.2779;
712.8000;0.1481;-0.2779;
713.1000;0.1481;-0.2731;
713.4000;0.1465;-0.2779;
713.7000;0.1481;-0.2755;
714.0000;0.1506;-0.2731;
714.3000;0.1498;-0.2755;
714.6000;0.1481;-0.2779;
714.9000;0.1481;-0.2827;
715.2000;0.1425;-0.2899;
715.5000;0.1449;-0.2803;
715.8000;0.1498;-0.2684;
716.1000;0.1408;-0.2971;
716.4000;0.1530;-0.2684;
716.7000;0.1441;-0.2923;
717.0000;0.1490;-0.2684;
717.3000;0.1481;-0.2731;
717.6000;0.1473;-0.2755;
717.9000;0.1555;-0.2564;
718.2000;0.1473;-0.2755;
718.5000;0.1481;-0.2731;
718.8000;0.1473;-0.2660;
719.1000;0.1506;-0.2731;
719.4000;0.1555;-0.2707;
719.7000;0.1441;-0.2947;
720.0000;0.1498;-0.2923;
720.3000;0.1498;-0.2923;
720.6000;0.1490;-0.2995;
720.9000;0.1481;-0.2923;
721.2000;0.1449;-0.2875;
721.5000;0.1449;-0.2851;
721.8000;0.1449;-0.2971;
722.1000;0.1498;-0.2971;
722.4000;0.1457;-0.3067;
722.7000;0.1481;-0.2971;
723.0000;0.1465;-0.3019;
723.3000;0.1465;-0.2995;
723.6000;0.1473;-0.3019;
723.9000;0.1473;-0.2899;
724.2000;0.1481;-0.2827;
724.5000;0.1481;-0.2803;
724.8000;0.1473;-0.2779;
725.1000;0.1490;-0.2707;
725.4000;0.1481;-0.2731;
725.7000;0.1473;-0.2707;
726.0000;0.1416;-0.2947;
726.3000;0.1457;-0.2851;
726.6000;0.1498;-0.2755;
726.9000;0.1514;-0.2707;
727.2000;0.1457;-0.2947;
727.5000;0.1441;-0.3019;
727.8000;0.1490;-0.3019;
728.1000;0.1473;-0.3091;
728.4000;0.1416;-0.3163;
728.7000;0.1473;-0.3019;
729.0000;0.1465;-0.3163;
729.3000;0.1481;-0.3115;
729.6000;0.1457;-0.3139;
729.9000;0.1449;-0.3187;
730.2000;0.1457;-0.3139;
730.5000;0.1481;-0.3019;
730.8000;0.1481;-0.3019;
731.1000;0.1473;-0.3067;
731.4000;0.1473;-0.3067;
731.7000;0.1473;-0.2995;
732.0000;0.1400;-0.3163;
732.3000;0.1547;-0.2707;
732.6000;0.1490;-0.2947;
732.9000;0.1457;-0.3019;
733.2000;0.1490;-0.2851;
733.5000;0.1465;-0.3019;
733.8000;0.1547;-0.2851;
734.1000;0.1457;-0.3067;
734.4000;0.1335;-0.3378;
734.7000;0.1498;-0.2899;
735.0000;0.1522;-0.2875;
735.3000;0.1473;-0.2923;
735.6000;0.1490;-0.2875;
735.9000;0.1490;-0.2923;
736.2000;0.1481;-0.2947;
736.5000;0.1481;-0.2947;
736.8000;0.1473;-0.2971;
737.1000;0.1481;-0.2947;
737.4000;0.1465;-0.3019;
737.7000;0.1425;-0.3115;
738.0000;0.1490;-0.2923;
738.3000;0.1441;-0.2971;
738.6000;0.1481;-0.2875;
738.9000;0.1473;-0.2947;
739.2000;0.1481;-0.2947;
739.5000;0.1481;-0.2899;
739.8000;0.1490;-0.2923;
740.1000;0.1498;-0.2899;
740.4000;0.1465;-0.2995;
740.7000;0.1465;-0.2947;
741.0000;0.1481;-0.2851;
741.3000;0.1465;-0.2947;
741.6000;0.1481;-0.2995;
741.9000;0.1465;-0.3091;
742.2000;0.1481;-0.2971;
742.5000;0.1555;-0.2827;
742.8000;0.1481;-0.2995;
743.1000;0.1530;-0.2803;
743.4000;0.1506;-0.2875;
743.7000;0.1473;-0.2827;
744.0000;0.1490;-0.2899;
744.3000;0.1465;-0.2971;
744.6000;0.1473;-0.3019;
744.9000;0.1457;-0.3043;
745.2000;0.1457;-0.3091;
745.5000;0.1490;-0.2971;
745.8000;0.1473;-0.2899;
746.1000;0.1498;-0.2851;
746.4000;0.1481;-0.2875;
746.7000;0.1481;-0.2875;
747.0000;0.1481;-0.2923;
747.3000;0.1481;-0.2971;
747.6000;0.1457;-0.3019;
747.9000;0.1481;-0.3019;
748.2000;0.1490;-0.3067;
748.5000;0.1449;-0.3163;
748.8000;0.1481;-0.3067;
749.1000;0.1449;-0.3139;
749.4000;0.1522;-0.2899;
749.7000;0.1368;-0.3330;
750.0000;0.1465;-0.3043;
750.3000;0.1457;-0.3067;
750.6000;0.1465;-0.3043;
750.9000;0.1465;-0.2923;
751.2000;0.1473;-0.2875;
751.5000;0.1490;-0.2851;
751.8000;0.1481;-0.2827;
752.1000;0.1514;-0.2731;
752.4000;0.1416;-0.2923;
752.7000;0.1465;-0.2875;
753.0000;0.1473;-0.2827;
753.3000;0.1449;-0.3019;
753.6000;0.1530;-0.2851;
753.9000;0.1465;-0.2947;
754.2000;0.1579;-0.2660;
754.5000;0.1457;-0.3043;
754.8000;0.1408;-0.3211;
755.1000;0.1481;-0.3043;
755.4000;0.1465;-0.3043;
755.7000;0.1481;-0.3091;
756.0000;0.1473;-0.3139;
756.3000;0.1538;-0.2923;
756.6000;0.1473;-0.3019;
756.9000;0.1522;-0.2947;
757.2000;0.1465;-0.3187;
757.5000;0.1465;-0.3187;
757.8000;0.1473;-0.3067;
758.1000;0.1490;-0.3019;
758.4000;0.1473;-0.2947;
758.7000;0.1465;-0.2899;
759.0000;0.1481;-0.2851;
759.3000;0.1425;-0.3139;
759.6000;0.1473;-0.2995;
759.9000;0.1465;-0.2971;
760.2000;0.1465;-0.2899;
760.5000;0.1481;-0.2899;
760.8000;0.1498;-0.2851;
761.1000;0.1490;-0.2947;
761.4000;0.1522;-0.2899;
761.7000;0.1465;-0.2971;
762.0000;0.1473;-0.2899;
762.3000;0.1441;-0.2971;
762.6000;0.1433;-0.3019;
762.9000;0.1473;-0.2899;
763.2000;0.1457;-0.2899;
763.5000;0.1481;-0.2851;
763.8000;0.1506;-0.2827;
764.1000;0.1481;-0.3019;
764.4000;0.1465;-0.2995;
764.7000;0.1481;-0.2971;
765.0000;0.1465;-0.3043;
765.3000;0.1490;-0.3067;
765.6000;0.1465;-0.3091;
765.9000;0.1465;-0.3067;
766.2000;0.1522;-0.2899;
766.5000;0.1481;-0.2995;
766.8000;0.1481;-0.3019;
767.1000;0.1481;-0.3115;
767.4000;0.1490;-0.3115;
767.7000;0.1449;-0.3306;
768.0000;0.1473;-0.3187;
768.3000;0.1473;-0.3163;
768.6000;0.1457;-0.3163;
768.9000;0.1481;-0.3019;
769.2000;0.1481;-0.3067;
769.5000;0.1481;-0.3163;
769.8000;0.1473;-0.3187;
770.1000;0.1473;-0.3211;
770.4000;0.1481;-0.3139;
770.7000;0.1481;-0.3091;
771.0000;0.1457;-0.3139;
771.3000;0.1473;-0.3067;
771.6000;0.1416;-0.3211;
771.9000;0.1473;-0.3043;
772.2000;0.1490;-0.2923;
772.5000;0.1498;-0.2851;
772.8000;0.1490;-0.2875;
773.1000;0.1490;-0.2947;
773.4000;0.1368;-0.3187;
773.7000;0.1481;-0.2827;
774.0000;0.1425;-0.2923;
774.3000;0.1473;-0.2875;
774.6000;0.1547;-0.2660;
774.9000;0.1473;-0.2827;
775.2000;0.1392;-0.3115;
775.5000;0.1441;-0.3043;
775.8000;0.1465;-0.2971;
776.1000;0.1319;-0.3354;
776.4000;0.1449;-0.2971;
776.7000;0.1555;-0.2755;
777.0000;0.1425;-0.3043;
777.3000;0.1498;-0.2875;
777.6000;0.1538;-0.2660;
777.9000;0.1465;-0.2827;
778.2000;0.1473;-0.2827;
778.5000;0.1416;-0.2947;
778.8000;0.1457;-0.2851;
779.1000;0.1498;-0.2779;
779.4000;0.1473;-0.2851;
779.7000;0.1490;-0.2731;
780.0000;0.1490;-0.2755;
780.3000;0.1473;-0.2899;
780.6000;0.1473;-0.2923;
780.9000;0.1490;-0.2947;
781.2000;0.1490;-0.2995;
781.5000;0.1481;-0.3043;
781.8000;0.1457;-0.3091;
782.1000;0.1473;-0.3019;
782.4000;0.1490;-0.2947;
782.7000;0.1465;-0.2923;
783.0000;0.1449;-0.2875;
783.3000;0.1473;-0.2755;
783.6000;0.1490;-0.2755;
783.9000;0.1490;-0.2779;
784.2000;0.1473;-0.2803;
784.5000;0.1465;-0.2947;
784.8000;0.1481;-0.2923;
785.1000;0.1498;-0.2827;
785.4000;0.1473;-0.2899;
785.7000;0.1498;-0.2827;
786.0000;0.1465;-0.2899;
786.3000;0.1376;-0.3211;
786.6000;0.1457;-0.3043;
786.9000;0.1473;-0.3019;
787.2000;0.1457;-0.2971;
787.5000;0.1498;-0.2923;
787.8000;0.1465;-0.2875;
788.1000;0.1441;-0.2899;
788.4000;0.1465;-0.2851;
788.7000;0.1498;-0.2827;
789.0000;0.1490;-0.2803;
789.3000;0.1481;-0.2803;
789.6000;0.1522;-0.2660;
789.9000;0.1465;-0.2779;
790.2000;0.1481;-0.2707;
790.5000;0.1473;-0.2731;
790.8000;0.1473;-0.2755;
791.1000;0.1490;-0.2707;
791.4000;0.1343;-0.3019;
791.7000;0.1481;-0.2684;
792.0000;0.1457;-0.2779;
792.3000;0.1473;-0.2731;
792.6000;0.1490;-0.2707;
792.9000;0.1481;-0.2755;
793.2000;0.1465;-0.2827;
793.5000;0.1473;-0.2851;
793.8000;0.1481;-0.2851;
794.1000;0.1481;-0.2875;
794.4000;0.1490;-0.2923;
794.7000;0.1490;-0.2827;
795.0000;0.1473;-0.2923;
795.3000;0.1481;-0.2851;
795.6000;0.1490;-0.2923;
795.9000;0.1530;-0.2827;
796.2000;0.1457;-0.2995;
796.5000;0.1604;-0.2540;
796.8000;0.1449;-0.2995;
797.1000;0.1481;-0.2875;
797.4000;0.1490;-0.2803;
797.7000;0.1465;-0.2851;
798.0000;0.1547;-0.2612;
798.3000;0.1457;-0.2779;
798.6000;0.1457;-0.2707;
798.9000;0.1587;-0.2372;
799.2000;0.1408;-0.2827;
799.5000;0.1498;-0.2636;
799.8000;0.1465;-0.2612;
800.1000;0.1490;-0.2564;
800.4000;0.1628;-0.2228;
800.7000;0.1490;-0.2660;
801.0000;0.1481;-0.2731;
801.3000;0.1498;-0.2731;
801.6000;0.1490;-0.2827;
801.9000;0.1465;-0.2923;
802.2000;0.1506;-0.2923;
802.5000;0.1490;-0.2971;
802.8000;0.1441;-0.3115;
803.1000;0.1465;-0.2947;
803.4000;0.1481;-0.2947;
803.7000;0.1457;-0.3019;
804.0000;0.1473;-0.2947;
804.3000;0.1465;-0.2971;
804.6000;0.1473;-0.2899;
804.9000;0.1425;-0.3043;
805.2000;0.1457;-0.2827;
805.5000;0.1490;-0.2779;
805.8000;0.1473;-0.2875;
806.1000;0.1473;-0.2899;
806.4000;0.1473;-0.2899;
806.7000;0.1490;-0.2803;
807.0000;0.1465;-0.2875;
807.3000;0.1465;-0.2995;
807.6000;0.1465;-0.2971;
807.9000;0.1473;-0.2875;
808.2000;0.1490;-0.2755;
808.5000;0.1490;-0.2755;
808.8000;0.1457;-0.2851;
809.1000;0.1481;-0.2755;
809.4000;0.1465;-0.2803;
809.7000;0.1457;-0.2803;
810.0000;0.1465;-0.2971;
810.3000;0.1457;-0.2947;
810.6000;0.1481;-0.2899;
810.9000;0.1465;-0.2971;
811.2000;0.1441;-0.3043;
811.5000;0.1490;-0.2971;
811.8000;0.1457;-0.3067;
812.1000;0.1522;-0.2899;
812.4000;0.1473;-0.2995;
812.7000;0.1490;-0.2971;
813.0000;0.1465;-0.3043;
813.3000;0.1498;-0.2947;
813.6000;0.1522;-0.2851;
813.9000;0.1473;-0.2971;
814.2000;0.1473;-0.2971;
814.5000;0.1506;-0.2851;
814.8000;0.1465;-0.2971;
815.1000;0.1457;-0.3043;
815.4000;0.1449;-0.2995;
815.7000;0.1465;-0.2995;
816.0000;0.1465;-0.2995;
816.3000;0.1490;-0.2947;
816.6000;0.1465;-0.3019;
816.9000;0.1473;-0.2899;
817.2000;0.1473;-0.2779;
817.5000;0.1473;-0.2827;
817.8000;0.1481;-0.2923;
818.1000;0.1473;-0.2875;
818.4000;0.1481;-0.2779;
818.7000;0.1416;-0.2923;
819.0000;0.1457;-0.2899;
819.3000;0.1473;-0.2875;
819.6000;0.1498;-0.2875;
819.9000;0.1571;-0.2707;
820.2000;0.1481;-0.2971;
820.5000;0.1465;-0.2875;
820.8000;0.1481;-0.2827;
821.1000;0.1473;-0.2851;
821.4000;0.1473;-0.2827;
821.7000;0.1481;-0.2779;
822.0000;0.1498;-0.2731;
822.3000;0.1400;-0.3019;
822.6000;0.1473;-0.2851;
822.9000;0.1498;-0.2731;
823.2000;0.1473;-0.2779;
823.5000;0.1449;-0.2827;
823.8000;0.1457;-0.2779;
824.1000;0.1465;-0.2731;
824.4000;0.1416;-0.2779;
824.7000;0.1473;-0.2684;
825.0000;0.1441;-0.2803;
825.3000;0.1416;-0.2851;
825.6000;0.1473;-0.2779;
825.9000;0.1465;-0.2755;
826.2000;0.1490;-0.2755;
826.5000;0.1481;-0.2827;
826.8000;0.1441;-0.3067;
827.1000;0.1465;-0.3019;
827.4000;0.1441;-0.3067;
827.7000;0.1481;-0.2995;
828.0000;0.1481;-0.3019;
828.3000;0.1498;-0.2947;
828.6000;0.1481;-0.2827;
828.9000;0.1490;-0.2851;
829.2000;0.1481;-0.2899;
829.5000;0.1473;-0.2899;
829.8000;0.1441;-0.3043;
830.1000;0.1465;-0.2971;
830.4000;0.1465;-0.2995;
830.7000;0.1473;-0.3019;
831.0000;0.1498;-0.2995;
831.3000;0.1449;-0.3187;
831.6000;0.1473;-0.3139;
831.9000;0.1473;-0.3115;
832.2000;0.1506;-0.3019;
832.5000;0.1473;-0.3019;
832.8000;0.1465;-0.3019;
833.1000;0.1425;-0.3091;
833.4000;0.1473;-0.2971;
833.7000;0.1441;-0.3043;
834.0000;0.1555;-0.2803;
834.3000;0.1481;-0.2947;
834.6000;0.1473;-0.3019;
834.9000;0.1498;-0.2947;
835.2000;0.1441;-0.3043;
835.5000;0.1473;-0.3019;
835.8000;0.1481;-0.3067;
836.1000;0.1441;-0.3091;
836.4000;0.1473;-0.3019;
836.7000;0.1465;-0.3043;
837.0000;0.1425;-0.3211;
837.3000;0.1457;-0.3115;
837.6000;0.1465;-0.3115;
837.9000;0.1481;-0.3019;
838.2000;0.1481;-0.3019;
838.5000;0.1490;-0.3019;
838.8000;0.1490;-0.3091;
839.1000;0.1498;-0.3091;
839.4000;0.1481;-0.3067;
839.7000;0.1490;-0.3043;
840.0000;0.1465;-0.3091;
840.3000;0.1490;-0.3091;
840.6000;0.1449;-0.3163;
840.9000;0.1506;-0.2947;
841.2000;0.1481;-0.2923;
841.5000;0.1490;-0.2971;
841.8000;0.1579;-0.2755;
842.1000;0.1441;-0.3091;
842.4000;0.1473;-0.3067;
842.7000;0.1530;-0.2851;
843.0000;0.1498;-0.2971;
843.3000;0.1481;-0.3019;
843.6000;0.1506;-0.2851;
843.9000;0.1457;-0.2971;
844.2000;0.1457;-0.3019;
844.5000;0.1490;-0.2899;
844.8000;0.1473;-0.2995;
845.1000;0.1481;-0.2995;
845.4000;0.1579;-0.2827;
845.7000;0.1481;-0.3019;
846.0000;0.1473;-0.2947;
846.3000;0.1416;-0.2995;
846.6000;0.1473;-0.2875;
846.9000;0.1465;-0.2827;
847.2000;0.1465;-0.2899;
847.5000;0.1465;-0.2923;
847.8000;0.1490;-0.2899;
848.1000;0.1490;-0.2851;
848.4000;0.1522;-0.2755;
848.7000;0.1400;-0.3091;
849.0000;0.1579;-0.2612;
849.3000;0.1408;-0.3115;
849.6000;0.1490;-0.2923;
849.9000;0.1457;-0.3091;
850.2000;0.1441;-0.3187;
850.5000;0.1425;-0.3259;
850.8000;0.1449;-0.3187;
851.1000;0.1490;-0.3115;
851.4000;0.1449;-0.3163;
851.7000;0.1441;-0.3330;
852.0000;0.1473;-0.3235;
852.3000;0.1481;-0.3115;
852.6000;0.1441;-0.3163;
852.9000;0.1473;-0.3043;
853.2000;0.1506;-0.2923;
853.5000;0.1473;-0.2995;
853.8000;0.1522;-0.2779;
854.1000;0.1481;-0.2899;
854.4000;0.1465;-0.2947;
854.7000;0.1490;-0.2899;
855.0000;0.1449;-0.3043;
855.3000;0.1457;-0.3019;
855.6000;0.1473;-0.2971;
855.9000;0.1465;-0.2995;
856.2000;0.1473;-0.2947;
856.5000;0.1457;-0.3019;
856.8000;0.1473;-0.2875;
857.1000;0.1425;-0.3043;
857.4000;0.1473;-0.2947;
857.7000;0.1457;-0.2923;
858.0000;0.1481;-0.2803;
858.3000;0.1490;-0.2779;
858.6000;0.1473;-0.2731;
858.9000;0.1449;-0.2707;
859.2000;0.1425;-0.2755;
859.5000;0.1343;-0.3043;
859.8000;0.1498;-0.2636;
860.1000;0.1490;-0.2612;
860.4000;0.1368;-0.2875;
860.7000;0.1481;-0.2660;
861.0000;0.1457;-0.2875;
861.3000;0.1530;-0.2803;
861.6000;0.1473;-0.2875;
861.9000;0.1465;-0.2899;
862.2000;0.1465;-0.2851;
862.5000;0.1465;-0.2779;
862.8000;0.1498;-0.2731;
863.1000;0.1473;-0.2755;
863.4000;0.1416;-0.2971;
863.7000;0.1530;-0.2707;
864.0000;0.1481;-0.2923;
864.3000;0.1481;-0.2923;
864.6000;0.1473;-0.3019;
864.9000;0.1498;-0.2875;
865.2000;0.1481;-0.2899;
865.5000;0.1465;-0.2899;
865.8000;0.1481;-0.2899;
866.1000;0.1449;-0.2947;
866.4000;0.1498;-0.2755;
866.7000;0.1490;-0.2612;
867.0000;0.1473;-0.2707;
867.3000;0.1490;-0.2755;
867.6000;0.1457;-0.2827;
867.9000;0.1490;-0.2851;
868.2000;0.1481;-0.2827;
868.5000;0.1538;-0.2707;
868.8000;0.1473;-0.2971;
869.1000;0.1457;-0.2995;
869.4000;0.1473;-0.2947;
869.7000;0.1457;-0.2995;
870.0000;0.1473;-0.2851;
870.3000;0.1498;-0.2755;
870.6000;0.1473;-0.2827;
870.9000;0.1481;-0.2875;
871.2000;0.1506;-0.2827;
871.5000;0.1481;-0.2923;
871.8000;0.1465;-0.2947;
872.1000;0.1481;-0.2851;
872.4000;0.1481;-0.2875;
872.7000;0.1473;-0.2875;
873.0000;0.1465;-0.2827;
873.3000;0.1473;-0.2899;
873.6000;0.1498;-0.2755;
873.9000;0.1457;-0.2851;
874.2000;0.1498;-0.2827;
874.5000;0.1457;-0.2827;
874.8000;0.1465;-0.2827;
875.1000;0.1490;-0.2731;
875.4000;0.1465;-0.2731;
875.7000;0.1481;-0.2779;
876.0000;0.1465;-0.2779;
876.3000;0.1457;-0.2827;
876.6000;0.1481;-0.2851;
876.9000;0.1490;-0.2851;
877.2000;0.1425;-0.3019;
877.5000;0.1473;-0.2923;
877.8000;0.1473;-0.2827;
878.1000;0.1481;-0.2803;
878.4000;0.1457;-0.2875;
878.7000;0.1449;-0.2779;
879.0000;0.1490;-0.2636;
879.3000;0.1473;-0.2612;
879.6000;0.1490;-0.2660;
879.9000;0.1481;-0.2755;
880.2000;0.1441;-0.2947;
880.5000;0.1481;-0.2851;
880.8000;0.1490;-0.2875;
881.1000;0.1506;-0.2827;
881.4000;0.1498;-0.2827;
881.7000;0.1457;-0.3043;
882.0000;0.1473;-0.2923;
882.3000;0.1465;-0.2875;
882.6000;0.1449;-0.2875;
882.9000;0.1473;-0.2755;
883.2000;0.1473;-0.2803;
883.5000;0.1481;-0.2803;
883.8000;0.1473;-0.2779;
884.1000;0.1465;-0.2851;
884.4000;0.1498;-0.2731;
884.7000;0.1490;-0.2827;
885.0000;0.1481;-0.2827;
885.3000;0.1490;-0.2779;
885.6000;0.1449;-0.2899;
885.9000;0.1473;-0.2803;
886.2000;0.1473;-0.2779;
886.5000;0.1498;-0.2660;
886.8000;0.1498;-0.2803;
887.1000;0.1465;-0.2875;
887.4000;0.1465;-0.2827;
887.7000;0.1392;-0.3019;
888.0000;0.1481;-0.2779;
888.3000;0.1498;-0.2707;
888.6000;0.1449;-0.2875;
888.9000;0.1579;-0.2540;
889.2000;0.1490;-0.2803;
889.5000;0.1473;-0.2875;
889.8000;0.1433;-0.3043;
890.1000;0.1555;-0.2707;
890.4000;0.1498;-0.2875;
890.7000;0.1538;-0.2731;
891.0000;0.1530;-0.2827;
891.3000;0.1490;-0.2899;
891.6000;0.1457;-0.2947;
891.9000;0.1490;-0.2923;
892.2000;0.1408;-0.3115;
892.5000;0.1481;-0.2875;
892.8000;0.1490;-0.2899;
893.1000;0.1498;-0.2827;
893.4000;0.1473;-0.2851;
893.7000;0.1408;-0.3067;
894.0000;0.1465;-0.2875;
894.3000;0.1538;-0.2684;
894.6000;0.1465;-0.2827;
894.9000;0.1490;-0.2803;
895.2000;0.1441;-0.2923;
895.5000;0.1392;-0.3091;
895.8000;0.1481;-0.2875;
896.1000;0.1473;-0.2875;
896.4000;0.1465;-0.2923;
896.7000;0.1473;-0.2947;
897.0000;0.1522;-0.2755;
897.3000;0.1473;-0.2923;
897.6000;0.1490;-0.2923;
897.9000;0.1514;-0.2875;
898.2000;0.1457;-0.3091;
898.5000;0.1473;-0.3043;
898.8000;0.1498;-0.2995;
899.1000;0.1481;-0.3019;
899.4000;0.1473;-0.3019;
899.7000;0.1481;-0.3043;
900.0000;0.1433;-0.3091;
900.3000;0.1490;-0.2875;
900.6000;0.1457;-0.2947;
900.9000;0.1465;-0.2851;
901.2000;0.1465;-0.2803;
901.5000;0.1465;-0.2731;
901.8000;0.1490;-0.2660;
902.1000;0.1522;-0.2564;
902.4000;0.1506;-0.2660;
902.7000;0.1498;-0.2684;
903.0000;0.1481;-0.2803;
903.3000;0.1530;-0.2660;
903.6000;0.1465;-0.2851;
903.9000;0.1514;-0.2779;
904.2000;0.1473;-0.2875;
904.5000;0.1473;-0.2899;
904.8000;0.1473;-0.2899;
905.1000;0.1481;-0.2899;
905.4000;0.1490;-0.2923;
905.7000;0.1473;-0.2899;
906.0000;0.1473;-0.2851;
906.3000;0.1465;-0.2803;
906.6000;0.1457;-0.2827;
906.9000;0.1465;-0.2971;
907.2000;0.1457;-0.2971;
907.5000;0.1506;-0.2827;
907.8000;0.1465;-0.2947;
908.1000;0.1433;-0.2995;
908.4000;0.1490;-0.2827;
908.7000;0.1506;-0.2803;
909.0000;0.1473;-0.2899;
909.3000;0.1408;-0.3115;
909.6000;0.1506;-0.2875;
909.9000;0.1433;-0.2995;
910.2000;0.1473;-0.2875;
910.5000;0.1465;-0.2827;
910.8000;0.1490;-0.2779;
911.1000;0.1490;-0.2899;
911.4000;0.1449;-0.3091;
911.7000;0.1514;-0.3019;
912.0000;0.1465;-0.3115;
912.3000;0.1473;-0.3019;
912.6000;0.1457;-0.3019;
912.9000;0.1457;-0.2923;
913.2000;0.1465;-0.2899;
913.5000;0.1473;-0.2899;
913.8000;0.1490;-0.2971;
914.1000;0.1433;-0.3163;
914.4000;0.1481;-0.2995;
914.7000;0.1498;-0.3091;
915.0000;0.1433;-0.3163;
915.3000;0.1506;-0.2923;
915.6000;0.1449;-0.3019;
915.9000;0.1579;-0.2779;
916.2000;0.1473;-0.3043;
916.5000;0.1457;-0.3067;
916.8000;0.1498;-0.2995;
917.1000;0.1425;-0.3067;
917.4000;0.1490;-0.2923;
917.7000;0.1498;-0.2923;
918.0000;0.1498;-0.2875;
918.3000;0.1506;-0.2779;
918.6000;0.1490;-0.2875;
918.9000;0.1498;-0.2851;
919.2000;0.1481;-0.2875;
919.5000;0.1473;-0.2803;
919.8000;0.1457;-0.2827;
920.1000;0.1473;-0.2827;
920.4000;0.1481;-0.2827;
920.7000;0.1457;-0.2923;
921.0000;0.1465;-0.2947;
921.3000;0.1465;-0.2851;
921.6000;0.1490;-0.2707;
921.9000;0.1473;-0.2731;
922.2000;0.1473;-0.2731;
922.5000;0.1449;-0.2851;
922.8000;0.1416;-0.2923;
923.1000;0.1481;-0.2803;
923.4000;0.1498;-0.2875;
923.7000;0.1473;-0.2923;
924.0000;0.1506;-0.2827;
924.3000;0.1473;-0.2803;
924.6000;0.1490;-0.2899;
924.9000;0.1490;-0.2779;
925.2000;0.1498;-0.2779;
925.5000;0.1473;-0.2827;
925.8000;0.1465;-0.2899;
926.1000;0.1425;-0.2923;
926.4000;0.1473;-0.2851;
926.7000;0.1473;-0.2875;
927.0000;0.1498;-0.2851;
927.3000;0.1473;-0.3019;
927.6000;0.1449;-0.3091;
927.9000;0.1506;-0.2923;
928.2000;0.1465;-0.2947;
928.5000;0.1457;-0.2923;
928.8000;0.1457;-0.2947;
929.1000;0.1473;-0.2899;
929.4000;0.1481;-0.2923;
929.7000;0.1457;-0.3043;
930.0000;0.1473;-0.2923;
930.3000;0.1481;-0.2851;
930.6000;0.1490;-0.2803;
930.9000;0.1498;-0.2851;
931.2000;0.1563;-0.2755;
931.5000;0.1400;-0.3211;
931.8000;0.1481;-0.2899;
932.1000;0.1465;-0.2971;
932.4000;0.1408;-0.2947;
932.7000;0.1473;-0.2755;
933.0000;0.1473;-0.2827;
933.3000;0.1465;-0.2899;
933.6000;0.1416;-0.3019;
933.9000;0.1465;-0.2755;
934.2000;0.1490;-0.2707;
934.5000;0.1579;-0.2540;
934.8000;0.1441;-0.2923;
935.1000;0.1473;-0.2875;
935.4000;0.1481;-0.2995;
935.7000;0.1498;-0.2923;
936.0000;0.1473;-0.3019;
936.3000;0.1457;-0.3043;
936.6000;0.1465;-0.3019;
936.9000;0.1514;-0.3067;
937.2000;0.1433;-0.3187;
937.5000;0.1473;-0.3019;
937.8000;0.1465;-0.3091;
938.1000;0.1490;-0.3019;
938.4000;0.1506;-0.2971;
938.7000;0.1547;-0.2755;
939.0000;0.1514;-0.2851;
939.3000;0.1473;-0.2995;
939.6000;0.1498;-0.2923;
939.9000;0.1473;-0.2971;
940.2000;0.1465;-0.2995;
940.5000;0.1555;-0.2779;
940.8000;0.1473;-0.2923;
941.1000;0.1465;-0.2971;
941.4000;0.1481;-0.2971;
941.7000;0.1481;-0.2923;
942.0000;0.1465;-0.2923;
942.3000;0.1604;-0.2612;
942.6000;0.1473;-0.2899;
942.9000;0.1343;-0.3235;
943.2000;0.1465;-0.2971;
943.5000;0.1473;-0.2923;
943.8000;0.1514;-0.2851;
944.1000;0.1465;-0.2995;
944.4000;0.1465;-0.3019;
944.7000;0.1441;-0.3019;
945.0000;0.1449;-0.3019;
945.3000;0.1425;-0.3067;
945.6000;0.1498;-0.2899;
945.9000;0.1481;-0.2923;
946.2000;0.1481;-0.2899;
946.5000;0.1473;-0.2923;
946.8000;0.1384;-0.3163;
947.1000;0.1457;-0.2947;
947.4000;0.1465;-0.2875;
947.7000;0.1481;-0.2899;
948.0000;0.1473;-0.2899;
948.3000;0.1490;-0.2875;
948.6000;0.1481;-0.2803;
948.9000;0.1498;-0.2755;
949.2000;0.1490;-0.2875;
949.5000;0.1481;-0.2947;
949.8000;0.1416;-0.3043;
950.1000;0.1490;-0.2803;
950.4000;0.1490;-0.2827;
950.7000;0.1473;-0.2923;
951.0000;0.1490;-0.2851;
951.3000;0.1392;-0.3115;
951.6000;0.1473;-0.2923;
951.9000;0.1490;-0.2851;
952.2000;0.1465;-0.2875;
952.5000;0.1465;-0.2899;
952.8000;0.1465;-0.2851;
953.1000;0.1481;-0.2827;
953.4000;0.1473;-0.2827;
953.7000;0.1481;-0.2827;
954.0000;0.1457;-0.2923;
954.3000;0.1465;-0.2851;
954.6000;0.1490;-0.2755;
954.9000;0.1481;-0.2779;
955.2000;0.1481;-0.2827;
955.5000;0.1473;-0.2851;
955.8000;0.1465;-0.2851;
956.1000;0.1473;-0.2875;
956.4000;0.1473;-0.2899;
956.7000;0.1490;-0.2851;
957.0000;0.1473;-0.2923;
957.3000;0.1457;-0.2995;
957.6000;0.1465;-0.2899;
957.9000;0.1449;-0.2947;
958.2000;0.1457;-0.2923;
958.5000;0.1457;-0.2875;
958.8000;0.1465;-0.2875;
959.1000;0.1481;-0.2827;
959.4000;0.1457;-0.2827;
959.7000;0.1457;-0.2779;
960.0000;0.1465;-0.2755;
960.3000;0.1498;-0.2636;
960.6000;0.1465;-0.2684;
960.9000;0.1555;-0.2492;
961.2000;0.1490;-0.2731;
961.5000;0.1441;-0.2971;
961.8000;0.1457;-0.2923;
962.1000;0.1465;-0.2827;
962.4000;0.1628;-0.2300;
962.7000;0.1465;-0.2707;
963.0000;0.1490;-0.2660;
963.3000;0.1481;-0.2731;
963.6000;0.1490;-0.2803;
963.9000;0.1465;-0.2851;
964.2000;0.1384;-0.3139;
964.5000;0.1359;-0.3139;
964.8000;0.1481;-0.2875;
965.1000;0.1473;-0.2875;
965.4000;0.1368;-0.3163;
965.7000;0.1490;-0.2875;
966.0000;0.1490;-0.2923;
966.3000;0.1490;-0.2923;
966.6000;0.1465;-0.2947;
966.9000;0.1408;-0.3043;
967.2000;0.1473;-0.2827;
967.5000;0.1490;-0.2803;
967.8000;0.1522;-0.2707;
968.1000;0.1465;-0.2875;
968.4000;0.1547;-0.2636;
968.7000;0.1498;-0.2755;
969.0000;0.1473;-0.2851;
969.3000;0.1498;-0.2875;
969.6000;0.1473;-0.2875;
969.9000;0.1473;-0.2899;
970.2000;0.1481;-0.2827;
970.5000;0.1490;-0.2851;
970.8000;0.1465;-0.2803;
971.1000;0.1481;-0.2803;
971.4000;0.1465;-0.2827;
971.7000;0.1481;-0.2779;
972.0000;0.1506;-0.2803;
972.3000;0.1457;-0.2851;
972.6000;0.1449;-0.2971;
972.9000;0.1449;-0.2947;
973.2000;0.1473;-0.2803;
973.5000;0.1457;-0.2899;
973.8000;0.1457;-0.2971;
974.1000;0.1563;-0.2779;
974.4000;0.1498;-0.2803;
974.7000;0.1465;-0.2923;
975.0000;0.1457;-0.2899;
975.3000;0.1481;-0.2923;
975.6000;0.1506;-0.2875;
975.9000;0.1473;-0.2899;
976.2000;0.1498;-0.2827;
976.5000;0.1441;-0.2971;
976.8000;0.1465;-0.2947;
977.1000;0.1481;-0.2875;
977.4000;0.1465;-0.2971;
977.7000;0.1473;-0.2899;
978.0000;0.1490;-0.2851;
978.3000;0.1465;-0.2899;
978.6000;0.1522;-0.2731;
978.9000;0.1449;-0.2851;
979.2000;0.1433;-0.2851;
979.5000;0.1473;-0.2755;
979.8000;0.1465;-0.2779;
980.1000;0.1473;-0.2803;
980.4000;0.1384;-0.3139;
980.7000;0.1481;-0.3019;
981.0000;0.1490;-0.2995;
981.3000;0.1465;-0.3043;
981.6000;0.1481;-0.2971;
981.9000;0.1490;-0.2995;
982.2000;0.1465;-0.3019;
982.5000;0.1481;-0.2995;
982.8000;0.1441;-0.3067;
983.1000;0.1473;-0.3139;
983.4000;0.1490;-0.3115;
983.7000;0.1457;-0.3115;
984.0000;0.1473;-0.3115;
984.3000;0.1457;-0.3091;
984.6000;0.1490;-0.3043;
984.9000;0.1449;-0.3115;
985.2000;0.1457;-0.2995;
985.5000;0.1481;-0.3043;
985.8000;0.1506;-0.3019;
986.1000;0.1563;-0.2875;
986.4000;0.1481;-0.3043;
986.7000;0.1481;-0.3115;
987.0000;0.1595;-0.2779;
987.3000;0.1530;-0.2947;
987.6000;0.1473;-0.2995;
987.9000;0.1473;-0.2923;
988.2000;0.1473;-0.2899;
988.5000;0.1392;-0.3091;
988.8000;0.1506;-0.2827;
989.1000;0.1465;-0.2875;
989.4000;0.1498;-0.2827;
989.7000;0.1457;-0.2923;
990.0000;0.1473;-0.2851;
990.3000;0.1465;-0.2851;
990.6000;0.1457;-0.2851;
990.9000;0.1465;-0.2803;
991.2000;0.1481;-0.2731;
991.5000;0.1457;-0.2684;
991.8000;0.1473;-0.2707;
992.1000;0.1465;-0.2684;
992.4000;0.1400;-0.2755;
992.7000;0.1490;-0.2540;
993.0000;0.1481;-0.2564;
993.3000;0.1481;-0.2564;
993.6000;0.1473;-0.2636;
993.9000;0.1498;-0.2636;
994.2000;0.1473;-0.2779;
994.5000;0.1465;-0.2851;
994.8000;0.1498;-0.2779;
995.1000;0.1473;-0.2851;
995.4000;0.1522;-0.2707;
995.7000;0.1465;-0.2827;
996.0000;0.1481;-0.2755;
996.3000;0.1473;-0.2755;
996.6000;0.1441;-0.2803;
996.9000;0.1457;-0.2755;
997.2000;0.1465;-0.2779;
997.5000;0.1457;-0.2803;
997.8000;0.1449;-0.2827;
998.1000;0.1481;-0.2707;
998.4000;0.1473;-0.2803;
998.7000;0.1473;-0.2779;
999.0000;0.1481;-0.2779;
999.3000;0.1530;-0.2588;
999.6000;0.1490;-0.2707;
999.9000;0.1481;-0.2660;
1000.2000;0.1433;-0.2755;
1000.5000;0.1449;-0.2731;
1000.8000;0.1473;-0.2731;
1001.1000;0.1481;-0.2684;
1001.4000;0.1481;-0.2660;
1001.7000;0.1490;-0.2707;
1002.0000;0.1465;-0.2660;
1002.3000;0.1498;-0.2636;
1002.6000;0.1481;-0.2684;
1002.9000;0.1514;-0.2684;
1003.2000;0.1465;-0.2779;
1003.5000;0.1465;-0.2755;
1003.8000;0.1408;-0.2851;
1004.1000;0.1498;-0.2707;
1004.4000;0.1490;-0.2779;
1004.7000;0.1473;-0.2827;
1005.0000;0.1506;-0.2827;
1005.3000;0.1481;-0.2947;
1005.6000;0.1481;-0.2875;
1005.9000;0.1538;-0.2755;
1006.2000;0.1481;-0.2923;
1006.5000;0.1465;-0.2923;
1006.8000;0.1506;-0.2803;
1007.1000;0.1490;-0.2779;
1007.4000;0.1481;-0.2827;
1007.7000;0.1481;-0.2851;
1008.0000;0.1514;-0.2755;
1008.3000;0.1449;-0.2899;
1008.6000;0.1457;-0.2947;
1008.9000;0.1473;-0.2923;
1009.2000;0.1490;-0.2875;
1009.5000;0.1473;-0.2947;
1009.8000;0.1481;-0.2875;
1010.1000;0.1547;-0.2660;
1010.4000;0.1514;-0.2731;
1010.7000;0.1481;-0.2875;
1011.0000;0.1457;-0.2875;
1011.3000;0.1449;-0.2947;
1011.6000;0.1473;-0.2995;
1011.9000;0.1481;-0.2947;
1012.2000;0.1498;-0.2827;
1012.5000;0.1449;-0.3019;
1012.8000;0.1490;-0.2875;
1013.1000;0.1481;-0.2923;
1013.4000;0.1449;-0.2995;
1013.7000;0.1555;-0.2755;
1014.0000;0.1473;-0.2947;
1014.3000;0.1457;-0.2971;
1014.6000;0.1473;-0.2971;
1014.9000;0.1441;-0.3067;
1015.2000;0.1465;-0.3019;
1015.5000;0.1359;-0.3354;
1015.8000;0.1457;-0.3139;
1016.1000;0.1465;-0.3043;
1016.4000;0.1457;-0.3091;
1016.7000;0.1490;-0.3139;
1017.0000;0.1473;-0.3091;
1017.3000;0.1465;-0.3067;
1017.6000;0.1425;-0.3235;
1017.9000;0.1473;-0.3067;
1018.2000;0.1465;-0.3067;
1018.5000;0.1465;-0.3019;
1018.8000;0.1465;-0.3019;
1019.1000;0.1473;-0.2947;
1019.4000;0.1457;-0.2851;
1019.7000;0.1481;-0.2899;
1020.0000;0.1465;-0.2899;
1020.3000;0.1498;-0.2755;
1020.6000;0.1473;-0.2899;
1020.9000;0.1473;-0.2899;
1021.2000;0.1473;-0.2827;
1021.5000;0.1449;-0.2803;
1021.8000;0.1473;-0.2755;
1022.1000;0.1473;-0.2755;
1022.4000;0.1481;-0.2731;
1022.7000;0.1457;-0.2899;
1023.0000;0.1490;-0.2851;
1023.3000;0.1490;-0.2875;
1023.6000;0.1481;-0.2923;
1023.9000;0.1457;-0.2995;
1024.2000;0.1490;-0.3043;
1024.5000;0.1490;-0.3091;
1024.8000;0.1481;-0.3043;
1025.1000;0.1473;-0.3043;
1025.4000;0.1481;-0.2995;
1025.7000;0.1498;-0.2971;
1026.0000;0.1465;-0.2995;
1026.3000;0.1433;-0.3091;
1026.6000;0.1457;-0.3043;
1026.9000;0.1449;-0.2971;
1027.2000;0.1457;-0.2995;
1027.5000;0.1457;-0.2923;
1027.8000;0.1481;-0.2875;
1028.1000;0.1473;-0.2827;
1028.4000;0.1481;-0.2779;
1028.7000;0.1530;-0.2516;
1029.0000;0.1473;-0.2612;
1029.3000;0.1449;-0.2684;
1029.6000;0.1441;-0.2660;
1029.9000;0.1506;-0.2588;
1030.2000;0.1465;-0.2827;
1030.5000;0.1498;-0.2684;
1030.8000;0.1302;-0.3163;
1031.1000;0.1490;-0.2731;
1031.4000;0.1481;-0.2636;
1031.7000;0.1473;-0.2660;
1032.0000;0.1425;-0.2803;
1032.3000;0.1400;-0.2851;
1032.6000;0.1481;-0.2660;
1032.9000;0.1392;-0.2875;
1033.2000;0.1481;-0.2660;
1033.5000;0.1522;-0.2660;
1033.8000;0.1595;-0.2420;
1034.1000;0.1449;-0.2827;
1034.4000;0.1343;-0.3115;
1034.7000;0.1490;-0.2707;
1035.0000;0.1433;-0.2851;
1035.3000;0.1457;-0.2875;
1035.6000;0.1481;-0.2827;
1035.9000;0.1465;-0.2899;
1036.2000;0.1595;-0.2492;
1036.5000;0.1522;-0.2707;
1036.8000;0.1449;-0.2827;
1037.1000;0.1498;-0.2588;
1037.4000;0.1481;-0.2684;
1037.7000;0.1490;-0.2707;
1038.0000;0.1473;-0.2779;
1038.3000;0.1481;-0.2755;
1038.6000;0.1457;-0.2851;
1038.9000;0.1473;-0.2899;
1039.2000;0.1481;-0.2923;
1039.5000;0.1490;-0.2923;
1039.8000;0.1457;-0.2971;
1040.1000;0.1465;-0.2947;
1040.4000;0.1473;-0.2995;
1040.7000;0.1457;-0.3019;
1041.0000;0.1498;-0.2947;
1041.3000;0.1465;-0.2995;
1041.6000;0.1473;-0.2995;
1041.9000;0.1481;-0.2947;
1042.2000;0.1473;-0.3067;
1042.5000;0.1408;-0.3330;
1042.8000;0.1465;-0.3163;
1043.1000;0.1473;-0.3067;
1043.4000;0.1498;-0.3091;
1043.7000;0.1490;-0.3067;
1044.0000;0.1481;-0.3115;
1044.3000;0.1457;-0.3163;
1044.6000;0.1441;-0.3091;
1044.9000;0.1465;-0.2971;
1045.2000;0.1498;-0.2947;
1045.5000;0.1481;-0.3019;
1045.8000;0.1473;-0.2995;
1046.1000;0.1433;-0.3139;
1046.4000;0.1473;-0.2971;
1046.7000;0.1473;-0.2947;
1047.0000;0.1498;-0.2923;
1047.3000;0.1490;-0.3019;
1047.6000;0.1498;-0.2995;
1047.9000;0.1490;-0.2971;
1048.2000;0.1473;-0.3043;
1048.5000;0.1587;-0.2660;
1048.8000;0.1473;-0.2995;
1049.1000;0.1473;-0.2851;
1049.4000;0.1465;-0.2899;
1049.7000;0.1416;-0.2971;
1050.0000;0.1490;-0.2803;
1050.3000;0.1490;-0.2827;
1050.6000;0.1555;-0.2707;
1050.9000;0.1490;-0.2947;
1051.2000;0.1481;-0.3043;
1051.5000;0.1490;-0.2899;
1051.8000;0.1441;-0.3043;
1052.1000;0.1465;-0.2947;
1052.4000;0.1457;-0.2947;
1052.7000;0.1473;-0.3067;
1053.0000;0.1473;-0.3067;
1053.3000;0.1481;-0.3043;
1053.6000;0.1498;-0.2971;
1053.9000;0.1408;-0.3163;
1054.2000;0.1457;-0.3043;
1054.5000;0.1587;-0.2636;
1054.8000;0.1473;-0.2875;
1055.1000;0.1481;-0.2779;
1055.4000;0.1473;-0.2779;
1055.7000;0.1481;-0.2803;
1056.0000;0.1473;-0.2899;
1056.3000;0.1481;-0.2851;
1056.6000;0.1351;-0.3139;
1056.9000;0.1473;-0.2755;
1057.2000;0.1490;-0.2827;
1057.5000;0.1368;-0.3211;
1057.8000;0.1473;-0.2875;
1058.1000;0.1498;-0.2779;
1058.4000;0.1376;-0.3187;
1058.7000;0.1481;-0.3019;
1059.0000;0.1465;-0.3091;
1059.3000;0.1530;-0.2827;
1059.6000;0.1498;-0.2971;
1059.9000;0.1481;-0.3091;
1060.2000;0.1481;-0.3187;
1060.5000;0.1465;-0.3163;
1060.8000;0.1319;-0.3474;
1061.1000;0.1441;-0.3067;
1061.4000;0.1449;-0.3043;
1061.7000;0.1473;-0.2899;
1062.0000;0.1473;-0.2947;
1062.3000;0.1465;-0.3019;
1062.6000;0.1473;-0.2971;
1062.9000;0.1538;-0.2731;
1063.2000;0.1490;-0.2851;
1063.5000;0.1465;-0.2995;
1063.8000;0.1449;-0.3019;
1064.1000;0.1465;-0.2899;
1064.4000;0.1490;-0.2827;
1064.7000;0.1465;-0.2971;
1065.0000;0.1481;-0.2827;
1065.3000;0.1465;-0.2875;
1065.6000;0.1481;-0.2803;
1065.9000;0.1481;-0.2779;
1066.2000;0.1473;-0.2779;
1066.5000;0.1449;-0.2803;
1066.8000;0.1481;-0.2731;
1067.1000;0.1465;-0.2755;
1067.4000;0.1465;-0.2803;
1067.7000;0.1449;-0.2851;
1068.0000;0.1490;-0.2827;
1068.3000;0.1490;-0.2803;
1068.6000;0.1473;-0.2851;
1068.9000;0.1498;-0.2779;
1069.2000;0.1449;-0.2923;
1069.5000;0.1490;-0.2875;
1069.8000;0.1457;-0.2995;
1070.1000;0.1490;-0.2899;
1070.4000;0.1465;-0.2851;
1070.7000;0.1465;-0.2851;
1071.0000;0.1457;-0.2875;
1071.3000;0.1457;-0.2827;
1071.6000;0.1473;-0.2755;
1071.9000;0.1449;-0.2755;
1072.2000;0.1522;-0.2588;
1072.5000;0.1498;-0.2636;
1072.8000;0.1506;-0.2588;
1073.1000;0.1465;-0.2779;
1073.4000;0.1465;-0.2707;
1073.7000;0.1481;-0.2731;
1074.0000;0.1473;-0.2779;
1074.3000;0.1473;-0.2755;
1074.6000;0.1538;-0.2636;
1074.9000;0.1547;-0.2660;
1075.2000;0.1481;-0.2803;
1075.5000;0.1490;-0.2731;
1075.8000;0.1522;-0.2588;
1076.1000;0.1465;-0.2827;
1076.4000;0.1481;-0.2827;
1076.7000;0.1465;-0.2827;
1077.0000;0.1465;-0.2803;
1077.3000;0.1473;-0.2827;
1077.6000;0.1465;-0.2827;
1077.9000;0.1465;-0.2827;
1078.2000;0.1506;-0.2755;
1078.5000;0.1449;-0.2947;
1078.8000;0.1465;-0.2899;
1079.1000;0.1481;-0.2827;
1079.4000;0.1384;-0.3067;
1079.7000;0.1465;-0.2875;
1080.0000;0.1481;-0.2971;
1080.3000;0.1473;-0.3019;
1080.6000;0.1457;-0.3091;
1080.9000;0.1498;-0.2923;
1081.2000;0.1481;-0.3043;
1081.5000;0.1481;-0.3019;
1081.8000;0.1465;-0.3115;
1082.1000;0.1490;-0.3043;
1082.4000;0.1327;-0.3402;
1082.7000;0.1481;-0.3091;
1083.0000;0.1473;-0.3139;
1083.3000;0.1400;-0.3259;
1083.6000;0.1465;-0.3019;
1083.9000;0.1563;-0.2707;
1084.2000;0.1498;-0.2899;
1084.5000;0.1449;-0.2947;
1084.8000;0.1473;-0.2899;
1085.1000;0.1498;-0.2899;
1085.4000;0.1473;-0.3019;
1085.7000;0.1481;-0.3043;
1086.0000;0.1481;-0.3067;
1086.3000;0.1490;-0.2971;
1086.6000;0.1457;-0.2995;
1086.9000;0.1465;-0.2947;
1087.2000;0.1481;-0.2995;
1087.5000;0.1498;-0.2923;
1087.8000;0.1514;-0.2827;
1088.1000;0.1457;-0.2851;
1088.4000;0.1514;-0.2707;
1088.7000;0.1498;-0.2684;
1089.0000;0.1473;-0.2755;
1089.3000;0.1522;-0.2588;
1089.6000;0.1457;-0.2707;
1089.9000;0.1490;-0.2636;
1090.2000;0.1481;-0.2684;
1090.5000;0.1457;-0.2851;
1090.8000;0.1465;-0.2779;
1091.1000;0.1473;-0.2707;
1091.4000;0.1490;-0.2707;
1091.7000;0.1481;-0.2707;
1092.0000;0.1473;-0.2731;
1092.3000;0.1449;-0.2851;
1092.6000;0.1441;-0.2875;
1092.9000;0.1498;-0.2731;
1093.2000;0.1465;-0.2779;
1093.5000;0.1433;-0.2779;
1093.8000;0.1473;-0.2755;
1094.1000;0.1465;-0.2684;
1094.4000;0.1490;-0.2684;
1094.7000;0.1490;-0.2684;
1095.0000;0.1481;-0.2779;
1095.3000;0.1481;-0.2731;
1095.6000;0.1343;-0.3043;
1095.9000;0.1490;-0.2707;
1096.2000;0.1481;-0.2755;
1096.5000;0.1579;-0.2516;
1096.8000;0.1457;-0.2779;
1097.1000;0.1465;-0.2779;
1097.4000;0.1441;-0.2779;
1097.7000;0.1481;-0.2612;
1098.0000;0.1481;-0.2612;
1098.3000;0.1473;-0.2684;
1098.6000;0.1457;-0.2755;
1098.9000;0.1530;-0.2588;
1099.2000;0.1481;-0.2707;
1099.5000;0.1481;-0.2636;
1099.8000;0.1408;-0.2779;
1100.1000;0.1384;-0.2875;
1100.4000;0.1465;-0.2660;
1100.7000;0.1481;-0.2660;
1101.0000;0.1481;-0.2660;
1101.3000;0.1465;-0.2684;
1101.6000;0.1473;-0.2755;
1101.9000;0.1425;-0.3067;
1102.2000;0.1473;-0.2899;
1102.5000;0.1449;-0.2923;
1102.8000;0.1481;-0.2851;
1103.1000;0.1416;-0.3043;
1103.4000;0.1457;-0.2899;
1103.7000;0.1473;-0.2779;
1104.0000;0.1514;-0.2684;
1104.3000;0.1490;-0.2707;
1104.6000;0.1473;-0.2779;
1104.9000;0.1481;-0.2803;
1105.2000;0.1457;-0.2899;
1105.5000;0.1481;-0.2851;
1105.8000;0.1473;-0.2803;
1106.1000;0.1490;-0.2803;
1106.4000;0.1481;-0.2851;
1106.7000;0.1473;-0.2851;
1107.0000;0.1473;-0.2803;
1107.3000;0.1465;-0.2779;
1107.6000;0.1473;-0.2827;
1107.9000;0.1473;-0.2851;
1108.2000;0.1457;-0.2827;
1108.5000;0.1490;-0.2755;
1108.8000;0.1473;-0.2899;
1109.1000;0.1490;-0.2923;
1109.4000;0.1514;-0.2899;
1109.7000;0.1481;-0.2995;
1110.0000;0.1457;-0.3067;
1110.3000;0.1457;-0.3139;
1110.6000;0.1465;-0.3043;
1110.9000;0.1490;-0.2971;
1111.2000;0.1465;-0.3043;
1111.5000;0.1514;-0.2875;
1111.8000;0.1465;-0.2899;
1112.1000;0.1465;-0.2851;
1112.4000;0.1457;-0.2803;
1112.7000;0.1490;-0.2731;
1113.0000;0.1473;-0.2755;
1113.3000;0.1498;-0.2779;
1113.6000;0.1506;-0.2779;
1113.9000;0.1465;-0.2851;
1114.2000;0.1465;-0.2803;
1114.5000;0.1514;-0.2636;
1114.8000;0.1490;-0.2707;
1115.1000;0.1465;-0.2779;
1115.4000;0.1481;-0.2803;
1115.7000;0.1465;-0.2827;
1116.0000;0.1481;-0.2731;
1116.3000;0.1400;-0.2923;
1116.6000;0.1579;-0.2420;
1116.9000;0.1481;-0.2707;
1117.2000;0.1490;-0.2684;
1117.5000;0.1473;-0.2755;
1117.8000;0.1473;-0.2684;
1118.1000;0.1514;-0.2612;
1118.4000;0.1457;-0.2779;
1118.7000;0.1481;-0.2684;
1119.0000;0.1490;-0.2660;
1119.3000;0.1441;-0.2779;
1119.6000;0.1473;-0.2755;
1119.9000;0.1481;-0.2755;
1120.2000;0.1457;-0.2779;
1120.5000;0.1441;-0.2875;
1120.8000;0.1465;-0.2779;
1121.1000;0.1473;-0.2755;
1121.4000;0.1506;-0.2588;
1121.7000;0.1473;-0.2660;
1122.0000;0.1481;-0.2755;
1122.3000;0.1473;-0.2827;
1122.6000;0.1490;-0.2731;
1122.9000;0.1498;-0.2827;
1123.2000;0.1481;-0.2755;
1123.5000;0.1473;-0.2731;
1123.8000;0.1368;-0.3067;
1124.1000;0.1498;-0.2779;
1124.4000;0.1498;-0.2755;
1124.7000;0.1473;-0.2827;
1125.0000;0.1481;-0.2779;
1125.3000;0.1481;-0.2755;
1125.6000;0.1425;-0.2995;
1125.9000;0.1506;-0.2779;
1126.2000;0.1481;-0.2827;
1126.5000;0.1506;-0.2779;
1126.8000;0.1498;-0.2684;
1127.1000;0.1555;-0.2444;
1127.4000;0.1481;-0.2588;
1127.7000;0.1522;-0.2564;
1128.0000;0.1433;-0.2779;
1128.3000;0.1481;-0.2684;
1128.6000;0.1481;-0.2731;
1128.9000;0.1392;-0.2947;
1129.2000;0.1473;-0.2779;
1129.5000;0.1473;-0.2851;
1129.8000;0.1563;-0.2540;
1130.1000;0.1490;-0.2684;
1130.4000;0.1465;-0.2779;
1130.7000;0.1465;-0.2827;
1131.0000;0.1457;-0.2851;
1131.3000;0.1457;-0.2851;
1131.6000;0.1465;-0.2827;
1131.9000;0.1441;-0.2851;
1132.2000;0.1457;-0.2803;
1132.5000;0.1408;-0.3019;
1132.8000;0.1498;-0.2827;
1133.1000;0.1481;-0.2899;
1133.4000;0.1457;-0.2995;
1133.7000;0.1473;-0.2947;
1134.0000;0.1449;-0.3019;
1134.3000;0.1416;-0.3091;
1134.6000;0.1538;-0.2827;
1134.9000;0.1481;-0.2947;
1135.2000;0.1465;-0.3043;
1135.5000;0.1481;-0.2971;
1135.8000;0.1473;-0.2995;
1136.1000;0.1473;-0.3019;
1136.4000;0.1465;-0.3019;
1136.7000;0.1408;-0.3187;
1137.0000;0.1465;-0.2995;
1137.3000;0.1473;-0.2971;
1137.6000;0.1457;-0.3019;
1137.9000;0.1490;-0.2971;
1138.2000;0.1490;-0.2947;
1138.5000;0.1449;-0.3043;
1138.8000;0.1473;-0.2923;
1139.1000;0.1457;-0.2899;
1139.4000;0.1465;-0.2875;
1139.7000;0.1506;-0.2731;
1140.0000;0.1465;-0.2755;
1140.3000;0.1457;-0.2827;
1140.6000;0.1449;-0.2899;
1140.9000;0.1481;-0.2827;
1141.2000;0.1506;-0.2731;
1141.5000;0.1481;-0.2851;
1141.8000;0.1433;-0.3091;
1142.1000;0.1465;-0.2971;
1142.4000;0.1433;-0.3067;
1142.7000;0.1433;-0.3019;
1143.0000;0.1498;-0.2899;
1143.3000;0.1457;-0.2947;
1143.6000;0.1473;-0.2875;
1143.9000;0.1465;-0.2947;
1144.2000;0.1465;-0.2971;
1144.5000;0.1514;-0.2851;
1144.8000;0.1490;-0.2995;
1145.1000;0.1473;-0.3091;
1145.4000;0.1481;-0.3067;
1145.7000;0.1473;-0.3115;
1146.0000;0.1457;-0.3067;
1146.3000;0.1457;-0.2995;
1146.6000;0.1465;-0.2971;
1146.9000;0.1498;-0.2899;
1147.2000;0.1490;-0.2971;
1147.5000;0.1473;-0.3019;
1147.8000;0.1457;-0.3091;
1148.1000;0.1481;-0.2947;
1148.4000;0.1441;-0.3019;
1148.7000;0.1481;-0.2947;
1149.0000;0.1457;-0.3019;
1149.3000;0.1579;-0.2899;
1149.6000;0.1473;-0.3139;
1149.9000;0.1498;-0.3091;
1150.2000;0.1473;-0.3139;
1150.5000;0.1473;-0.3235;
1150.8000;0.1506;-0.3187;
1151.1000;0.1473;-0.3187;
1151.4000;0.1465;-0.3139;
1151.7000;0.1481;-0.3115;
1152.0000;0.1473;-0.3091;
1152.3000;0.1465;-0.3067;
1152.6000;0.1449;-0.3091;
1152.9000;0.1425;-0.3163;
1153.2000;0.1490;-0.2971;
1153.5000;0.1481;-0.2851;
1153.8000;0.1457;-0.2851;
1154.1000;0.1457;-0.2875;
1154.4000;0.1490;-0.2875;
1154.7000;0.1465;-0.2923;
1155.0000;0.1506;-0.2851;
1155.3000;0.1465;-0.3019;
1155.6000;0.1457;-0.2923;
1155.9000;0.1530;-0.2636;
1156.2000;0.1473;-0.2779;
1156.5000;0.1490;-0.2755;
1156.8000;0.1441;-0.2923;
1157.1000;0.1473;-0.2899;
1157.4000;0.1481;-0.2923;
1157.7000;0.1473;-0.2803;
1158.0000;0.1457;-0.2875;
1158.3000;0.1481;-0.2803;
1158.6000;0.1481;-0.2803;
1158.9000;0.1473;-0.2779;
1159.2000;0.1490;-0.2803;
1159.5000;0.1473;-0.2803;
1159.8000;0.1473;-0.2851;
1160.1000;0.1498;-0.2875;
1160.4000;0.1481;-0.2923;
1160.7000;0.1514;-0.2875;
1161.0000;0.1481;-0.2995;
1161.3000;0.1473;-0.3019;
1161.6000;0.1449;-0.3043;
1161.9000;0.1465;-0.2971;
1162.2000;0.1481;-0.2875;
1162.5000;0.1481;-0.2851;
1162.8000;0.1465;-0.2947;
1163.1000;0.1449;-0.2971;
1163.4000;0.1465;-0.2947;
1163.7000;0.1481;-0.2899;
1164.0000;0.1449;-0.2971;
1164.3000;0.1563;-0.2707;
1164.6000;0.1498;-0.2875;
1164.9000;0.1490;-0.2899;
1165.2000;0.1465;-0.2995;
1165.5000;0.1473;-0.3019;
1165.8000;0.1514;-0.2947;
1166.1000;0.1481;-0.2971;
1166.4000;0.1481;-0.2923;
1166.7000;0.1465;-0.2971;
1167.0000;0.1473;-0.2947;
1167.3000;0.1449;-0.3067;
1167.6000;0.1392;-0.3211;
1167.9000;0.1481;-0.3043;
1168.2000;0.1490;-0.2995;
1168.5000;0.1490;-0.2971;
1168.8000;0.1506;-0.2851;
1169.1000;0.1473;-0.2851;
1169.4000;0.1530;-0.2660;
1169.7000;0.1506;-0.2707;
1170.0000;0.1481;-0.2755;
1170.3000;0.1449;-0.2803;
1170.6000;0.1449;-0.2875;
1170.9000;0.1481;-0.2923;
1171.2000;0.1506;-0.2875;
1171.5000;0.1441;-0.2923;
1171.8000;0.1465;-0.2851;
1172.1000;0.1481;-0.2851;
1172.4000;0.1481;-0.2851;
1172.7000;0.1481;-0.2851;
1173.0000;0.1490;-0.2851;
1173.3000;0.1473;-0.2899;
1173.6000;0.1465;-0.2971;
1173.9000;0.1522;-0.2803;
1174.2000;0.1327;-0.3259;
1174.5000;0.1481;-0.2923;
1174.8000;0.1473;-0.3019;
1175.1000;0.1481;-0.2995;
1175.4000;0.1490;-0.2947;
1175.7000;0.1498;-0.2827;
1176.0000;0.1498;-0.2779;
1176.3000;0.1538;-0.2684;
1176.6000;0.1473;-0.2899;
1176.9000;0.1481;-0.2803;
1177.2000;0.1481;-0.2755;
1177.5000;0.1408;-0.2827;
1177.8000;0.1473;-0.2755;
1178.1000;0.1449;-0.2899;
1178.4000;0.1465;-0.2947;
1178.7000;0.1473;-0.2947;
1179.0000;0.1465;-0.2827;
1179.3000;0.1473;-0.2827;
1179.6000;0.1473;-0.2803;
1179.9000;0.1473;-0.2827;
1180.2000;0.1498;-0.2755;
1180.5000;0.1481;-0.2707;
1180.8000;0.1498;-0.2660;
1181.1000;0.1481;-0.2660;
1181.4000;0.1473;-0.2684;
1181.7000;0.1522;-0.2636;
1182.0000;0.1481;-0.2779;
1182.3000;0.1490;-0.2803;
1182.6000;0.1522;-0.2707;
1182.9000;0.1490;-0.2779;
1183.2000;0.1473;-0.2827;
1183.5000;0.1473;-0.2803;
1183.8000;0.1481;-0.2803;
1184.1000;0.1481;-0.2827;
1184.4000;0.1473;-0.2827;
1184.7000;0.1457;-0.2851;
1185.0000;0.1473;-0.2779;
1185.3000;0.1400;-0.3043;
1185.6000;0.1498;-0.2923;
1185.9000;0.1490;-0.2971;
1186.2000;0.1490;-0.3043;
1186.5000;0.1473;-0.3019;
1186.8000;0.1490;-0.2875;
1187.1000;0.1490;-0.2875;
1187.4000;0.1457;-0.2923;
1187.7000;0.1441;-0.2947;
1188.0000;0.1506;-0.2779;
1188.3000;0.1473;-0.2947;
1188.6000;0.1457;-0.2947;
1188.9000;0.1465;-0.2971;
1189.2000;0.1490;-0.2827;
1189.5000;0.1514;-0.2875;
1189.8000;0.1481;-0.2899;
1190.1000;0.1473;-0.3043;
1190.4000;0.1449;-0.2995;
1190.7000;0.1547;-0.2684;
1191.0000;0.1490;-0.2851;
1191.3000;0.1457;-0.2947;
1191.6000;0.1465;-0.2875;
1191.9000;0.1425;-0.2947;
1192.2000;0.1481;-0.2827;
1192.5000;0.1490;-0.2731;
1192.8000;0.1579;-0.2564;
1193.1000;0.1490;-0.2779;
1193.4000;0.1473;-0.2803;
1193.7000;0.1433;-0.2851;
1194.0000;0.1473;-0.2755;
1194.3000;0.1490;-0.2803;
1194.6000;0.1490;-0.2755;
1194.9000;0.1538;-0.2588;
1195.2000;0.1555;-0.2540;
1195.5000;0.1481;-0.2755;
1195.8000;0.1506;-0.2803;
1196.1000;0.1457;-0.2899;
1196.4000;0.1457;-0.2875;
1196.7000;0.1465;-0.2875;
1197.0000;0.1498;-0.2779;
1197.3000;0.1457;-0.2755;
1197.6000;0.1473;-0.2803;
1197.9000;0.1481;-0.2779;
1198.2000;0.1481;-0.2803;
1198.5000;0.1481;-0.2899;
1198.8000;0.1490;-0.2803;
1199.1000;0.1465;-0.2875;
1199.4000;0.1465;-0.2875;
1199.7000;0.1481;-0.2707;
1200.0000;0.1465;-0.2660;
1200.3000;0.1481;-0.2779;
1200.6000;0.1538;-0.2636;
1200.9000;0.1465;-0.2875;
1201.2000;0.1481;-0.2827;
1201.5000;0.1473;-0.2827;
1201.8000;0.1481;-0.2731;
1202.1000;0.1473;-0.2827;
1202.4000;0.1563;-0.2540;
1202.7000;0.1465;-0.2755;
1203.0000;0.1481;-0.2731;
1203.3000;0.1465;-0.2755;
1203.6000;0.1465;-0.2755;
1203.9000;0.1490;-0.2684;
1204.2000;0.1481;-0.2707;
1204.5000;0.1473;-0.2707;
1204.8000;0.1490;-0.2755;
1205.1000;0.1457;-0.2851;
1205.4000;0.1473;-0.2827;
1205.7000;0.1514;-0.2684;
1206.0000;0.1457;-0.2851;
1206.3000;0.1481;-0.2803;
1206.6000;0.1506;-0.2731;
1206.9000;0.1473;-0.2875;
1207.2000;0.1384;-0.3139;
1207.5000;0.1457;-0.2923;
1207.8000;0.1376;-0.3187;
1208.1000;0.1441;-0.2875;
1208.4000;0.1490;-0.2803;
1208.7000;0.1514;-0.2707;
1209.0000;0.1481;-0.2755;
1209.3000;0.1547;-0.2588;
1209.6000;0.1636;-0.2300;
1209.9000;0.1473;-0.2660;
1210.2000;0.1481;-0.2660;
1210.5000;0.1457;-0.2755;
1210.8000;0.1473;-0.2803;
1211.1000;0.1449;-0.2875;
1211.4000;0.1449;-0.2827;
1211.7000;0.1490;-0.2755;
1212.0000;0.1465;-0.2779;
1212.3000;0.1644;-0.2396;
1212.6000;0.1473;-0.2899;
1212.9000;0.1538;-0.2803;
1213.2000;0.1457;-0.2971;
1213.5000;0.1449;-0.3019;
1213.8000;0.1481;-0.2779;
1214.1000;0.1465;-0.2803;
1214.4000;0.1490;-0.2707;
1214.7000;0.1490;-0.2755;
1215.0000;0.1465;-0.2707;
1215.3000;0.1481;-0.2660;
1215.6000;0.1490;-0.2755;
1215.9000;0.1416;-0.2923;
1216.2000;0.1449;-0.2779;
1216.5000;0.1481;-0.2827;
1216.8000;0.1587;-0.2516;
1217.1000;0.1473;-0.2803;
1217.4000;0.1473;-0.2755;
1217.7000;0.1457;-0.2779;
1218.0000;0.1530;-0.2731;
1218.3000;0.1465;-0.2971;
1218.6000;0.1481;-0.2971;
1218.9000;0.1473;-0.2923;
1219.2000;0.1465;-0.3019;
1219.5000;0.1587;-0.2779;
1219.8000;0.1481;-0.3043;
1220.1000;0.1465;-0.3139;
1220.4000;0.1498;-0.3019;
1220.7000;0.1465;-0.3043;
1221.0000;0.1465;-0.3043;
1221.3000;0.1473;-0.2995;
1221.6000;0.1490;-0.3019;
1221.9000;0.1481;-0.3067;
1222.2000;0.1481;-0.2923;
1222.5000;0.1457;-0.2851;
1222.8000;0.1465;-0.2851;
1223.1000;0.1481;-0.2875;
1223.4000;0.1514;-0.2755;
1223.7000;0.1441;-0.2899;
1224.0000;0.1481;-0.2851;
1224.3000;0.1547;-0.2660;
1224.6000;0.1481;-0.2779;
1224.9000;0.1490;-0.2755;
1225.2000;0.1465;-0.2803;
1225.5000;0.1457;-0.2875;
1225.8000;0.1490;-0.2827;
1226.1000;0.1473;-0.2923;
1226.4000;0.1473;-0.2875;
1226.7000;0.1465;-0.2875;
1227.0000;0.1490;-0.2851;
1227.3000;0.1490;-0.2875;
1227.6000;0.1465;-0.2971;
1227.9000;0.1490;-0.2899;
1228.2000;0.1473;-0.2971;
1228.5000;0.1473;-0.3019;
1228.8000;0.1465;-0.3019;
1229.1000;0.1473;-0.2923;
1229.4000;0.1490;-0.2923;
1229.7000;0.1490;-0.2851;
1230.0000;0.1473;-0.2851;
1230.3000;0.1498;-0.2779;
1230.6000;0.1490;-0.2731;
1230.9000;0.1514;-0.2731;
1231.2000;0.1473;-0.2875;
1231.5000;0.1514;-0.2731;
1231.8000;0.1498;-0.2779;
1232.1000;0.1490;-0.2875;
1232.4000;0.1457;-0.2995;
1232.7000;0.1506;-0.2947;
1233.0000;0.1473;-0.2995;
1233.3000;0.1481;-0.2899;
1233.6000;0.1384;-0.3163;
1233.9000;0.1433;-0.3019;
1234.2000;0.1416;-0.3043;
1234.5000;0.1473;-0.2899;
1234.8000;0.1490;-0.2971;
1235.1000;0.1481;-0.2923;
1235.4000;0.1481;-0.2875;
1235.7000;0.1481;-0.2947;
1236.0000;0.1481;-0.2947;
1236.3000;0.1473;-0.2947;
1236.6000;0.1490;-0.2803;
1236.9000;0.1465;-0.2851;
1237.2000;0.1481;-0.2851;
1237.5000;0.1473;-0.3043;
1237.8000;0.1547;-0.2851;
1238.1000;0.1514;-0.2971;
1238.4000;0.1465;-0.3091;
1238.7000;0.1473;-0.2995;
1239.0000;0.1416;-0.3235;
1239.3000;0.1522;-0.2923;
1239.6000;0.1481;-0.2995;
1239.9000;0.1538;-0.2851;
1240.2000;0.1473;-0.3043;
1240.5000;0.1425;-0.3187;
1240.8000;0.1449;-0.3067;
1241.1000;0.1498;-0.2899;
1241.4000;0.1457;-0.2947;
1241.7000;0.1465;-0.3019;
1242.0000;0.1506;-0.2947;
1242.3000;0.1473;-0.2995;
1242.6000;0.1473;-0.2899;
1242.9000;0.1473;-0.2899;
1243.2000;0.1473;-0.2947;
1243.5000;0.1481;-0.2995;
1243.8000;0.1490;-0.3019;
1244.1000;0.1457;-0.3115;
1244.4000;0.1587;-0.2827;
1244.7000;0.1481;-0.3091;
1245.0000;0.1490;-0.3067;
1245.3000;0.1481;-0.2995;
1245.6000;0.1441;-0.3043;
1245.9000;0.1457;-0.2995;
1246.2000;0.1506;-0.2875;
1246.5000;0.1481;-0.2803;
1246.8000;0.1392;-0.3091;
1247.1000;0.1490;-0.2875;
1247.4000;0.1441;-0.3043;
1247.7000;0.1498;-0.2995;
1248.0000;0.1416;-0.3211;
1248.3000;0.1498;-0.2947;
1248.6000;0.1481;-0.2995;
1248.9000;0.1441;-0.3163;
1249.2000;0.1473;-0.3163;
1249.5000;0.1465;-0.3235;
1249.8000;0.1514;-0.3115;
1250.1000;0.1490;-0.3163;
1250.4000;0.1449;-0.3235;
1250.7000;0.1465;-0.3139;
1251.0000;0.1490;-0.3139;
1251.3000;0.1498;-0.3043;
1251.6000;0.1473;-0.3091;
1251.9000;0.1465;-0.3139;
1252.2000;0.1481;-0.3139;
1252.5000;0.1481;-0.3115;
1252.8000;0.1449;-0.3139;
1253.1000;0.1473;-0.3043;
1253.4000;0.1490;-0.3019;
1253.7000;0.1473;-0.2995;
1254.0000;0.1481;-0.3019;
1254.3000;0.1498;-0.2995;
1254.6000;0.1449;-0.3091;
1254.9000;0.1498;-0.3043;
1255.2000;0.1473;-0.3067;
1255.5000;0.1481;-0.3019;
1255.8000;0.1457;-0.3091;
1256.1000;0.1530;-0.2971;
1256.4000;0.1368;-0.3450;
1256.7000;0.1506;-0.3019;
1257.0000;0.1514;-0.3019;
1257.3000;0.1392;-0.3378;
1257.6000;0.1465;-0.3091;
1257.9000;0.1457;-0.3043;
1258.2000;0.1498;-0.2971;
1258.5000;0.1425;-0.3091;
1258.8000;0.1465;-0.2923;
1259.1000;0.1490;-0.2803;
1259.4000;0.1433;-0.3019;
1259.7000;0.1481;-0.2923;
1260.0000;0.1481;-0.2875;
1260.3000;0.1481;-0.2827;
1260.6000;0.1473;-0.2899;
1260.9000;0.1498;-0.2731;
1261.2000;0.1490;-0.2851;
1261.5000;0.1465;-0.2923;
1261.8000;0.1465;-0.2899;
1262.1000;0.1538;-0.2684;
1262.4000;0.1473;-0.2875;
1262.7000;0.1490;-0.2851;
1263.0000;0.1400;-0.3091;
1263.3000;0.1490;-0.2827;
1263.6000;0.1490;-0.2803;
1263.9000;0.1563;-0.2540;
1264.2000;0.1457;-0.2827;
1264.5000;0.1465;-0.2755;
1264.8000;0.1481;-0.2779;
1265.1000;0.1457;-0.2923;
1265.4000;0.1449;-0.2971;
1265.7000;0.1473;-0.2923;
1266.0000;0.1473;-0.2947;
1266.3000;0.1530;-0.2875;
1266.6000;0.1473;-0.2995;
1266.9000;0.1490;-0.3019;
1267.2000;0.1473;-0.3091;
1267.5000;0.1473;-0.3043;
1267.8000;0.1490;-0.2971;
1268.1000;0.1473;-0.3043;
1268.4000;0.1498;-0.2995;
1268.7000;0.1473;-0.3043;
1269.0000;0.1457;-0.3091;
1269.3000;0.1465;-0.3067;
1269.6000;0.1465;-0.3019;
1269.9000;0.1481;-0.3067;
1270.2000;0.1473;-0.3043;
1270.5000;0.1465;-0.3019;
1270.8000;0.1473;-0.3019;
1271.1000;0.1465;-0.3019;
1271.4000;0.1490;-0.2899;
1271.7000;0.1457;-0.2947;
1272.0000;0.1490;-0.2875;
1272.3000;0.1473;-0.2875;
1272.6000;0.1473;-0.2923;
1272.9000;0.1579;-0.2636;
1273.2000;0.1481;-0.2923;
1273.5000;0.1514;-0.2851;
1273.8000;0.1473;-0.3019;
1274.1000;0.1498;-0.3067;
1274.4000;0.1481;-0.3043;
1274.7000;0.1481;-0.2971;
1275.0000;0.1481;-0.2995;
1275.3000;0.1473;-0.2995;
1275.6000;0.1465;-0.2995;
1275.9000;0.1457;-0.3043;
1276.2000;0.1473;-0.3019;
1276.5000;0.1473;-0.2995;
1276.8000;0.1392;-0.3187;
1277.1000;0.1465;-0.2923;
1277.4000;0.1457;-0.2995;
1277.7000;0.1481;-0.2971;
1278.0000;0.1481;-0.3019;
1278.3000;0.1473;-0.3019;
1278.6000;0.1498;-0.2923;
1278.9000;0.1449;-0.3067;
1279.2000;0.1473;-0.2995;
1279.5000;0.1473;-0.2923;
1279.8000;0.1481;-0.2875;
1280.1000;0.1481;-0.2875;
1280.4000;0.1465;-0.2875;
1280.7000;0.1465;-0.2851;
1281.0000;0.1498;-0.2755;
1281.3000;0.1457;-0.2899;
1281.6000;0.1368;-0.3139;
1281.9000;0.1465;-0.2947;
1282.2000;0.1481;-0.2923;
1282.5000;0.1465;-0.2971;
1282.8000;0.1449;-0.2995;
1283.1000;0.1465;-0.2899;
1283.4000;0.1498;-0.2827;
1283.7000;0.1368;-0.3043;
1284.0000;0.1481;-0.2707;
1284.3000;0.1465;-0.2779;
1284.6000;0.1490;-0.2755;
1284.9000;0.1449;-0.2875;
1285.2000;0.1481;-0.2803;
1285.5000;0.1449;-0.2827;
1285.8000;0.1481;-0.2827;
1286.1000;0.1473;-0.2851;
1286.4000;0.1522;-0.2660;
1286.7000;0.1457;-0.2827;
1287.0000;0.1408;-0.2947;
1287.3000;0.1473;-0.2875;
1287.6000;0.1473;-0.2875;
1287.9000;0.1530;-0.2803;
1288.2000;0.1473;-0.2995;
1288.5000;0.1481;-0.2971;
1288.8000;0.1571;-0.2684;
1289.1000;0.1490;-0.2923;
1289.4000;0.1506;-0.2875;
1289.7000;0.1473;-0.2851;
1290.0000;0.1490;-0.2875;
1290.3000;0.1498;-0.2827;
1290.6000;0.1465;-0.2923;
1290.9000;0.1506;-0.2899;
1291.2000;0.1473;-0.2995;
1291.5000;0.1449;-0.3139;
1291.8000;0.1490;-0.3019;
1292.1000;0.1506;-0.3091;
1292.4000;0.1465;-0.3163;
1292.7000;0.1473;-0.3043;
1293.0000;0.1465;-0.2971;
1293.3000;0.1465;-0.2923;
1293.6000;0.1498;-0.2803;
1293.9000;0.1481;-0.2731;
1294.2000;0.1449;-0.2803;
1294.5000;0.1416;-0.2995;
1294.8000;0.1457;-0.2875;
1295.1000;0.1457;-0.2947;
1295.4000;0.1481;-0.2899;
1295.7000;0.1449;-0.3019;
1296.0000;0.1433;-0.3019;
1296.3000;0.1473;-0.3019;
1296.6000;0.1441;-0.3187;
1296.9000;0.1465;-0.3115;
1297.2000;0.1481;-0.3139;
1297.5000;0.1481;-0.3115;
1297.8000;0.1473;-0.3139;
1298.1000;0.1465;-0.3187;
1298.4000;0.1530;-0.2971;
1298.7000;0.1465;-0.3139;
1299.0000;0.1481;-0.3019;
1299.3000;0.1481;-0.3043;
1299.6000;0.1457;-0.3091;
1299.9000;0.1481;-0.3043;
1300.2000;0.1433;-0.3115;
1300.5000;0.1587;-0.2731;
1300.8000;0.1465;-0.3091;
1301.1000;0.1481;-0.3115;
1301.4000;0.1490;-0.3067;
1301.7000;0.1490;-0.2995;
1302.0000;0.1481;-0.3019;
1302.3000;0.1465;-0.3067;
1302.6000;0.1490;-0.3019;
1302.9000;0.1457;-0.3019;
1303.2000;0.1425;-0.3043;
1303.5000;0.1522;-0.2875;
1303.8000;0.1481;-0.2923;
1304.1000;0.1433;-0.3139;
1304.4000;0.1465;-0.3043;
1304.7000;0.1473;-0.3091;
1305.0000;0.1457;-0.3115;
1305.3000;0.1498;-0.2995;
1305.6000;0.1473;-0.3019;
1305.9000;0.1465;-0.3091;
1306.2000;0.1547;-0.2899;
1306.5000;0.1481;-0.2947;
1306.8000;0.1490;-0.2923;
1307.1000;0.1465;-0.2947;
1307.4000;0.1473;-0.2875;
1307.7000;0.1449;-0.2947;
1308.0000;0.1490;-0.2755;
1308.3000;0.1465;-0.2755;
1308.6000;0.1481;-0.2731;
1308.9000;0.1376;-0.3019;
1309.2000;0.1498;-0.2731;
1309.5000;0.1465;-0.2851;
1309.8000;0.1481;-0.2707;
1310.1000;0.1473;-0.2803;
1310.4000;0.1498;-0.2803;
1310.7000;0.1530;-0.2731;
1311.0000;0.1473;-0.2875;
1311.3000;0.1465;-0.2947;
1311.6000;0.1498;-0.2827;
1311.9000;0.1490;-0.2779;
1312.2000;0.1449;-0.2851;
1312.5000;0.1457;-0.2827;
1312.8000;0.1465;-0.2827;
1313.1000;0.1327;-0.3259;
1313.4000;0.1457;-0.2899;
1313.7000;0.1473;-0.2971;
1314.0000;0.1473;-0.2923;
1314.3000;0.1506;-0.2851;
1314.6000;0.1514;-0.2827;
1314.9000;0.1498;-0.2803;
1315.2000;0.1481;-0.2851;
1315.5000;0.1376;-0.3115;
1315.8000;0.1514;-0.2731;
1316.1000;0.1490;-0.2779;
1316.4000;0.1465;-0.2899;
1316.7000;0.1457;-0.2995;
1317.0000;0.1481;-0.2899;
1317.3000;0.1490;-0.2803;
1317.6000;0.1473;-0.2851;
1317.9000;0.1368;-0.3067;
1318.2000;0.1481;-0.2827;
1318.5000;0.1457;-0.2851;
1318.8000;0.1465;-0.2779;
1319.1000;0.1473;-0.2827;
1319.4000;0.1457;-0.2779;
1319.7000;0.1481;-0.2707;
1320.0000;0.1465;-0.2803;
1320.3000;0.1481;-0.2851;
1320.6000;0.1498;-0.2779;
1320.9000;0.1473;-0.2947;
1321.2000;0.1490;-0.2899;
1321.5000;0.1473;-0.2971;
1321.8000;0.1433;-0.3043;
1322.1000;0.1457;-0.3019;
1322.4000;0.1498;-0.2899;
1322.7000;0.1490;-0.2899;
1323.0000;0.1457;-0.3019;
1323.3000;0.1473;-0.2995;
1323.6000;0.1473;-0.3115;
1323.9000;0.1490;-0.2995;
1324.2000;0.1522;-0.2899;
1324.5000;0.1465;-0.2851;
1324.8000;0.1449;-0.2899;
1325.1000;0.1465;-0.2851;
1325.4000;0.1473;-0.2779;
1325.7000;0.1514;-0.2684;
1326.0000;0.1481;-0.2707;
1326.3000;0.1408;-0.2875;
1326.6000;0.1408;-0.2875;
1326.9000;0.1481;-0.2827;
1327.2000;0.1384;-0.3067;
1327.5000;0.1538;-0.2660;
1327.8000;0.1457;-0.2851;
1328.1000;0.1408;-0.2971;
1328.4000;0.1457;-0.2803;
1328.7000;0.1498;-0.2755;
1329.0000;0.1457;-0.2827;
1329.3000;0.1416;-0.2947;
1329.6000;0.1514;-0.2779;
1329.9000;0.1473;-0.2875;
1330.2000;0.1587;-0.2540;
1330.5000;0.1425;-0.2899;
1330.8000;0.1449;-0.2803;
1331.1000;0.1481;-0.2660;
1331.4000;0.1498;-0.2660;
1331.7000;0.1473;-0.2827;
1332.0000;0.1465;-0.2827;
1332.3000;0.1481;-0.2755;
1332.6000;0.1506;-0.2731;
1332.9000;0.1587;-0.2444;
1333.2000;0.1473;-0.2636;
1333.5000;0.1490;-0.2707;
1333.8000;0.1449;-0.2803;
1334.1000;0.1490;-0.2779;
1334.4000;0.1481;-0.2707;
1334.7000;0.1441;-0.2827;
1335.0000;0.1473;-0.2755;
1335.3000;0.1498;-0.2707;
1335.6000;0.1449;-0.2779;
1335.9000;0.1481;-0.2779;
1336.2000;0.1481;-0.2803;
1336.5000;0.1465;-0.2923;
1336.8000;0.1465;-0.2971;
1337.1000;0.1498;-0.2971;
1337.4000;0.1481;-0.2899;
1337.7000;0.1538;-0.2707;
1338.0000;0.1498;-0.2755;
1338.3000;0.1433;-0.2971;
1338.6000;0.1481;-0.2899;
1338.9000;0.1498;-0.2947;
1339.2000;0.1490;-0.2875;
1339.5000;0.1465;-0.2827;
1339.8000;0.1530;-0.2636;
1340.1000;0.1481;-0.2827;
1340.4000;0.1490;-0.2851;
1340.7000;0.1433;-0.2971;
1341.0000;0.1473;-0.2827;
1341.3000;0.1473;-0.2875;
1341.6000;0.1473;-0.2923;
1341.9000;0.1425;-0.3019;
1342.2000;0.1481;-0.2971;
1342.5000;0.1473;-0.2923;
1342.8000;0.1473;-0.2875;
1343.1000;0.1465;-0.2899;
1343.4000;0.1473;-0.2851;
1343.7000;0.1473;-0.2827;
1344.0000;0.1514;-0.2731;
1344.3000;0.1522;-0.2684;
1344.6000;0.1465;-0.2899;
1344.9000;0.1481;-0.2947;
1345.2000;0.1481;-0.2947;
1345.5000;0.1490;-0.2923;
1345.8000;0.1473;-0.3043;
1346.1000;0.1490;-0.3043;
1346.4000;0.1481;-0.3091;
1346.7000;0.1473;-0.3067;
1347.0000;0.1465;-0.3043;
1347.3000;0.1465;-0.2971;
1347.6000;0.1473;-0.2923;
1347.9000;0.1473;-0.2995;
1348.2000;0.1514;-0.2827;
1348.5000;0.1530;-0.2827;
1348.8000;0.1441;-0.2923;
1349.1000;0.1481;-0.2827;
1349.4000;0.1473;-0.2827;
1349.7000;0.1465;-0.2851;
1350.0000;0.1457;-0.2827;
1350.3000;0.1416;-0.3019;
1350.6000;0.1433;-0.3067;
1350.9000;0.1465;-0.2923;
1351.2000;0.1473;-0.2971;
1351.5000;0.1481;-0.2851;
1351.8000;0.1441;-0.2995;
1352.1000;0.1473;-0.2803;
1352.4000;0.1473;-0.2851;
1352.7000;0.1506;-0.2803;
1353.0000;0.1490;-0.2923;
1353.3000;0.1490;-0.2923;
1353.6000;0.1465;-0.2923;
1353.9000;0.1473;-0.2899;
1354.2000;0.1473;-0.2851;
1354.5000;0.1473;-0.2827;
1354.8000;0.1465;-0.2851;
1355.1000;0.1433;-0.2971;
1355.4000;0.1465;-0.2899;
1355.7000;0.1530;-0.2707;
1356.0000;0.1481;-0.2827;
1356.3000;0.1465;-0.2875;
1356.6000;0.1473;-0.2851;
1356.9000;0.1416;-0.3091;
1357.2000;0.1457;-0.2875;
1357.5000;0.1473;-0.2851;
1357.8000;0.1490;-0.2779;
1358.1000;0.1538;-0.2684;
1358.4000;0.1506;-0.2755;
1358.7000;0.1498;-0.2851;
1359.0000;0.1481;-0.2827;
1359.3000;0.1457;-0.2875;
1359.6000;0.1457;-0.2923;
1359.9000;0.1457;-0.2947;
1360.2000;0.1481;-0.2803;
1360.5000;0.1465;-0.2731;
1360.8000;0.1481;-0.2731;
1361.1000;0.1465;-0.2779;
1361.4000;0.1481;-0.2755;
1361.7000;0.1392;-0.2971;
1362.0000;0.1473;-0.2779;
1362.3000;0.1457;-0.2827;
1362.6000;0.1481;-0.2684;
1362.9000;0.1522;-0.2540;
1363.2000;0.1481;-0.2684;
1363.5000;0.1425;-0.2803;
1363.8000;0.1481;-0.2612;
1364.1000;0.1481;-0.2755;
1364.4000;0.1506;-0.2707;
1364.7000;0.1490;-0.2803;
1365.0000;0.1490;-0.2731;
1365.3000;0.1490;-0.2779;
1365.6000;0.1481;-0.2851;
1365.9000;0.1441;-0.2923;
1366.2000;0.1490;-0.2779;
1366.5000;0.1481;-0.2827;
1366.8000;0.1481;-0.2923;
1367.1000;0.1490;-0.2947;
1367.4000;0.1490;-0.2947;
1367.7000;0.1481;-0.2971;
1368.0000;0.1473;-0.2971;
1368.3000;0.1465;-0.3019;
1368.6000;0.1481;-0.2995;
1368.9000;0.1465;-0.3043;
1369.2000;0.1473;-0.2995;
1369.5000;0.1490;-0.2875;
1369.8000;0.1490;-0.2875;
1370.1000;0.1514;-0.2779;
1370.4000;0.1490;-0.2875;
1370.7000;0.1481;-0.2899;
1371.0000;0.1498;-0.2827;
1371.3000;0.1376;-0.3139;
1371.6000;0.1481;-0.2851;
1371.9000;0.1481;-0.2923;
1372.2000;0.1481;-0.2995;
1372.5000;0.1416;-0.3235;
1372.8000;0.1481;-0.3043;
1373.1000;0.1465;-0.3043;
1373.4000;0.1506;-0.2947;
1373.7000;0.1473;-0.2947;
1374.0000;0.1490;-0.2971;
1374.3000;0.1481;-0.2995;
1374.6000;0.1522;-0.2875;
1374.9000;0.1481;-0.2923;
1375.2000;0.1481;-0.2923;
1375.5000;0.1490;-0.2923;
1375.8000;0.1473;-0.2923;
1376.1000;0.1490;-0.2875;
1376.4000;0.1506;-0.2731;
1376.7000;0.1498;-0.2827;
1377.0000;0.1481;-0.2947;
1377.3000;0.1457;-0.2971;
1377.6000;0.1327;-0.3283;
1377.9000;0.1490;-0.2755;
1378.2000;0.1465;-0.2851;
1378.5000;0.1465;-0.2851;
1378.8000;0.1498;-0.2731;
1379.1000;0.1473;-0.2755;
1379.4000;0.1490;-0.2803;
1379.7000;0.1481;-0.2875;
1380.0000;0.1433;-0.2923;
1380.3000;0.1473;-0.2827;
1380.6000;0.1481;-0.2803;
1380.9000;0.1465;-0.2827;
1381.2000;0.1465;-0.2899;
1381.5000;0.1481;-0.2875;
1381.8000;0.1498;-0.2827;
1382.1000;0.1449;-0.2995;
1382.4000;0.1490;-0.2899;
1382.7000;0.1481;-0.2899;
1383.0000;0.1481;-0.2875;
1383.3000;0.1465;-0.2827;
1383.6000;0.1465;-0.2851;
1383.9000;0.1457;-0.2851;
1384.2000;0.1457;-0.2899;
1384.5000;0.1465;-0.2875;
1384.8000;0.1465;-0.2851;
1385.1000;0.1425;-0.2923;
1385.4000;0.1473;-0.2779;
1385.7000;0.1473;-0.2731;
1386.0000;0.1433;-0.2827;
1386.3000;0.1473;-0.2707;
1386.6000;0.1498;-0.2779;
1386.9000;0.1473;-0.2851;
1387.2000;0.1481;-0.2899;
1387.5000;0.1465;-0.2971;
1387.8000;0.1473;-0.2923;
1388.1000;0.1465;-0.2875;
1388.4000;0.1465;-0.2851;
1388.7000;0.1465;-0.2827;
1389.0000;0.1490;-0.2731;
1389.3000;0.1538;-0.2707;
1389.6000;0.1465;-0.2875;
1389.9000;0.1465;-0.2923;
1390.2000;0.1481;-0.2971;
1390.5000;0.1465;-0.3091;
1390.8000;0.1481;-0.2971;
1391.1000;0.1498;-0.2923;
1391.4000;0.1498;-0.2923;
1391.7000;0.1490;-0.2995;
1392.0000;0.1498;-0.2923;
1392.3000;0.1490;-0.2971;
1392.6000;0.1547;-0.2731;
1392.9000;0.1490;-0.2827;
1393.2000;0.1481;-0.2899;
1393.5000;0.1481;-0.2875;
1393.8000;0.1465;-0.2899;
1394.1000;0.1498;-0.2755;
1394.4000;0.1481;-0.2803;
1394.7000;0.1473;-0.2803;
1395.0000;0.1457;-0.2851;
1395.3000;0.1473;-0.2875;
1395.6000;0.1481;-0.2803;
1395.9000;0.1465;-0.2851;
1396.2000;0.1481;-0.2779;
1396.5000;0.1481;-0.2755;
1396.8000;0.1490;-0.2684;
1397.1000;0.1473;-0.2564;
1397.4000;0.1473;-0.2588;
1397.7000;0.1473;-0.2588;
1398.0000;0.1481;-0.2564;
1398.3000;0.1481;-0.2588;
1398.6000;0.1465;-0.2564;
1398.9000;0.1465;-0.2588;
1399.2000;0.1490;-0.2612;
1399.5000;0.1481;-0.2684;
1399.8000;0.1473;-0.2660;
