time/ms;Fluo/V;P700 deltaI/I x10³;
-199.8000;0.1506;-0.2923;
-199.5000;0.1441;-0.2971;
-199.2000;0.1522;-0.2803;
-198.9000;0.1522;-0.2684;
-198.6000;0.1506;-0.2779;
-198.3000;0.1506;-0.2899;
-198.0000;0.1547;-0.2827;
-197.7000;0.1571;-0.2755;
-197.4000;0.1457;-0.3043;
-197.1000;0.1514;-0.2899;
-196.8000;0.1547;-0.2731;
-196.5000;0.1563;-0.2660;
-196.2000;0.1530;-0.2707;
-195.9000;0.1498;-0.2755;
-195.6000;0.1555;-0.2684;
-195.3000;0.1498;-0.2803;
-195.0000;0.1506;-0.2803;
-194.7000;0.1522;-0.2851;
-194.4000;0.1530;-0.2827;
-194.1000;0.1595;-0.2660;
-193.8000;0.1530;-0.2827;
-193.5000;0.1563;-0.2755;
-193.2000;0.1441;-0.3067;
-192.9000;0.1547;-0.2779;
-192.6000;0.1506;-0.2923;
-192.3000;0.1522;-0.2875;
-192.0000;0.1514;-0.2827;
-191.7000;0.1514;-0.2875;
-191.4000;0.1506;-0.2851;
-191.1000;0.1522;-0.2923;
-190.8000;0.1400;-0.3306;
-190.5000;0.1530;-0.2923;
-190.2000;0.1530;-0.2923;
-189.9000;0.1392;-0.3330;
-189.6000;0.1522;-0.2995;
-189.3000;0.1514;-0.2995;
-189.0000;0.1449;-0.3163;
-188.7000;0.1514;-0.2947;
-188.4000;0.1530;-0.2827;
-188.1000;0.1530;-0.2827;
-187.8000;0.1522;-0.2875;
-187.5000;0.1514;-0.2875;
-187.2000;0.1530;-0.2803;
-186.9000;0.1457;-0.3115;
-186.6000;0.1530;-0.2899;
-186.3000;0.1506;-0.3043;
-186.0000;0.1473;-0.3067;
-185.7000;0.1530;-0.2947;
-185.4000;0.1506;-0.3043;
-185.1000;0.1473;-0.2995;
-184.8000;0.1506;-0.2923;
-184.5000;0.1498;-0.2899;
-184.2000;0.1514;-0.2899;
-183.9000;0.1514;-0.3019;
-183.6000;0.1514;-0.2971;
-183.3000;0.1522;-0.2971;
-183.0000;0.1538;-0.2875;
-182.7000;0.1538;-0.2947;
-182.4000;0.1514;-0.2875;
-182.1000;0.1498;-0.2971;
-181.8000;0.1457;-0.3139;
-181.5000;0.1522;-0.2947;
-181.2000;0.1514;-0.2899;
-180.9000;0.1522;-0.2947;
-180.6000;0.1514;-0.2923;
-180.3000;0.1547;-0.2803;
-180.0000;0.1481;-0.2923;
-179.7000;0.1498;-0.2923;
-179.4000;0.1465;-0.3043;
-179.1000;0.1595;-0.2731;
-178.8000;0.1555;-0.2899;
-178.5000;0.1522;-0.2971;
-178.2000;0.1563;-0.2827;
-177.9000;0.1514;-0.2923;
-177.6000;0.1506;-0.3019;
-177.3000;0.1506;-0.2995;
-177.0000;0.1530;-0.2923;
-176.7000;0.1514;-0.2851;
-176.4000;0.1465;-0.2995;
-176.1000;0.1522;-0.2875;
-175.8000;0.1514;-0.2875;
-175.5000;0.1506;-0.2971;
-175.2000;0.1522;-0.2947;
-174.9000;0.1522;-0.2995;
-174.6000;0.1490;-0.3043;
-174.3000;0.1465;-0.3139;
-174.0000;0.1530;-0.2851;
-173.7000;0.1514;-0.2875;
-173.4000;0.1498;-0.2971;
-173.1000;0.1490;-0.2923;
-172.8000;0.1498;-0.2947;
-172.5000;0.1530;-0.2947;
-172.2000;0.1449;-0.3187;
-171.9000;0.1530;-0.2947;
-171.6000;0.1514;-0.3019;
-171.3000;0.1522;-0.3043;
-171.0000;0.1498;-0.3139;
-170.7000;0.1506;-0.3139;
-170.4000;0.1530;-0.3091;
-170.1000;0.1506;-0.3019;
-169.8000;0.1490;-0.3019;
-169.5000;0.1514;-0.2971;
-169.2000;0.1514;-0.2947;
-168.9000;0.1547;-0.2899;
-168.6000;0.1498;-0.3067;
-168.3000;0.1481;-0.3043;
-168.0000;0.1514;-0.3043;
-167.7000;0.1514;-0.3043;
-167.4000;0.1530;-0.2971;
-167.1000;0.1514;-0.3043;
-166.8000;0.1498;-0.3067;
-166.5000;0.1530;-0.2923;
-166.2000;0.1538;-0.2947;
-165.9000;0.1571;-0.2827;
-165.6000;0.1498;-0.2971;
-165.3000;0.1498;-0.2995;
-165.0000;0.1555;-0.2851;
-164.7000;0.1530;-0.2899;
-164.4000;0.1506;-0.2947;
-164.1000;0.1473;-0.3019;
-163.8000;0.1490;-0.2851;
-163.5000;0.1473;-0.2803;
-163.2000;0.1506;-0.2779;
-162.9000;0.1498;-0.2827;
-162.6000;0.1530;-0.2731;
-162.3000;0.1490;-0.2851;
-162.0000;0.1530;-0.2731;
-161.7000;0.1522;-0.2731;
-161.4000;0.1522;-0.2827;
-161.1000;0.1538;-0.2779;
-160.8000;0.1530;-0.2827;
-160.5000;0.1522;-0.2899;
-160.2000;0.1498;-0.2899;
-159.9000;0.1538;-0.2923;
-159.6000;0.1425;-0.3283;
-159.3000;0.1498;-0.3043;
-159.0000;0.1457;-0.3211;
-158.7000;0.1498;-0.3163;
-158.4000;0.1400;-0.3283;
-158.1000;0.1449;-0.3163;
-157.8000;0.1522;-0.3115;
-157.5000;0.1473;-0.3163;
-157.2000;0.1506;-0.3019;
-156.9000;0.1506;-0.2995;
-156.6000;0.1368;-0.3259;
-156.3000;0.1547;-0.2827;
-156.0000;0.1522;-0.2899;
-155.7000;0.1555;-0.2875;
-155.4000;0.1587;-0.2755;
-155.1000;0.1514;-0.2899;
-154.8000;0.1530;-0.2875;
-154.5000;0.1506;-0.2971;
-154.2000;0.1522;-0.2995;
-153.9000;0.1498;-0.2971;
-153.6000;0.1514;-0.3043;
-153.3000;0.1506;-0.2971;
-153.0000;0.1522;-0.2899;
-152.7000;0.1506;-0.2923;
-152.4000;0.1490;-0.2971;
-152.1000;0.1538;-0.2851;
-151.8000;0.1473;-0.3019;
-151.5000;0.1514;-0.2851;
-151.2000;0.1530;-0.2779;
-150.9000;0.1490;-0.2851;
-150.6000;0.1538;-0.2755;
-150.3000;0.1481;-0.2803;
-150.0000;0.1481;-0.2684;
-149.7000;0.1481;-0.2707;
-149.4000;0.1522;-0.2660;
-149.1000;0.1522;-0.2755;
-148.8000;0.1498;-0.2875;
-148.5000;0.1522;-0.2851;
-148.2000;0.1547;-0.2875;
-147.9000;0.1522;-0.2947;
-147.6000;0.1522;-0.3043;
-147.3000;0.1514;-0.3091;
-147.0000;0.1506;-0.3115;
-146.7000;0.1522;-0.3091;
-146.4000;0.1514;-0.3115;
-146.1000;0.1514;-0.3139;
-145.8000;0.1498;-0.2995;
-145.5000;0.1530;-0.2851;
-145.2000;0.1522;-0.2779;
-144.9000;0.1514;-0.2851;
-144.6000;0.1506;-0.2875;
-144.3000;0.1530;-0.2707;
-144.0000;0.1506;-0.2779;
-143.7000;0.1490;-0.2803;
-143.4000;0.1506;-0.2684;
-143.1000;0.1498;-0.2684;
-142.8000;0.1514;-0.2636;
-142.5000;0.1498;-0.2684;
-142.2000;0.1506;-0.2707;
-141.9000;0.1506;-0.2779;
-141.6000;0.1538;-0.2803;
-141.3000;0.1514;-0.2851;
-141.0000;0.1522;-0.2803;
-140.7000;0.1498;-0.2803;
-140.4000;0.1547;-0.2684;
-140.1000;0.1522;-0.2755;
-139.8000;0.1490;-0.2803;
-139.5000;0.1506;-0.2827;
-139.2000;0.1506;-0.2827;
-138.9000;0.1530;-0.2731;
-138.6000;0.1522;-0.2803;
-138.3000;0.1522;-0.2755;
-138.0000;0.1490;-0.2947;
-137.7000;0.1547;-0.2827;
-137.4000;0.1498;-0.3019;
-137.1000;0.1522;-0.3043;
-136.8000;0.1498;-0.3019;
-136.5000;0.1400;-0.3330;
-136.2000;0.1498;-0.3187;
-135.9000;0.1587;-0.2947;
-135.6000;0.1538;-0.2995;
-135.3000;0.1538;-0.2947;
-135.0000;0.1514;-0.2971;
-134.7000;0.1449;-0.2947;
-134.4000;0.1514;-0.2731;
-134.1000;0.1522;-0.2875;
-133.8000;0.1514;-0.2899;
-133.5000;0.1530;-0.2827;
-133.2000;0.1522;-0.2827;
-132.9000;0.1579;-0.2731;
-132.6000;0.1530;-0.2827;
-132.3000;0.1530;-0.2899;
-132.0000;0.1530;-0.2899;
-131.7000;0.1555;-0.2827;
-131.4000;0.1473;-0.3043;
-131.1000;0.1514;-0.2899;
-130.8000;0.1441;-0.3163;
-130.5000;0.1538;-0.2971;
-130.2000;0.1400;-0.3259;
-129.9000;0.1538;-0.3091;
-129.6000;0.1522;-0.3115;
-129.3000;0.1514;-0.3043;
-129.0000;0.1547;-0.2947;
-128.7000;0.1522;-0.3067;
-128.4000;0.1522;-0.3067;
-128.1000;0.1522;-0.3019;
-127.8000;0.1530;-0.2971;
-127.5000;0.1530;-0.2947;
-127.2000;0.1514;-0.2923;
-126.9000;0.1514;-0.2923;
-126.6000;0.1441;-0.3043;
-126.3000;0.1514;-0.2899;
-126.0000;0.1514;-0.2851;
-125.7000;0.1514;-0.2875;
-125.4000;0.1506;-0.2827;
-125.1000;0.1514;-0.2803;
-124.8000;0.1498;-0.2755;
-124.5000;0.1481;-0.2803;
-124.2000;0.1498;-0.2803;
-123.9000;0.1555;-0.2707;
-123.6000;0.1530;-0.2779;
-123.3000;0.1522;-0.2851;
-123.0000;0.1530;-0.2851;
-122.7000;0.1514;-0.2923;
-122.4000;0.1522;-0.2899;
-122.1000;0.1514;-0.2827;
-121.8000;0.1490;-0.2875;
-121.5000;0.1514;-0.2803;
-121.2000;0.1530;-0.2755;
-120.9000;0.1506;-0.2827;
-120.6000;0.1481;-0.2851;
-120.3000;0.1498;-0.2875;
-120.0000;0.1498;-0.2899;
-119.7000;0.1506;-0.2923;
-119.4000;0.1506;-0.2875;
-119.1000;0.1522;-0.2923;
-118.8000;0.1506;-0.2947;
-118.5000;0.1506;-0.3019;
-118.2000;0.1514;-0.2971;
-117.9000;0.1547;-0.2923;
-117.6000;0.1571;-0.2851;
-117.3000;0.1514;-0.2995;
-117.0000;0.1506;-0.3067;
-116.7000;0.1530;-0.3067;
-116.4000;0.1498;-0.3091;
-116.1000;0.1498;-0.3067;
-115.8000;0.1530;-0.2923;
-115.5000;0.1530;-0.2899;
-115.2000;0.1490;-0.2923;
-114.9000;0.1514;-0.2779;
-114.6000;0.1538;-0.2636;
-114.3000;0.1514;-0.2684;
-114.0000;0.1514;-0.2660;
-113.7000;0.1498;-0.2755;
-113.4000;0.1555;-0.2684;
-113.1000;0.1555;-0.2779;
-112.8000;0.1514;-0.2875;
-112.5000;0.1522;-0.2875;
-112.2000;0.1571;-0.2684;
-111.9000;0.1449;-0.2971;
-111.6000;0.1490;-0.2827;
-111.3000;0.1547;-0.2731;
-111.0000;0.1522;-0.2707;
-110.7000;0.1498;-0.2707;
-110.4000;0.1522;-0.2684;
-110.1000;0.1514;-0.2636;
-109.8000;0.1514;-0.2612;
-109.5000;0.1595;-0.2372;
-109.2000;0.1498;-0.2636;
-108.9000;0.1514;-0.2636;
-108.6000;0.1433;-0.2851;
-108.3000;0.1587;-0.2492;
-108.0000;0.1506;-0.2851;
-107.7000;0.1514;-0.2875;
-107.4000;0.1498;-0.2899;
-107.1000;0.1522;-0.2803;
-106.8000;0.1555;-0.2660;
-106.5000;0.1473;-0.2827;
-106.2000;0.1506;-0.2731;
-105.9000;0.1506;-0.2827;
-105.6000;0.1449;-0.2995;
-105.3000;0.1514;-0.2755;
-105.0000;0.1506;-0.2731;
-104.7000;0.1498;-0.2707;
-104.4000;0.1490;-0.2755;
-104.1000;0.1490;-0.2755;
-103.8000;0.1547;-0.2636;
-103.5000;0.1498;-0.2779;
-103.2000;0.1514;-0.2684;
-102.9000;0.1506;-0.2755;
-102.6000;0.1514;-0.2707;
-102.3000;0.1490;-0.2731;
-102.0000;0.1514;-0.2684;
-101.7000;0.1514;-0.2731;
-101.4000;0.1498;-0.2803;
-101.1000;0.1514;-0.2803;
-100.8000;0.1506;-0.2899;
-100.5000;0.1498;-0.2947;
-100.2000;0.1522;-0.2923;
-99.9000;0.1506;-0.2995;
-99.6000;0.1547;-0.2875;
-99.3000;0.1522;-0.2995;
-99.0000;0.1514;-0.3019;
-98.7000;0.1490;-0.3067;
-98.4000;0.1506;-0.3043;
-98.1000;0.1612;-0.2707;
-97.8000;0.1522;-0.2923;
-97.5000;0.1514;-0.2971;
-97.2000;0.1498;-0.2971;
-96.9000;0.1530;-0.2899;
-96.6000;0.1498;-0.2923;
-96.3000;0.1538;-0.2875;
-96.0000;0.1506;-0.2875;
-95.7000;0.1490;-0.2947;
-95.4000;0.1490;-0.3067;
-95.1000;0.1555;-0.2899;
-94.8000;0.1473;-0.3115;
-94.5000;0.1506;-0.2995;
-94.2000;0.1514;-0.3043;
-93.9000;0.1522;-0.3043;
-93.6000;0.1522;-0.3019;
-93.3000;0.1506;-0.3019;
-93.0000;0.1498;-0.2947;
-92.7000;0.1506;-0.2851;
-92.4000;0.1522;-0.2779;
-92.1000;0.1506;-0.2851;
-91.8000;0.1522;-0.2899;
-91.5000;0.1506;-0.2923;
-91.2000;0.1522;-0.2875;
-90.9000;0.1498;-0.2875;
-90.6000;0.1473;-0.2995;
-90.3000;0.1530;-0.2971;
-90.0000;0.1514;-0.2971;
-89.7000;0.1522;-0.2923;
-89.4000;0.1506;-0.2971;
-89.1000;0.1514;-0.2971;
-88.8000;0.1514;-0.3019;
-88.5000;0.1514;-0.3043;
-88.2000;0.1506;-0.3067;
-87.9000;0.1465;-0.3283;
-87.6000;0.1506;-0.3187;
-87.3000;0.1522;-0.3283;
-87.0000;0.1506;-0.3306;
-86.7000;0.1514;-0.3235;
-86.4000;0.1538;-0.3163;
-86.1000;0.1514;-0.3187;
-85.8000;0.1522;-0.3091;
-85.5000;0.1604;-0.2755;
-85.2000;0.1490;-0.3067;
-84.9000;0.1538;-0.2875;
-84.6000;0.1457;-0.3115;
-84.3000;0.1612;-0.2684;
-84.0000;0.1506;-0.2899;
-83.7000;0.1498;-0.2947;
-83.4000;0.1490;-0.2971;
-83.1000;0.1514;-0.2947;
-82.8000;0.1433;-0.3211;
-82.5000;0.1530;-0.2947;
-82.2000;0.1604;-0.2588;
-81.9000;0.1514;-0.2731;
-81.6000;0.1449;-0.2875;
-81.3000;0.1514;-0.2707;
-81.0000;0.1514;-0.2684;
-80.7000;0.1498;-0.2684;
-80.4000;0.1514;-0.2684;
-80.1000;0.1530;-0.2707;
-79.8000;0.1571;-0.2492;
-79.5000;0.1506;-0.2707;
-79.2000;0.1498;-0.2731;
-78.9000;0.1506;-0.2755;
-78.6000;0.1514;-0.2779;
-78.3000;0.1514;-0.2755;
-78.0000;0.1473;-0.2827;
-77.7000;0.1449;-0.3019;
-77.4000;0.1530;-0.2827;
-77.1000;0.1506;-0.2827;
-76.8000;0.1506;-0.2875;
-76.5000;0.1522;-0.2803;
-76.2000;0.1571;-0.2731;
-75.9000;0.1522;-0.2875;
-75.6000;0.1530;-0.2851;
-75.3000;0.1506;-0.2923;
-75.0000;0.1538;-0.2875;
-74.7000;0.1522;-0.3019;
-74.4000;0.1522;-0.2971;
-74.1000;0.1506;-0.2923;
-73.8000;0.1433;-0.3115;
-73.5000;0.1498;-0.2971;
-73.2000;0.1514;-0.2971;
-72.9000;0.1506;-0.2971;
-72.6000;0.1506;-0.2995;
-72.3000;0.1408;-0.3259;
-72.0000;0.1620;-0.2827;
-71.7000;0.1473;-0.3067;
-71.4000;0.1506;-0.3043;
-71.1000;0.1465;-0.3091;
-70.8000;0.1514;-0.2995;
-70.5000;0.1530;-0.2995;
-70.2000;0.1490;-0.3019;
-69.9000;0.1514;-0.2899;
-69.6000;0.1522;-0.2827;
-69.3000;0.1514;-0.2684;
-69.0000;0.1514;-0.2731;
-68.7000;0.1473;-0.2827;
-68.4000;0.1530;-0.2731;
-68.1000;0.1490;-0.2779;
-67.8000;0.1530;-0.2684;
-67.5000;0.1522;-0.2803;
-67.2000;0.1514;-0.2947;
-66.9000;0.1514;-0.2827;
-66.6000;0.1514;-0.2899;
-66.3000;0.1530;-0.2899;
-66.0000;0.1522;-0.2923;
-65.7000;0.1587;-0.2731;
-65.4000;0.1506;-0.2971;
-65.1000;0.1473;-0.3043;
-64.8000;0.1498;-0.2995;
-64.5000;0.1530;-0.2851;
-64.2000;0.1465;-0.3067;
-63.9000;0.1538;-0.2827;
-63.6000;0.1506;-0.2875;
-63.3000;0.1628;-0.2492;
-63.0000;0.1612;-0.2564;
-62.7000;0.1481;-0.2923;
-62.4000;0.1506;-0.2827;
-62.1000;0.1514;-0.2827;
-61.8000;0.1481;-0.2827;
-61.5000;0.1522;-0.2731;
-61.2000;0.1498;-0.2827;
-60.9000;0.1538;-0.2731;
-60.6000;0.1506;-0.2779;
-60.3000;0.1498;-0.2803;
-60.0000;0.1506;-0.2923;
-59.7000;0.1547;-0.2851;
-59.4000;0.1522;-0.2851;
-59.1000;0.1498;-0.2851;
-58.8000;0.1384;-0.3091;
-58.5000;0.1530;-0.2755;
-58.2000;0.1579;-0.2636;
-57.9000;0.1522;-0.2779;
-57.6000;0.1547;-0.2684;
-57.3000;0.1498;-0.2875;
-57.0000;0.1571;-0.2684;
-56.7000;0.1514;-0.2899;
-56.4000;0.1530;-0.2851;
-56.1000;0.1506;-0.2875;
-55.8000;0.1481;-0.2899;
-55.5000;0.1522;-0.2803;
-55.2000;0.1498;-0.2851;
-54.9000;0.1522;-0.2779;
-54.6000;0.1498;-0.2899;
-54.3000;0.1522;-0.2923;
-54.0000;0.1530;-0.2947;
-53.7000;0.1522;-0.2971;
-53.4000;0.1530;-0.2971;
-53.1000;0.1522;-0.2947;
-52.8000;0.1538;-0.2995;
-52.5000;0.1481;-0.3067;
-52.2000;0.1522;-0.2995;
-51.9000;0.1530;-0.2899;
-51.6000;0.1506;-0.3043;
-51.3000;0.1498;-0.3019;
-51.0000;0.1563;-0.2875;
-50.7000;0.1481;-0.2971;
-50.4000;0.1514;-0.2923;
-50.1000;0.1473;-0.2995;
-49.8000;0.1490;-0.2851;
-49.5000;0.1457;-0.2971;
-49.2000;0.1612;-0.2588;
-48.9000;0.1506;-0.2875;
-48.6000;0.1530;-0.2803;
-48.3000;0.1530;-0.2827;
-48.0000;0.1514;-0.2875;
-47.7000;0.1547;-0.2779;
-47.4000;0.1498;-0.2803;
-47.1000;0.1506;-0.2707;
-46.8000;0.1490;-0.2731;
-46.5000;0.1498;-0.2755;
-46.2000;0.1498;-0.2827;
-45.9000;0.1506;-0.2851;
-45.6000;0.1481;-0.2899;
-45.3000;0.1498;-0.2755;
-45.0000;0.1522;-0.2851;
-44.7000;0.1506;-0.2899;
-44.4000;0.1514;-0.2899;
-44.1000;0.1514;-0.2851;
-43.8000;0.1498;-0.2899;
-43.5000;0.1481;-0.2995;
-43.2000;0.1530;-0.2947;
-42.9000;0.1522;-0.2899;
-42.6000;0.1538;-0.2851;
-42.3000;0.1563;-0.2827;
-42.0000;0.1506;-0.2971;
-41.7000;0.1538;-0.2851;
-41.4000;0.1506;-0.3019;
-41.1000;0.1555;-0.2923;
-40.8000;0.1498;-0.3019;
-40.5000;0.1612;-0.2731;
-40.2000;0.1547;-0.2923;
-39.9000;0.1522;-0.2947;
-39.6000;0.1384;-0.3187;
-39.3000;0.1433;-0.3067;
-39.0000;0.1514;-0.2875;
-38.7000;0.1490;-0.2899;
-38.4000;0.1587;-0.2588;
-38.1000;0.1538;-0.2636;
-37.8000;0.1555;-0.2636;
-37.5000;0.1652;-0.2444;
-37.2000;0.1506;-0.2899;
-36.9000;0.1481;-0.2947;
-36.6000;0.1514;-0.2875;
-36.3000;0.1530;-0.2923;
-36.0000;0.1514;-0.2995;
-35.7000;0.1547;-0.2971;
-35.4000;0.1514;-0.3019;
-35.1000;0.1490;-0.3019;
-34.8000;0.1481;-0.3043;
-34.5000;0.1498;-0.2995;
-34.2000;0.1490;-0.3019;
-33.9000;0.1498;-0.2971;
-33.6000;0.1481;-0.3043;
-33.3000;0.1547;-0.2851;
-33.0000;0.1514;-0.2995;
-32.7000;0.1547;-0.2803;
-32.4000;0.1514;-0.2947;
-32.1000;0.1498;-0.3019;
-31.8000;0.1506;-0.2923;
-31.5000;0.1514;-0.2875;
-31.2000;0.1530;-0.2875;
-30.9000;0.1506;-0.2923;
-30.6000;0.1538;-0.2827;
-30.3000;0.1498;-0.2827;
-30.0000;0.1433;-0.3067;
-29.7000;0.1481;-0.2923;
-29.4000;0.1490;-0.2851;
-29.1000;0.1530;-0.2684;
-28.8000;0.1473;-0.2755;
-28.5000;0.1506;-0.2588;
-28.2000;0.1522;-0.2516;
-27.9000;0.1522;-0.2588;
-27.6000;0.1465;-0.2707;
-27.3000;0.1522;-0.2564;
-27.0000;0.1514;-0.2588;
-26.7000;0.1514;-0.2588;
-26.4000;0.1530;-0.2636;
-26.1000;0.1530;-0.2731;
-25.8000;0.1522;-0.2755;
-25.5000;0.1490;-0.2827;
-25.2000;0.1490;-0.2827;
-24.9000;0.1547;-0.2779;
-24.6000;0.1506;-0.2923;
-24.3000;0.1530;-0.2827;
-24.0000;0.1530;-0.2803;
-23.7000;0.1522;-0.2899;
-23.4000;0.1538;-0.2827;
-23.1000;0.1514;-0.3019;
-22.8000;0.1538;-0.2899;
-22.5000;0.1498;-0.2947;
-22.2000;0.1522;-0.2947;
-21.9000;0.1498;-0.3019;
-21.6000;0.1490;-0.3067;
-21.3000;0.1514;-0.2947;
-21.0000;0.1547;-0.2875;
-20.7000;0.1514;-0.2995;
-20.4000;0.1530;-0.3019;
-20.1000;0.1506;-0.3043;
-19.8000;0.1506;-0.3067;
-19.5000;0.1538;-0.2971;
-19.2000;0.1481;-0.3091;
-18.9000;0.1506;-0.2947;
-18.6000;0.1555;-0.2875;
-18.3000;0.1506;-0.3067;
-18.0000;0.1506;-0.3115;
-17.7000;0.1514;-0.3019;
-17.4000;0.1457;-0.3187;
-17.1000;0.1498;-0.2947;
-16.8000;0.1490;-0.2971;
-16.5000;0.1457;-0.3187;
-16.2000;0.1506;-0.3067;
-15.9000;0.1506;-0.3067;
-15.6000;0.1368;-0.3402;
-15.3000;0.1522;-0.3067;
-15.0000;0.1530;-0.3019;
-14.7000;0.1555;-0.2923;
-14.4000;0.1522;-0.3019;
-14.1000;0.1514;-0.2995;
-13.8000;0.1473;-0.3115;
-13.5000;0.1514;-0.3019;
-13.2000;0.1522;-0.2971;
-12.9000;0.1530;-0.3091;
-12.6000;0.1457;-0.3235;
-12.3000;0.1571;-0.3067;
-12.0000;0.1498;-0.3306;
-11.7000;0.1506;-0.3211;
-11.4000;0.1530;-0.3187;
-11.1000;0.1514;-0.3187;
-10.8000;0.1538;-0.3163;
-10.5000;0.1514;-0.3211;
-10.2000;0.1506;-0.3163;
-9.9000;0.1563;-0.2995;
-9.6000;0.1376;-0.3402;
-9.3000;0.1490;-0.3235;
-9.0000;0.1522;-0.3211;
-8.7000;0.1506;-0.3306;
-8.4000;0.1498;-0.3306;
-8.1000;0.1498;-0.3306;
-7.8000;0.1506;-0.3235;
-7.5000;0.1490;-0.3259;
-7.2000;0.1514;-0.3187;
-6.9000;0.1506;-0.3115;
-6.6000;0.1506;-0.3163;
-6.3000;0.1522;-0.3115;
-6.0000;0.1506;-0.3043;
-5.7000;0.1514;-0.3019;
-5.4000;0.1514;-0.2995;
-5.1000;0.1547;-0.2923;
-4.8000;0.1522;-0.3067;
-4.5000;0.1514;-0.3019;
-4.2000;0.1490;-0.3019;
-3.9000;0.1538;-0.2995;
-3.6000;0.1522;-0.3043;
-3.3000;0.1506;-0.3163;
-3.0000;0.1522;-0.3187;
-2.7000;0.1514;-0.3187;
-2.4000;0.1433;-0.3378;
-2.1000;0.1514;-0.3019;
-1.8000;0.1522;-0.2947;
-1.5000;0.1514;-0.3043;
-1.2000;0.1522;-0.3067;
-0.9000;0.1498;-0.3211;
-0.6000;0.1530;-0.3019;
-0.3000;0.1514;-0.3019;
0.0000;0.1514;-0.3019;
0.3000;0.1506;-0.3235;
0.6000;0.1530;-0.3019;
0.9000;0.1522;-0.2779;
1.2000;0.1555;-0.2540;
1.5000;0.1547;-0.2396;
1.8000;0.1555;-0.2108;
2.1000;0.1571;-0.1917;
2.4000;0.1579;-0.1869;
2.7000;0.1595;-0.1773;
3.0000;0.1571;-0.1773;
3.3000;0.1563;-0.1725;
3.6000;0.1579;-0.1605;
3.9000;0.1595;-0.1509;
4.2000;0.1612;-0.1390;
4.5000;0.1579;-0.1318;
4.8000;0.1612;-0.1222;
5.1000;0.1587;-0.1294;
5.4000;0.1604;-0.1198;
5.7000;0.1612;-0.1126;
6.0000;0.1620;-0.1006;
6.3000;0.1726;-0.0695;
6.6000;0.1612;-0.0958;
6.9000;0.1604;-0.1006;
7.2000;0.1595;-0.0934;
7.5000;0.1661;-0.0767;
7.8000;0.1595;-0.0910;
8.1000;0.1595;-0.0887;
8.4000;0.1620;-0.0791;
8.7000;0.1571;-0.0982;
9.0000;0.1644;-0.0910;
9.3000;0.1628;-0.0887;
9.6000;0.1628;-0.0863;
9.9000;0.1604;-0.0982;
10.2000;0.1620;-0.0982;
10.5000;0.1563;-0.1126;
10.8000;0.1595;-0.0982;
11.1000;0.1612;-0.1102;
11.4000;0.1620;-0.1054;
11.7000;0.1612;-0.1102;
12.0000;0.1595;-0.1078;
12.3000;0.1579;-0.1054;
12.6000;0.1604;-0.1054;
12.9000;0.1604;-0.1102;
13.2000;0.1620;-0.1054;
13.5000;0.1587;-0.1198;
13.8000;0.1579;-0.1150;
14.1000;0.1587;-0.1054;
14.4000;0.1612;-0.0958;
14.7000;0.1612;-0.0982;
15.0000;0.1579;-0.1078;
15.3000;0.1620;-0.0910;
15.6000;0.1604;-0.1006;
15.9000;0.1604;-0.0982;
16.2000;0.1604;-0.1078;
16.5000;0.1604;-0.1054;
16.8000;0.1579;-0.1150;
17.1000;0.1571;-0.1078;
17.4000;0.1571;-0.1030;
17.7000;0.1604;-0.0934;
18.0000;0.1579;-0.1030;
18.3000;0.1612;-0.0910;
18.6000;0.1587;-0.0934;
18.9000;0.1726;-0.0527;
19.2000;0.1595;-0.0934;
19.5000;0.1604;-0.0934;
19.8000;0.1579;-0.0982;
20.1000;0.1571;-0.1126;
20.4000;0.1612;-0.1030;
20.7000;0.1604;-0.1006;
21.0000;0.1595;-0.0934;
21.3000;0.1612;-0.0958;
21.6000;0.1636;-0.0839;
21.9000;0.1612;-0.0863;
22.2000;0.1587;-0.0863;
22.5000;0.1612;-0.0839;
22.8000;0.1612;-0.0791;
23.1000;0.1628;-0.0719;
23.4000;0.1604;-0.0815;
23.7000;0.1612;-0.0887;
24.0000;0.1620;-0.0910;
24.3000;0.1571;-0.0958;
24.6000;0.1612;-0.0863;
24.9000;0.1620;-0.0863;
25.2000;0.1604;-0.1006;
25.5000;0.1595;-0.1030;
25.8000;0.1563;-0.0982;
26.1000;0.1628;-0.0719;
26.4000;0.1579;-0.0839;
26.7000;0.1636;-0.0791;
27.0000;0.1652;-0.0767;
27.3000;0.1604;-0.0958;
27.6000;0.1604;-0.1078;
27.9000;0.1587;-0.1078;
28.2000;0.1604;-0.0982;
28.5000;0.1579;-0.1030;
28.8000;0.1595;-0.0982;
29.1000;0.1604;-0.0887;
29.4000;0.1604;-0.0863;
29.7000;0.1604;-0.0815;
30.0000;0.1522;-0.1102;
30.3000;0.1636;-0.0815;
30.6000;0.1685;-0.0695;
30.9000;0.1612;-0.0910;
31.2000;0.1669;-0.0575;
31.5000;0.1595;-0.0839;
31.8000;0.1685;-0.0599;
32.1000;0.1612;-0.0743;
32.4000;0.1636;-0.0743;
32.7000;0.1587;-0.0958;
33.0000;0.1612;-0.1006;
33.3000;0.1587;-0.1078;
33.6000;0.1604;-0.1102;
33.9000;0.1547;-0.1198;
34.2000;0.1514;-0.1246;
34.5000;0.1612;-0.1054;
34.8000;0.1604;-0.0958;
35.1000;0.1579;-0.0982;
35.4000;0.1555;-0.0982;
35.7000;0.1612;-0.0887;
36.0000;0.1604;-0.0934;
36.3000;0.1612;-0.1078;
36.6000;0.1620;-0.1054;
36.9000;0.1604;-0.1006;
37.2000;0.1473;-0.1294;
37.5000;0.1628;-0.0910;
37.8000;0.1620;-0.0958;
38.1000;0.1620;-0.0934;
38.4000;0.1620;-0.0934;
38.7000;0.1579;-0.1030;
39.0000;0.1612;-0.0958;
39.3000;0.1604;-0.0982;
39.6000;0.1620;-0.0982;
39.9000;0.1595;-0.1054;
40.2000;0.1604;-0.0982;
40.5000;0.1604;-0.0958;
40.8000;0.1612;-0.0958;
41.1000;0.1628;-0.1078;
41.4000;0.1595;-0.1102;
41.7000;0.1701;-0.0887;
42.0000;0.1604;-0.1126;
42.3000;0.1636;-0.1054;
42.6000;0.1604;-0.1150;
42.9000;0.1636;-0.1078;
43.2000;0.1612;-0.1126;
43.5000;0.1604;-0.1126;
43.8000;0.1612;-0.1102;
44.1000;0.1661;-0.1078;
44.4000;0.1595;-0.1246;
44.7000;0.1595;-0.1174;
45.0000;0.1563;-0.1222;
45.3000;0.1644;-0.0934;
45.6000;0.1587;-0.1078;
45.9000;0.1595;-0.1030;
46.2000;0.1620;-0.1054;
46.5000;0.1530;-0.1246;
46.8000;0.1579;-0.1174;
47.1000;0.1587;-0.1174;
47.4000;0.1579;-0.1174;
47.7000;0.1579;-0.1102;
48.0000;0.1604;-0.0982;
48.3000;0.1595;-0.0934;
48.6000;0.1595;-0.0982;
48.9000;0.1604;-0.0934;
49.2000;0.1595;-0.0934;
49.5000;0.1595;-0.0910;
49.8000;0.1612;-0.0887;
50.1000;0.1498;-0.1174;
50.4000;0.1628;-0.0791;
50.7000;0.1579;-0.0887;
51.0000;0.1571;-0.0910;
51.3000;0.1587;-0.0887;
51.6000;0.1604;-0.0767;
51.9000;0.1620;-0.0623;
52.2000;0.1628;-0.0623;
52.5000;0.1604;-0.0695;
52.8000;0.1620;-0.0743;
53.1000;0.1595;-0.0863;
53.4000;0.1644;-0.0671;
53.7000;0.1628;-0.0815;
54.0000;0.1644;-0.0815;
54.3000;0.1612;-0.0863;
54.6000;0.1612;-0.0839;
54.9000;0.1595;-0.0815;
55.2000;0.1595;-0.0839;
55.5000;0.1571;-0.0863;
55.8000;0.1555;-0.0815;
56.1000;0.1563;-0.0839;
56.4000;0.1604;-0.0623;
56.7000;0.1620;-0.0623;
57.0000;0.1587;-0.0743;
57.3000;0.1595;-0.0719;
57.6000;0.1571;-0.0743;
57.9000;0.1538;-0.0791;
58.2000;0.1612;-0.0599;
58.5000;0.1604;-0.0743;
58.8000;0.1481;-0.1102;
59.1000;0.1595;-0.0863;
59.4000;0.1652;-0.0767;
59.7000;0.1587;-0.0934;
60.0000;0.1587;-0.0982;
60.3000;0.1604;-0.0934;
60.6000;0.1620;-0.0887;
60.9000;0.1628;-0.0887;
61.2000;0.1579;-0.1054;
61.5000;0.1595;-0.1054;
61.8000;0.1587;-0.0982;
62.1000;0.1587;-0.0982;
62.4000;0.1587;-0.0982;
62.7000;0.1595;-0.0910;
63.0000;0.1612;-0.0887;
63.3000;0.1612;-0.0863;
63.6000;0.1595;-0.0910;
63.9000;0.1612;-0.0791;
64.2000;0.1595;-0.0767;
64.5000;0.1612;-0.0767;
64.8000;0.1547;-0.0910;
65.1000;0.1555;-0.0910;
65.4000;0.1587;-0.0910;
65.7000;0.1547;-0.0958;
66.0000;0.1604;-0.0815;
66.3000;0.1595;-0.0839;
66.6000;0.1563;-0.0863;
66.9000;0.1595;-0.0815;
67.2000;0.1612;-0.0743;
67.5000;0.1506;-0.1054;
67.8000;0.1595;-0.0719;
68.1000;0.1652;-0.0599;
68.4000;0.1587;-0.0791;
68.7000;0.1620;-0.0671;
69.0000;0.1693;-0.0407;
69.3000;0.1604;-0.0671;
69.6000;0.1612;-0.0599;
69.9000;0.1604;-0.0599;
70.2000;0.1579;-0.0767;
70.5000;0.1473;-0.1030;
70.8000;0.1595;-0.0695;
71.1000;0.1579;-0.0743;
71.4000;0.1612;-0.0695;
71.7000;0.1595;-0.0695;
72.0000;0.1612;-0.0695;
72.3000;0.1612;-0.0791;
72.6000;0.1595;-0.0863;
72.9000;0.1571;-0.0910;
73.2000;0.1604;-0.0791;
73.5000;0.1628;-0.0743;
73.8000;0.1612;-0.0791;
74.1000;0.1628;-0.0815;
74.4000;0.1595;-0.0910;
74.7000;0.1595;-0.0887;
75.0000;0.1612;-0.0887;
75.3000;0.1595;-0.0910;
75.6000;0.1726;-0.0671;
75.9000;0.1636;-0.0791;
76.2000;0.1620;-0.0958;
76.5000;0.1506;-0.1222;
76.8000;0.1579;-0.0982;
77.1000;0.1644;-0.0743;
77.4000;0.1604;-0.0863;
77.7000;0.1579;-0.0887;
78.0000;0.1636;-0.0671;
78.3000;0.1612;-0.0695;
78.6000;0.1612;-0.0719;
78.9000;0.1693;-0.0479;
79.2000;0.1595;-0.0719;
79.5000;0.1604;-0.0743;
79.8000;0.1628;-0.0791;
80.1000;0.1579;-0.0815;
80.4000;0.1587;-0.0719;
80.7000;0.1563;-0.0815;
81.0000;0.1587;-0.0839;
81.3000;0.1636;-0.0839;
81.6000;0.1612;-0.0887;
81.9000;0.1571;-0.1006;
82.2000;0.1620;-0.0791;
82.5000;0.1587;-0.0839;
82.8000;0.1612;-0.0767;
83.1000;0.1604;-0.0791;
83.4000;0.1612;-0.0767;
83.7000;0.1587;-0.0767;
84.0000;0.1595;-0.0719;
84.3000;0.1506;-0.1006;
84.6000;0.1563;-0.0839;
84.9000;0.1628;-0.0671;
85.2000;0.1604;-0.0695;
85.5000;0.1612;-0.0695;
85.8000;0.1604;-0.0743;
86.1000;0.1563;-0.0767;
86.4000;0.1579;-0.0839;
86.7000;0.1595;-0.0743;
87.0000;0.1587;-0.0743;
87.3000;0.1604;-0.0719;
87.6000;0.1620;-0.0695;
87.9000;0.1595;-0.0791;
88.2000;0.1587;-0.0815;
88.5000;0.1587;-0.0887;
88.8000;0.1612;-0.0791;
89.1000;0.1604;-0.0815;
89.4000;0.1595;-0.0815;
89.7000;0.1604;-0.0767;
90.0000;0.1506;-0.1150;
90.3000;0.1620;-0.0839;
90.6000;0.1595;-0.0863;
90.9000;0.1595;-0.0695;
91.2000;0.1604;-0.0743;
91.5000;0.1595;-0.0743;
91.8000;0.1595;-0.0743;
92.1000;0.1571;-0.0767;
92.4000;0.1620;-0.0647;
92.7000;0.1604;-0.0839;
93.0000;0.1579;-0.0887;
93.3000;0.1620;-0.0815;
93.6000;0.1571;-0.0982;
93.9000;0.1604;-0.0910;
94.2000;0.1620;-0.0887;
94.5000;0.1604;-0.0910;
94.8000;0.1587;-0.0910;
95.1000;0.1693;-0.0623;
95.4000;0.1579;-0.0887;
95.7000;0.1595;-0.0791;
96.0000;0.1612;-0.0743;
96.3000;0.1571;-0.0791;
96.6000;0.1652;-0.0671;
96.9000;0.1620;-0.0719;
97.2000;0.1579;-0.0791;
97.5000;0.1538;-0.0958;
97.8000;0.1604;-0.0743;
98.1000;0.1652;-0.0479;
98.4000;0.1595;-0.0623;
98.7000;0.1587;-0.0695;
99.0000;0.1620;-0.0599;
99.3000;0.1579;-0.0671;
99.6000;0.1538;-0.0863;
99.9000;0.1579;-0.0743;
100.2000;0.1595;-0.0767;
100.5000;0.1701;-0.0527;
100.8000;0.1579;-0.0767;
101.1000;0.1579;-0.0815;
101.4000;0.1612;-0.0743;
101.7000;0.1595;-0.0791;
102.0000;0.1604;-0.0815;
102.3000;0.1636;-0.0695;
102.6000;0.1587;-0.0695;
102.9000;0.1620;-0.0695;
103.2000;0.1604;-0.0671;
103.5000;0.1530;-0.0743;
103.8000;0.1595;-0.0695;
104.1000;0.1604;-0.0719;
104.4000;0.1555;-0.0958;
104.7000;0.1612;-0.0767;
105.0000;0.1579;-0.0839;
105.3000;0.1693;-0.0599;
105.6000;0.1612;-0.0791;
105.9000;0.1604;-0.0839;
106.2000;0.1579;-0.0910;
106.5000;0.1571;-0.0815;
106.8000;0.1652;-0.0623;
107.1000;0.1571;-0.0887;
107.4000;0.1620;-0.0719;
107.7000;0.1563;-0.0839;
108.0000;0.1604;-0.0815;
108.3000;0.1595;-0.0743;
108.6000;0.1612;-0.0767;
108.9000;0.1579;-0.0887;
109.2000;0.1587;-0.0863;
109.5000;0.1587;-0.0934;
109.8000;0.1604;-0.0887;
110.1000;0.1579;-0.0958;
110.4000;0.1604;-0.0815;
110.7000;0.1595;-0.0815;
111.0000;0.1595;-0.0767;
111.3000;0.1579;-0.0815;
111.6000;0.1595;-0.0671;
111.9000;0.1587;-0.0719;
112.2000;0.1685;-0.0455;
112.5000;0.1538;-0.0863;
112.8000;0.1587;-0.0743;
113.1000;0.1604;-0.0719;
113.4000;0.1579;-0.0719;
113.7000;0.1538;-0.0767;
114.0000;0.1555;-0.0839;
114.3000;0.1604;-0.0719;
114.6000;0.1579;-0.0695;
114.9000;0.1555;-0.0791;
115.2000;0.1579;-0.0719;
115.5000;0.1522;-0.0982;
115.8000;0.1685;-0.0455;
116.1000;0.1604;-0.0575;
116.4000;0.1612;-0.0575;
116.7000;0.1587;-0.0743;
117.0000;0.1612;-0.0743;
117.3000;0.1604;-0.0743;
117.6000;0.1571;-0.0863;
117.9000;0.1595;-0.0743;
118.2000;0.1612;-0.0623;
118.5000;0.1604;-0.0551;
118.8000;0.1612;-0.0575;
119.1000;0.1661;-0.0455;
119.4000;0.1628;-0.0623;
119.7000;0.1620;-0.0551;
120.0000;0.1604;-0.0551;
120.3000;0.1620;-0.0551;
120.6000;0.1506;-0.0815;
120.9000;0.1604;-0.0575;
121.2000;0.1620;-0.0599;
121.5000;0.1579;-0.0743;
121.8000;0.1498;-0.0958;
122.1000;0.1538;-0.0839;
122.4000;0.1571;-0.0743;
122.7000;0.1652;-0.0599;
123.0000;0.1595;-0.0743;
123.3000;0.1612;-0.0671;
123.6000;0.1595;-0.0671;
123.9000;0.1587;-0.0719;
124.2000;0.1587;-0.0719;
124.5000;0.1587;-0.0743;
124.8000;0.1612;-0.0671;
125.1000;0.1620;-0.0671;
125.4000;0.1563;-0.0887;
125.7000;0.1587;-0.0743;
126.0000;0.1587;-0.0767;
126.3000;0.1652;-0.0647;
126.6000;0.1595;-0.0887;
126.9000;0.1587;-0.0934;
127.2000;0.1514;-0.1102;
127.5000;0.1612;-0.0839;
127.8000;0.1644;-0.0839;
128.1000;0.1604;-0.1102;
128.4000;0.1669;-0.0910;
128.7000;0.1604;-0.1102;
129.0000;0.1612;-0.1078;
129.3000;0.1595;-0.1078;
129.6000;0.1628;-0.0887;
129.9000;0.1595;-0.0982;
130.2000;0.1587;-0.1006;
130.5000;0.1612;-0.1006;
130.8000;0.1604;-0.1102;
131.1000;0.1595;-0.1102;
131.4000;0.1595;-0.1150;
131.7000;0.1628;-0.1030;
132.0000;0.1587;-0.1078;
132.3000;0.1612;-0.1054;
132.6000;0.1579;-0.1054;
132.9000;0.1604;-0.1054;
133.2000;0.1522;-0.1246;
133.5000;0.1579;-0.1150;
133.8000;0.1604;-0.1006;
134.1000;0.1604;-0.0958;
134.4000;0.1579;-0.1006;
134.7000;0.1595;-0.0982;
135.0000;0.1595;-0.1102;
135.3000;0.1620;-0.1030;
135.6000;0.1604;-0.1102;
135.9000;0.1620;-0.1126;
136.2000;0.1587;-0.1198;
136.5000;0.1652;-0.0982;
136.8000;0.1595;-0.1222;
137.1000;0.1587;-0.1270;
137.4000;0.1612;-0.1270;
137.7000;0.1612;-0.1222;
138.0000;0.1612;-0.1174;
138.3000;0.1628;-0.1054;
138.6000;0.1604;-0.1222;
138.9000;0.1595;-0.1222;
139.2000;0.1612;-0.0982;
139.5000;0.1587;-0.1126;
139.8000;0.1595;-0.1174;
140.1000;0.1604;-0.1198;
140.4000;0.1595;-0.1246;
140.7000;0.1587;-0.1222;
141.0000;0.1595;-0.1174;
141.3000;0.1579;-0.1126;
141.6000;0.1587;-0.1078;
141.9000;0.1498;-0.1294;
142.2000;0.1612;-0.1102;
142.5000;0.1579;-0.1198;
142.8000;0.1734;-0.0863;
143.1000;0.1595;-0.1246;
143.4000;0.1579;-0.1246;
143.7000;0.1571;-0.1318;
144.0000;0.1612;-0.1198;
144.3000;0.1595;-0.1246;
144.6000;0.1612;-0.1150;
144.9000;0.1677;-0.0887;
145.2000;0.1547;-0.1318;
145.5000;0.1595;-0.1126;
145.8000;0.1563;-0.1246;
146.1000;0.1612;-0.1102;
146.4000;0.1604;-0.1102;
146.7000;0.1506;-0.1270;
147.0000;0.1644;-0.0982;
147.3000;0.1604;-0.1126;
147.6000;0.1604;-0.1150;
147.9000;0.1595;-0.1150;
148.2000;0.1587;-0.1174;
148.5000;0.1604;-0.1078;
148.8000;0.1677;-0.0910;
149.1000;0.1571;-0.1150;
149.4000;0.1587;-0.1126;
149.7000;0.1595;-0.1078;
150.0000;0.1563;-0.1270;
150.3000;0.1571;-0.1198;
150.6000;0.1595;-0.1246;
150.9000;0.1677;-0.1054;
151.2000;0.1571;-0.1246;
151.5000;0.1628;-0.1126;
151.8000;0.1555;-0.1222;
152.1000;0.1587;-0.1222;
152.4000;0.1555;-0.1366;
152.7000;0.1612;-0.1270;
153.0000;0.1612;-0.1222;
153.3000;0.1669;-0.1054;
153.6000;0.1587;-0.1318;
153.9000;0.1579;-0.1390;
154.2000;0.1612;-0.1366;
154.5000;0.1571;-0.1414;
154.8000;0.1612;-0.1318;
155.1000;0.1604;-0.1294;
155.4000;0.1571;-0.1342;
155.7000;0.1620;-0.1150;
156.0000;0.1587;-0.1222;
156.3000;0.1579;-0.1126;
156.6000;0.1595;-0.1078;
156.9000;0.1620;-0.0982;
157.2000;0.1571;-0.0982;
157.5000;0.1612;-0.0958;
157.8000;0.1604;-0.0958;
158.1000;0.1579;-0.0958;
158.4000;0.1604;-0.0958;
158.7000;0.1612;-0.0958;
159.0000;0.1587;-0.1054;
159.3000;0.1595;-0.1054;
159.6000;0.1604;-0.0958;
159.9000;0.1620;-0.1030;
160.2000;0.1587;-0.1174;
160.5000;0.1579;-0.1222;
160.8000;0.1644;-0.1126;
161.1000;0.1612;-0.1270;
161.4000;0.1595;-0.1222;
161.7000;0.1579;-0.1222;
162.0000;0.1579;-0.1222;
162.3000;0.1620;-0.1150;
162.6000;0.1579;-0.1342;
162.9000;0.1604;-0.1270;
163.2000;0.1620;-0.1198;
163.5000;0.1587;-0.1270;
163.8000;0.1587;-0.1246;
164.1000;0.1587;-0.1150;
164.4000;0.1595;-0.1150;
164.7000;0.1604;-0.1078;
165.0000;0.1587;-0.1126;
165.3000;0.1587;-0.1054;
165.6000;0.1595;-0.1078;
165.9000;0.1571;-0.1174;
166.2000;0.1571;-0.1150;
166.5000;0.1595;-0.1150;
166.8000;0.1595;-0.1126;
167.1000;0.1612;-0.1054;
167.4000;0.1620;-0.0982;
167.7000;0.1579;-0.1150;
168.0000;0.1490;-0.1438;
168.3000;0.1563;-0.1150;
168.6000;0.1587;-0.1078;
168.9000;0.1587;-0.1102;
169.2000;0.1677;-0.0839;
169.5000;0.1563;-0.1054;
169.8000;0.1628;-0.0934;
170.1000;0.1661;-0.0791;
170.4000;0.1628;-0.0887;
170.7000;0.1604;-0.0958;
171.0000;0.1547;-0.1270;
171.3000;0.1595;-0.1174;
171.6000;0.1587;-0.1222;
171.9000;0.1604;-0.1174;
172.2000;0.1563;-0.1222;
172.5000;0.1620;-0.1102;
172.8000;0.1612;-0.1102;
173.1000;0.1612;-0.1078;
173.4000;0.1604;-0.1102;
173.7000;0.1612;-0.1126;
174.0000;0.1620;-0.1078;
174.3000;0.1563;-0.1246;
174.6000;0.1595;-0.1246;
174.9000;0.1587;-0.1198;
175.2000;0.1571;-0.1246;
175.5000;0.1612;-0.1270;
175.8000;0.1587;-0.1294;
176.1000;0.1587;-0.1222;
176.4000;0.1595;-0.1222;
176.7000;0.1620;-0.1246;
177.0000;0.1612;-0.1270;
177.3000;0.1604;-0.1222;
177.6000;0.1571;-0.1150;
177.9000;0.1530;-0.1342;
178.2000;0.1644;-0.0982;
178.5000;0.1612;-0.1126;
178.8000;0.1595;-0.1150;
179.1000;0.1604;-0.1150;
179.4000;0.1612;-0.1222;
179.7000;0.1587;-0.1246;
180.0000;0.1579;-0.1318;
180.3000;0.1595;-0.1246;
180.6000;0.1595;-0.1246;
180.9000;0.1571;-0.1270;
181.2000;0.1571;-0.1246;
181.5000;0.1579;-0.1174;
181.8000;0.1595;-0.1054;
182.1000;0.1587;-0.1078;
182.4000;0.1465;-0.1366;
182.7000;0.1595;-0.1054;
183.0000;0.1620;-0.0982;
183.3000;0.1571;-0.1102;
183.6000;0.1571;-0.1102;
183.9000;0.1604;-0.0958;
184.2000;0.1522;-0.1174;
184.5000;0.1595;-0.0863;
184.8000;0.1571;-0.0863;
185.1000;0.1579;-0.0887;
185.4000;0.1571;-0.0982;
185.7000;0.1612;-0.0791;
186.0000;0.1587;-0.0934;
186.3000;0.1579;-0.0910;
186.6000;0.1620;-0.0887;
186.9000;0.1644;-0.0863;
187.2000;0.1481;-0.1294;
187.5000;0.1669;-0.0839;
187.8000;0.1595;-0.1102;
188.1000;0.1661;-0.0815;
188.4000;0.1579;-0.1054;
188.7000;0.1604;-0.1102;
189.0000;0.1604;-0.1126;
189.3000;0.1595;-0.1150;
189.6000;0.1604;-0.1054;
189.9000;0.1620;-0.0982;
190.2000;0.1587;-0.0982;
190.5000;0.1587;-0.0958;
190.8000;0.1538;-0.1054;
191.1000;0.1587;-0.0887;
191.4000;0.1555;-0.0958;
191.7000;0.1612;-0.0887;
192.0000;0.1636;-0.0839;
192.3000;0.1579;-0.0982;
192.6000;0.1604;-0.0982;
192.9000;0.1579;-0.1054;
193.2000;0.1498;-0.1222;
193.5000;0.1587;-0.0958;
193.8000;0.1579;-0.0887;
194.1000;0.1652;-0.0815;
194.4000;0.1530;-0.1126;
194.7000;0.1530;-0.1174;
195.0000;0.1604;-0.1006;
195.3000;0.1628;-0.0958;
195.6000;0.1579;-0.1078;
195.9000;0.1595;-0.1030;
196.2000;0.1587;-0.1030;
196.5000;0.1547;-0.1054;
196.8000;0.1587;-0.0934;
197.1000;0.1595;-0.0887;
197.4000;0.1587;-0.0887;
197.7000;0.1595;-0.0887;
198.0000;0.1563;-0.1006;
198.3000;0.1538;-0.1198;
198.6000;0.1604;-0.0982;
198.9000;0.1587;-0.1102;
199.2000;0.1652;-0.1030;
199.5000;0.1587;-0.1198;
199.8000;0.1644;-0.1006;
200.1000;0.1571;-0.0982;
200.4000;0.1587;-0.0958;
200.7000;0.1538;-0.1102;
201.0000;0.1587;-0.0910;
201.3000;0.1612;-0.0887;
201.6000;0.1595;-0.1006;
201.9000;0.1571;-0.0982;
202.2000;0.1595;-0.0934;
202.5000;0.1604;-0.0839;
202.8000;0.1595;-0.0887;
203.1000;0.1579;-0.0958;
203.4000;0.1604;-0.0982;
203.7000;0.1587;-0.1006;
204.0000;0.1612;-0.0934;
204.3000;0.1595;-0.0887;
204.6000;0.1571;-0.0958;
204.9000;0.1612;-0.0839;
205.2000;0.1595;-0.0910;
205.5000;0.1587;-0.0958;
205.8000;0.1587;-0.0982;
206.1000;0.1579;-0.1030;
206.4000;0.1571;-0.1126;
206.7000;0.1612;-0.1054;
207.0000;0.1547;-0.1174;
207.3000;0.1571;-0.1126;
207.6000;0.1612;-0.1030;
207.9000;0.1555;-0.1150;
208.2000;0.1538;-0.1198;
208.5000;0.1628;-0.0958;
208.8000;0.1636;-0.0982;
209.1000;0.1595;-0.1054;
209.4000;0.1620;-0.1030;
209.7000;0.1693;-0.0791;
210.0000;0.1587;-0.1006;
210.3000;0.1620;-0.0934;
210.6000;0.1595;-0.0934;
210.9000;0.1604;-0.0887;
211.2000;0.1685;-0.0719;
211.5000;0.1587;-0.0958;
211.8000;0.1604;-0.0863;
212.1000;0.1563;-0.0982;
212.4000;0.1595;-0.0934;
212.7000;0.1604;-0.0910;
213.0000;0.1620;-0.0958;
213.3000;0.1579;-0.1006;
213.6000;0.1587;-0.0982;
213.9000;0.1604;-0.0934;
214.2000;0.1669;-0.0695;
214.5000;0.1612;-0.0910;
214.8000;0.1612;-0.0958;
215.1000;0.1628;-0.0982;
215.4000;0.1604;-0.0982;
215.7000;0.1587;-0.1006;
216.0000;0.1604;-0.0982;
216.3000;0.1644;-0.0863;
216.6000;0.1595;-0.1006;
216.9000;0.1604;-0.1006;
217.2000;0.1579;-0.1078;
217.5000;0.1701;-0.0695;
217.8000;0.1587;-0.1102;
218.1000;0.1579;-0.1174;
218.4000;0.1579;-0.1126;
218.7000;0.1563;-0.1126;
219.0000;0.1587;-0.1078;
219.3000;0.1587;-0.1150;
219.6000;0.1587;-0.1078;
219.9000;0.1579;-0.1078;
220.2000;0.1571;-0.1006;
220.5000;0.1587;-0.0934;
220.8000;0.1587;-0.1030;
221.1000;0.1579;-0.1078;
221.4000;0.1563;-0.1078;
221.7000;0.1595;-0.0958;
222.0000;0.1604;-0.0958;
222.3000;0.1595;-0.1054;
222.6000;0.1604;-0.1078;
222.9000;0.1595;-0.0958;
223.2000;0.1685;-0.0743;
223.5000;0.1587;-0.1054;
223.8000;0.1636;-0.0934;
224.1000;0.1628;-0.0934;
224.4000;0.1587;-0.1030;
224.7000;0.1587;-0.1078;
225.0000;0.1595;-0.1006;
225.3000;0.1620;-0.0887;
225.6000;0.1604;-0.0982;
225.9000;0.1555;-0.1126;
226.2000;0.1604;-0.1078;
226.5000;0.1579;-0.1078;
226.8000;0.1579;-0.1102;
227.1000;0.1571;-0.1126;
227.4000;0.1579;-0.1030;
227.7000;0.1571;-0.1030;
228.0000;0.1579;-0.0982;
228.3000;0.1595;-0.0982;
228.6000;0.1579;-0.1006;
228.9000;0.1571;-0.0863;
229.2000;0.1571;-0.0863;
229.5000;0.1579;-0.0839;
229.8000;0.1587;-0.0887;
230.1000;0.1555;-0.1102;
230.4000;0.1628;-0.0863;
230.7000;0.1612;-0.0815;
231.0000;0.1563;-0.0934;
231.3000;0.1595;-0.0863;
231.6000;0.1563;-0.1078;
231.9000;0.1595;-0.1006;
232.2000;0.1685;-0.0767;
232.5000;0.1604;-0.1054;
232.8000;0.1587;-0.1078;
233.1000;0.1538;-0.1246;
233.4000;0.1530;-0.1222;
233.7000;0.1514;-0.1294;
234.0000;0.1571;-0.1174;
234.3000;0.1612;-0.1078;
234.6000;0.1604;-0.0958;
234.9000;0.1579;-0.0958;
235.2000;0.1620;-0.0839;
235.5000;0.1620;-0.0839;
235.8000;0.1571;-0.0958;
236.1000;0.1604;-0.0839;
236.4000;0.1595;-0.0839;
236.7000;0.1571;-0.1006;
237.0000;0.1604;-0.0910;
237.3000;0.1579;-0.0982;
237.6000;0.1595;-0.0887;
237.9000;0.1571;-0.0958;
238.2000;0.1604;-0.0958;
238.5000;0.1571;-0.1030;
238.8000;0.1587;-0.1006;
239.1000;0.1571;-0.1054;
239.4000;0.1595;-0.0958;
239.7000;0.1701;-0.0599;
240.0000;0.1579;-0.0958;
240.3000;0.1595;-0.0982;
240.6000;0.1587;-0.0958;
240.9000;0.1604;-0.0839;
241.2000;0.1620;-0.0839;
241.5000;0.1579;-0.0910;
241.8000;0.1530;-0.1054;
242.1000;0.1595;-0.0910;
242.4000;0.1604;-0.0910;
242.7000;0.1669;-0.0719;
243.0000;0.1571;-0.1006;
243.3000;0.1604;-0.0982;
243.6000;0.1620;-0.0958;
243.9000;0.1530;-0.1222;
244.2000;0.1587;-0.1150;
244.5000;0.1587;-0.1126;
244.8000;0.1661;-0.0934;
245.1000;0.1612;-0.1006;
245.4000;0.1587;-0.1054;
245.7000;0.1612;-0.1006;
246.0000;0.1571;-0.1126;
246.3000;0.1604;-0.0934;
246.6000;0.1604;-0.0887;
246.9000;0.1604;-0.0910;
247.2000;0.1563;-0.1030;
247.5000;0.1612;-0.0887;
247.8000;0.1661;-0.0815;
248.1000;0.1587;-0.0958;
248.4000;0.1595;-0.0887;
248.7000;0.1547;-0.1030;
249.0000;0.1587;-0.0934;
249.3000;0.1571;-0.0982;
249.6000;0.1579;-0.0982;
249.9000;0.1595;-0.0887;
250.2000;0.1620;-0.0934;
250.5000;0.1595;-0.1006;
250.8000;0.1579;-0.0982;
251.1000;0.1595;-0.0863;
251.4000;0.1587;-0.0887;
251.7000;0.1587;-0.0887;
252.0000;0.1579;-0.0934;
252.3000;0.1620;-0.0887;
252.6000;0.1595;-0.0982;
252.9000;0.1604;-0.1102;
253.2000;0.1579;-0.1078;
253.5000;0.1579;-0.1102;
253.8000;0.1587;-0.1078;
254.1000;0.1595;-0.1078;
254.4000;0.1604;-0.1078;
254.7000;0.1571;-0.1150;
255.0000;0.1620;-0.1006;
255.3000;0.1587;-0.1054;
255.6000;0.1579;-0.1126;
255.9000;0.1595;-0.1102;
256.2000;0.1449;-0.1486;
256.5000;0.1612;-0.0934;
256.8000;0.1587;-0.1006;
257.1000;0.1563;-0.1006;
257.4000;0.1595;-0.1006;
257.7000;0.1563;-0.1030;
258.0000;0.1604;-0.0910;
258.3000;0.1571;-0.1054;
258.6000;0.1612;-0.0982;
258.9000;0.1563;-0.1102;
259.2000;0.1612;-0.1054;
259.5000;0.1595;-0.1102;
259.8000;0.1563;-0.1102;
260.1000;0.1555;-0.1150;
260.4000;0.1620;-0.0982;
260.7000;0.1604;-0.1054;
261.0000;0.1587;-0.1030;
261.3000;0.1473;-0.1366;
261.6000;0.1587;-0.1030;
261.9000;0.1595;-0.1006;
262.2000;0.1473;-0.1222;
262.5000;0.1555;-0.1006;
262.8000;0.1547;-0.1030;
263.1000;0.1604;-0.0934;
263.4000;0.1636;-0.0910;
263.7000;0.1571;-0.1030;
264.0000;0.1604;-0.0934;
264.3000;0.1595;-0.0934;
264.6000;0.1604;-0.0958;
264.9000;0.1465;-0.1270;
265.2000;0.1579;-0.0934;
265.5000;0.1587;-0.0958;
265.8000;0.1587;-0.0910;
266.1000;0.1604;-0.0958;
266.4000;0.1604;-0.1030;
266.7000;0.1579;-0.1006;
267.0000;0.1587;-0.0982;
267.3000;0.1490;-0.1198;
267.6000;0.1595;-0.0934;
267.9000;0.1595;-0.0982;
268.2000;0.1604;-0.0958;
268.5000;0.1587;-0.0934;
268.8000;0.1563;-0.0887;
269.1000;0.1620;-0.0791;
269.4000;0.1644;-0.0743;
269.7000;0.1587;-0.0887;
270.0000;0.1652;-0.0719;
270.3000;0.1473;-0.1294;
270.6000;0.1587;-0.1054;
270.9000;0.1555;-0.1174;
271.2000;0.1595;-0.1078;
271.5000;0.1587;-0.1054;
271.8000;0.1587;-0.1006;
272.1000;0.1571;-0.1006;
272.4000;0.1571;-0.1126;
272.7000;0.1571;-0.1102;
273.0000;0.1579;-0.1006;
273.3000;0.1595;-0.0982;
273.6000;0.1563;-0.1126;
273.9000;0.1571;-0.1054;
274.2000;0.1587;-0.1078;
274.5000;0.1604;-0.1150;
274.8000;0.1604;-0.1150;
275.1000;0.1595;-0.1174;
275.4000;0.1628;-0.1054;
275.7000;0.1595;-0.1054;
276.0000;0.1612;-0.1030;
276.3000;0.1579;-0.1102;
276.6000;0.1612;-0.0934;
276.9000;0.1604;-0.0863;
277.2000;0.1579;-0.1006;
277.5000;0.1709;-0.0767;
277.8000;0.1538;-0.1222;
278.1000;0.1652;-0.0719;
278.4000;0.1587;-0.0887;
278.7000;0.1612;-0.0767;
279.0000;0.1604;-0.0791;
279.3000;0.1612;-0.0743;
279.6000;0.1579;-0.0863;
279.9000;0.1595;-0.0815;
280.2000;0.1669;-0.0647;
280.5000;0.1604;-0.0887;
280.8000;0.1612;-0.0743;
281.1000;0.1595;-0.0863;
281.4000;0.1587;-0.0887;
281.7000;0.1604;-0.0839;
282.0000;0.1587;-0.0839;
282.3000;0.1579;-0.0791;
282.6000;0.1579;-0.0839;
282.9000;0.1620;-0.0647;
283.2000;0.1498;-0.0982;
283.5000;0.1587;-0.0863;
283.8000;0.1604;-0.0910;
284.1000;0.1612;-0.0839;
284.4000;0.1579;-0.0815;
284.7000;0.1563;-0.0910;
285.0000;0.1595;-0.0815;
285.3000;0.1522;-0.1054;
285.6000;0.1604;-0.0863;
285.9000;0.1612;-0.0887;
286.2000;0.1661;-0.0719;
286.5000;0.1563;-0.0910;
286.8000;0.1587;-0.0958;
287.1000;0.1604;-0.0910;
287.4000;0.1579;-0.0839;
287.7000;0.1587;-0.0743;
288.0000;0.1571;-0.0791;
288.3000;0.1522;-0.0982;
288.6000;0.1595;-0.0767;
288.9000;0.1547;-0.0815;
289.2000;0.1612;-0.0719;
289.5000;0.1693;-0.0527;
289.8000;0.1595;-0.0791;
290.1000;0.1587;-0.0743;
290.4000;0.1587;-0.0623;
290.7000;0.1587;-0.0695;
291.0000;0.1604;-0.0695;
291.3000;0.1563;-0.0815;
291.6000;0.1571;-0.0815;
291.9000;0.1571;-0.0815;
292.2000;0.1587;-0.0839;
292.5000;0.1595;-0.0743;
292.8000;0.1604;-0.0695;
293.1000;0.1595;-0.0791;
293.4000;0.1514;-0.1054;
293.7000;0.1579;-0.0934;
294.0000;0.1579;-0.0910;
294.3000;0.1563;-0.0934;
294.6000;0.1612;-0.0934;
294.9000;0.1677;-0.0743;
295.2000;0.1587;-0.1030;
295.5000;0.1587;-0.1006;
295.8000;0.1595;-0.0958;
296.1000;0.1587;-0.1078;
296.4000;0.1547;-0.1150;
296.7000;0.1595;-0.1006;
297.0000;0.1620;-0.0982;
297.3000;0.1579;-0.1174;
297.6000;0.1563;-0.1126;
297.9000;0.1628;-0.0958;
298.2000;0.1579;-0.0982;
298.5000;0.1595;-0.0934;
298.8000;0.1661;-0.0910;
299.1000;0.1604;-0.1006;
299.4000;0.1595;-0.1078;
299.7000;0.1636;-0.0910;
300.0000;0.1587;-0.1078;
300.3000;0.1604;-0.0934;
300.6000;0.1636;-0.0815;
300.9000;0.1604;-0.0863;
301.2000;0.1587;-0.0958;
301.5000;0.1571;-0.0934;
301.8000;0.1734;-0.0503;
302.1000;0.1555;-0.0982;
302.4000;0.1579;-0.0982;
302.7000;0.1612;-0.0815;
303.0000;0.1685;-0.0671;
303.3000;0.1563;-0.0934;
303.6000;0.1563;-0.0839;
303.9000;0.1595;-0.0815;
304.2000;0.1604;-0.0743;
304.5000;0.1579;-0.0910;
304.8000;0.1612;-0.0815;
305.1000;0.1587;-0.0958;
305.4000;0.1587;-0.1006;
305.7000;0.1587;-0.0958;
306.0000;0.1595;-0.0982;
306.3000;0.1604;-0.0910;
306.6000;0.1547;-0.1054;
306.9000;0.1628;-0.0815;
307.2000;0.1604;-0.0863;
307.5000;0.1604;-0.0815;
307.8000;0.1579;-0.0839;
308.1000;0.1604;-0.0767;
308.4000;0.1579;-0.0863;
308.7000;0.1587;-0.0815;
309.0000;0.1595;-0.0863;
309.3000;0.1465;-0.1270;
309.6000;0.1595;-0.0958;
309.9000;0.1563;-0.0934;
310.2000;0.1579;-0.0887;
310.5000;0.1571;-0.0887;
310.8000;0.1612;-0.0791;
311.1000;0.1571;-0.0910;
311.4000;0.1579;-0.0767;
311.7000;0.1595;-0.0695;
312.0000;0.1604;-0.0599;
312.3000;0.1563;-0.0719;
312.6000;0.1579;-0.0719;
312.9000;0.1595;-0.0695;
313.2000;0.1612;-0.0719;
313.5000;0.1604;-0.0767;
313.8000;0.1571;-0.0791;
314.1000;0.1587;-0.0767;
314.4000;0.1612;-0.0767;
314.7000;0.1612;-0.0839;
315.0000;0.1587;-0.1006;
315.3000;0.1595;-0.0958;
315.6000;0.1604;-0.0910;
315.9000;0.1595;-0.0863;
316.2000;0.1612;-0.0887;
316.5000;0.1571;-0.0958;
316.8000;0.1571;-0.0863;
317.1000;0.1449;-0.1078;
317.4000;0.1555;-0.0815;
317.7000;0.1612;-0.0647;
318.0000;0.1587;-0.0743;
318.3000;0.1604;-0.0791;
318.6000;0.1579;-0.0910;
318.9000;0.1579;-0.0958;
319.2000;0.1620;-0.0863;
319.5000;0.1579;-0.0958;
319.8000;0.1612;-0.0910;
320.1000;0.1579;-0.1006;
320.4000;0.1571;-0.0958;
320.7000;0.1604;-0.0910;
321.0000;0.1579;-0.0958;
321.3000;0.1571;-0.1006;
321.6000;0.1563;-0.1078;
321.9000;0.1595;-0.0934;
322.2000;0.1595;-0.0958;
322.5000;0.1571;-0.1054;
322.8000;0.1636;-0.0958;
323.1000;0.1587;-0.1078;
323.4000;0.1571;-0.1150;
323.7000;0.1563;-0.1246;
324.0000;0.1555;-0.1198;
324.3000;0.1579;-0.1174;
324.6000;0.1587;-0.1174;
324.9000;0.1506;-0.1342;
325.2000;0.1547;-0.1150;
325.5000;0.1579;-0.1054;
325.8000;0.1555;-0.1102;
326.1000;0.1612;-0.0887;
326.4000;0.1587;-0.0982;
326.7000;0.1587;-0.1006;
327.0000;0.1595;-0.0982;
327.3000;0.1612;-0.0910;
327.6000;0.1571;-0.1006;
327.9000;0.1514;-0.1174;
328.2000;0.1587;-0.1054;
328.5000;0.1579;-0.1054;
328.8000;0.1579;-0.1030;
329.1000;0.1547;-0.1174;
329.4000;0.1579;-0.1102;
329.7000;0.1587;-0.1126;
330.0000;0.1595;-0.1102;
330.3000;0.1595;-0.1126;
330.6000;0.1604;-0.1078;
330.9000;0.1620;-0.0958;
331.2000;0.1604;-0.0934;
331.5000;0.1579;-0.0958;
331.8000;0.1604;-0.0934;
332.1000;0.1693;-0.0767;
332.4000;0.1628;-0.0934;
332.7000;0.1620;-0.0839;
333.0000;0.1604;-0.0839;
333.3000;0.1595;-0.0910;
333.6000;0.1604;-0.0958;
333.9000;0.1595;-0.0934;
334.2000;0.1604;-0.0934;
334.5000;0.1579;-0.1006;
334.8000;0.1652;-0.0815;
335.1000;0.1620;-0.0863;
335.4000;0.1530;-0.1078;
335.7000;0.1604;-0.0934;
336.0000;0.1579;-0.0910;
336.3000;0.1604;-0.0815;
336.6000;0.1571;-0.0910;
336.9000;0.1571;-0.0934;
337.2000;0.1604;-0.0887;
337.5000;0.1571;-0.1054;
337.8000;0.1595;-0.0982;
338.1000;0.1669;-0.0791;
338.4000;0.1595;-0.1030;
338.7000;0.1604;-0.1030;
339.0000;0.1612;-0.1102;
339.3000;0.1571;-0.1174;
339.6000;0.1595;-0.1174;
339.9000;0.1587;-0.1150;
340.2000;0.1579;-0.1150;
340.5000;0.1587;-0.1078;
340.8000;0.1555;-0.1030;
341.1000;0.1555;-0.0958;
341.4000;0.1579;-0.0910;
341.7000;0.1604;-0.0863;
342.0000;0.1579;-0.1030;
342.3000;0.1587;-0.1078;
342.6000;0.1538;-0.1198;
342.9000;0.1538;-0.1174;
343.2000;0.1595;-0.1054;
343.5000;0.1579;-0.1030;
343.8000;0.1563;-0.1030;
344.1000;0.1604;-0.0934;
344.4000;0.1612;-0.0982;
344.7000;0.1587;-0.1102;
345.0000;0.1587;-0.1054;
345.3000;0.1571;-0.1126;
345.6000;0.1595;-0.1030;
345.9000;0.1612;-0.1054;
346.2000;0.1547;-0.1174;
346.5000;0.1587;-0.1078;
346.8000;0.1595;-0.1150;
347.1000;0.1595;-0.1126;
347.4000;0.1555;-0.1222;
347.7000;0.1587;-0.1126;
348.0000;0.1587;-0.1102;
348.3000;0.1587;-0.1126;
348.6000;0.1587;-0.1150;
348.9000;0.1587;-0.1078;
349.2000;0.1465;-0.1438;
349.5000;0.1612;-0.1174;
349.8000;0.1595;-0.1126;
350.1000;0.1604;-0.1126;
350.4000;0.1636;-0.1054;
350.7000;0.1571;-0.1198;
351.0000;0.1547;-0.1246;
351.3000;0.1636;-0.1102;
351.6000;0.1579;-0.1198;
351.9000;0.1612;-0.1078;
352.2000;0.1587;-0.1006;
352.5000;0.1571;-0.1102;
352.8000;0.1563;-0.1150;
353.1000;0.1595;-0.1150;
353.4000;0.1571;-0.1246;
353.7000;0.1587;-0.1198;
354.0000;0.1604;-0.1150;
354.3000;0.1595;-0.1126;
354.6000;0.1604;-0.1174;
354.9000;0.1604;-0.1198;
355.2000;0.1579;-0.1150;
355.5000;0.1595;-0.1102;
355.8000;0.1579;-0.1030;
356.1000;0.1530;-0.1126;
356.4000;0.1604;-0.0934;
356.7000;0.1595;-0.0958;
357.0000;0.1579;-0.1078;
357.3000;0.1530;-0.1174;
357.6000;0.1571;-0.1102;
357.9000;0.1571;-0.1198;
358.2000;0.1652;-0.0982;
358.5000;0.1612;-0.1006;
358.8000;0.1604;-0.1030;
359.1000;0.1587;-0.1102;
359.4000;0.1604;-0.1030;
359.7000;0.1595;-0.1030;
360.0000;0.1604;-0.1006;
360.3000;0.1587;-0.0982;
360.6000;0.1587;-0.1030;
360.9000;0.1612;-0.1006;
361.2000;0.1571;-0.1102;
361.5000;0.1595;-0.1102;
361.8000;0.1579;-0.1174;
362.1000;0.1587;-0.1102;
362.4000;0.1620;-0.0958;
362.7000;0.1595;-0.1054;
363.0000;0.1579;-0.1150;
363.3000;0.1579;-0.1054;
363.6000;0.1628;-0.0863;
363.9000;0.1481;-0.1174;
364.2000;0.1563;-0.0982;
364.5000;0.1604;-0.0815;
364.8000;0.1595;-0.0839;
365.1000;0.1587;-0.0863;
365.4000;0.1555;-0.0982;
365.7000;0.1604;-0.0958;
366.0000;0.1669;-0.0791;
366.3000;0.1636;-0.0910;
366.6000;0.1571;-0.1030;
366.9000;0.1571;-0.1006;
367.2000;0.1579;-0.0982;
367.5000;0.1595;-0.0839;
367.8000;0.1587;-0.0863;
368.1000;0.1579;-0.0863;
368.4000;0.1604;-0.0863;
368.7000;0.1587;-0.0863;
369.0000;0.1538;-0.0958;
369.3000;0.1555;-0.1054;
369.6000;0.1579;-0.1030;
369.9000;0.1595;-0.0982;
370.2000;0.1636;-0.0887;
370.5000;0.1612;-0.0958;
370.8000;0.1530;-0.1126;
371.1000;0.1587;-0.1054;
371.4000;0.1595;-0.1054;
371.7000;0.1538;-0.1270;
372.0000;0.1587;-0.1126;
372.3000;0.1595;-0.0958;
372.6000;0.1587;-0.0934;
372.9000;0.1612;-0.0863;
373.2000;0.1547;-0.0982;
373.5000;0.1595;-0.0934;
373.8000;0.1604;-0.0910;
374.1000;0.1563;-0.1126;
374.4000;0.1612;-0.1054;
374.7000;0.1595;-0.1126;
375.0000;0.1490;-0.1486;
375.3000;0.1595;-0.1078;
375.6000;0.1587;-0.1126;
375.9000;0.1538;-0.1198;
376.2000;0.1595;-0.1030;
376.5000;0.1587;-0.1054;
376.8000;0.1604;-0.1006;
377.1000;0.1604;-0.1006;
377.4000;0.1579;-0.1054;
377.7000;0.1612;-0.1030;
378.0000;0.1579;-0.1030;
378.3000;0.1498;-0.1294;
378.6000;0.1595;-0.1054;
378.9000;0.1587;-0.1150;
379.2000;0.1612;-0.1102;
379.5000;0.1587;-0.1126;
379.8000;0.1587;-0.1078;
380.1000;0.1677;-0.0910;
380.4000;0.1595;-0.1078;
380.7000;0.1595;-0.1030;
381.0000;0.1571;-0.1102;
381.3000;0.1595;-0.0958;
381.6000;0.1595;-0.0982;
381.9000;0.1604;-0.1006;
382.2000;0.1587;-0.1078;
382.5000;0.1579;-0.1150;
382.8000;0.1604;-0.1078;
383.1000;0.1595;-0.1054;
383.4000;0.1595;-0.1102;
383.7000;0.1587;-0.1102;
384.0000;0.1604;-0.0982;
384.3000;0.1604;-0.0887;
384.6000;0.1579;-0.0910;
384.9000;0.1587;-0.0839;
385.2000;0.1587;-0.0887;
385.5000;0.1595;-0.0887;
385.8000;0.1579;-0.0815;
386.1000;0.1612;-0.0791;
386.4000;0.1604;-0.0815;
386.7000;0.1612;-0.0791;
387.0000;0.1595;-0.0863;
387.3000;0.1612;-0.0982;
387.6000;0.1612;-0.1006;
387.9000;0.1604;-0.0982;
388.2000;0.1636;-0.0815;
388.5000;0.1571;-0.0910;
388.8000;0.1595;-0.0863;
389.1000;0.1636;-0.0719;
389.4000;0.1595;-0.0743;
389.7000;0.1595;-0.0791;
390.0000;0.1587;-0.0719;
390.3000;0.1571;-0.0719;
390.6000;0.1579;-0.0671;
390.9000;0.1587;-0.0695;
391.2000;0.1579;-0.0719;
391.5000;0.1587;-0.0791;
391.8000;0.1628;-0.0695;
392.1000;0.1620;-0.0647;
392.4000;0.1587;-0.0791;
392.7000;0.1628;-0.0719;
393.0000;0.1595;-0.0767;
393.3000;0.1587;-0.0767;
393.6000;0.1595;-0.0791;
393.9000;0.1563;-0.0934;
394.2000;0.1538;-0.0982;
394.5000;0.1604;-0.0839;
394.8000;0.1587;-0.0887;
395.1000;0.1612;-0.0815;
395.4000;0.1579;-0.0863;
395.7000;0.1579;-0.0887;
396.0000;0.1538;-0.0958;
396.3000;0.1595;-0.0839;
396.6000;0.1579;-0.0839;
396.9000;0.1571;-0.0767;
397.2000;0.1604;-0.0695;
397.5000;0.1587;-0.0791;
397.8000;0.1538;-0.0982;
398.1000;0.1628;-0.0791;
398.4000;0.1579;-0.0934;
398.7000;0.1579;-0.0934;
399.0000;0.1604;-0.0910;
399.3000;0.1595;-0.0887;
399.6000;0.1514;-0.1078;
399.9000;0.1612;-0.0863;
400.2000;0.1628;-0.0767;
400.5000;0.1587;-0.0910;
400.8000;0.1587;-0.0910;
401.1000;0.1571;-0.0982;
401.4000;0.1587;-0.1030;
401.7000;0.1579;-0.0958;
402.0000;0.1579;-0.0934;
402.3000;0.1628;-0.0767;
402.6000;0.1595;-0.0863;
402.9000;0.1579;-0.0910;
403.2000;0.1604;-0.0887;
403.5000;0.1701;-0.0671;
403.8000;0.1555;-0.1078;
404.1000;0.1538;-0.1102;
404.4000;0.1571;-0.1030;
404.7000;0.1604;-0.0815;
405.0000;0.1579;-0.0934;
405.3000;0.1604;-0.0887;
405.6000;0.1579;-0.0982;
405.9000;0.1595;-0.1030;
406.2000;0.1636;-0.0910;
406.5000;0.1604;-0.0910;
406.8000;0.1571;-0.1054;
407.1000;0.1465;-0.1294;
407.4000;0.1555;-0.1102;
407.7000;0.1587;-0.0958;
408.0000;0.1612;-0.0910;
408.3000;0.1579;-0.0934;
408.6000;0.1595;-0.0863;
408.9000;0.1530;-0.1006;
409.2000;0.1612;-0.0887;
409.5000;0.1587;-0.0815;
409.8000;0.1620;-0.0791;
410.1000;0.1579;-0.0934;
410.4000;0.1587;-0.0958;
410.7000;0.1571;-0.1078;
411.0000;0.1563;-0.1030;
411.3000;0.1734;-0.0575;
411.6000;0.1555;-0.1030;
411.9000;0.1579;-0.0934;
412.2000;0.1563;-0.0958;
412.5000;0.1587;-0.0887;
412.8000;0.1595;-0.0863;
413.1000;0.1530;-0.1102;
413.4000;0.1604;-0.0934;
413.7000;0.1579;-0.0910;
414.0000;0.1604;-0.0839;
414.3000;0.1595;-0.0839;
414.6000;0.1579;-0.0958;
414.9000;0.1604;-0.0910;
415.2000;0.1571;-0.1126;
415.5000;0.1587;-0.1030;
415.8000;0.1587;-0.0982;
416.1000;0.1538;-0.1102;
416.4000;0.1587;-0.0887;
416.7000;0.1579;-0.0910;
417.0000;0.1465;-0.1174;
417.3000;0.1563;-0.1006;
417.6000;0.1587;-0.0910;
417.9000;0.1644;-0.0767;
418.2000;0.1571;-0.1006;
418.5000;0.1620;-0.0887;
418.8000;0.1579;-0.0982;
419.1000;0.1595;-0.0910;
419.4000;0.1595;-0.0815;
419.7000;0.1481;-0.1102;
420.0000;0.1652;-0.0647;
420.3000;0.1604;-0.0839;
420.6000;0.1465;-0.1102;
420.9000;0.1604;-0.0815;
421.2000;0.1579;-0.0863;
421.5000;0.1579;-0.0934;
421.8000;0.1579;-0.1054;
422.1000;0.1595;-0.1030;
422.4000;0.1604;-0.0958;
422.7000;0.1595;-0.0982;
423.0000;0.1628;-0.0982;
423.3000;0.1579;-0.1078;
423.6000;0.1595;-0.1030;
423.9000;0.1587;-0.1078;
424.2000;0.1595;-0.1030;
424.5000;0.1587;-0.0982;
424.8000;0.1465;-0.1342;
425.1000;0.1604;-0.1030;
425.4000;0.1595;-0.1006;
425.7000;0.1604;-0.1054;
426.0000;0.1595;-0.1102;
426.3000;0.1595;-0.1030;
426.6000;0.1620;-0.0934;
426.9000;0.1579;-0.0982;
427.2000;0.1604;-0.0958;
427.5000;0.1612;-0.0863;
427.8000;0.1595;-0.0839;
428.1000;0.1555;-0.0958;
428.4000;0.1587;-0.1030;
428.7000;0.1563;-0.1102;
429.0000;0.1579;-0.1030;
429.3000;0.1538;-0.1150;
429.6000;0.1595;-0.1006;
429.9000;0.1571;-0.1150;
430.2000;0.1612;-0.1078;
430.5000;0.1595;-0.1126;
430.8000;0.1587;-0.1198;
431.1000;0.1587;-0.1222;
431.4000;0.1620;-0.1054;
431.7000;0.1595;-0.1054;
432.0000;0.1555;-0.1222;
432.3000;0.1530;-0.1318;
432.6000;0.1595;-0.1198;
432.9000;0.1652;-0.1006;
433.2000;0.1587;-0.1150;
433.5000;0.1571;-0.1150;
433.8000;0.1587;-0.1126;
434.1000;0.1604;-0.1078;
434.4000;0.1677;-0.0910;
434.7000;0.1595;-0.1198;
435.0000;0.1579;-0.1198;
435.3000;0.1595;-0.1102;
435.6000;0.1595;-0.1102;
435.9000;0.1571;-0.1198;
436.2000;0.1555;-0.1150;
436.5000;0.1595;-0.1126;
436.8000;0.1595;-0.1246;
437.1000;0.1604;-0.1174;
437.4000;0.1595;-0.1150;
437.7000;0.1595;-0.1174;
438.0000;0.1595;-0.1174;
438.3000;0.1604;-0.1126;
438.6000;0.1595;-0.1102;
438.9000;0.1563;-0.1150;
439.2000;0.1579;-0.1126;
439.5000;0.1563;-0.1150;
439.8000;0.1587;-0.1054;
440.1000;0.1652;-0.0887;
440.4000;0.1579;-0.1078;
440.7000;0.1604;-0.1006;
441.0000;0.1636;-0.0839;
441.3000;0.1604;-0.0934;
441.6000;0.1579;-0.0982;
441.9000;0.1571;-0.0982;
442.2000;0.1595;-0.0982;
442.5000;0.1571;-0.1078;
442.8000;0.1571;-0.1078;
443.1000;0.1579;-0.1150;
443.4000;0.1571;-0.1222;
443.7000;0.1571;-0.1318;
444.0000;0.1530;-0.1318;
444.3000;0.1612;-0.1126;
444.6000;0.1579;-0.1126;
444.9000;0.1579;-0.1078;
445.2000;0.1579;-0.0982;
445.5000;0.1587;-0.0839;
445.8000;0.1595;-0.0767;
446.1000;0.1571;-0.0839;
446.4000;0.1571;-0.0767;
446.7000;0.1644;-0.0647;
447.0000;0.1652;-0.0767;
447.3000;0.1587;-0.0910;
447.6000;0.1595;-0.0934;
447.9000;0.1595;-0.0934;
448.2000;0.1612;-0.0958;
448.5000;0.1612;-0.0910;
448.8000;0.1587;-0.0982;
449.1000;0.1498;-0.1198;
449.4000;0.1571;-0.0910;
449.7000;0.1595;-0.0887;
450.0000;0.1595;-0.0863;
450.3000;0.1587;-0.0934;
450.6000;0.1587;-0.0887;
450.9000;0.1579;-0.0910;
451.2000;0.1620;-0.0863;
451.5000;0.1587;-0.0958;
451.8000;0.1587;-0.1030;
452.1000;0.1636;-0.0910;
452.4000;0.1587;-0.1030;
452.7000;0.1579;-0.1102;
453.0000;0.1604;-0.1006;
453.3000;0.1595;-0.0958;
453.6000;0.1587;-0.0958;
453.9000;0.1571;-0.0982;
454.2000;0.1604;-0.1030;
454.5000;0.1563;-0.1126;
454.8000;0.1579;-0.1078;
455.1000;0.1579;-0.1030;
455.4000;0.1571;-0.1078;
455.7000;0.1547;-0.1150;
456.0000;0.1571;-0.1078;
456.3000;0.1547;-0.1222;
456.6000;0.1587;-0.1102;
456.9000;0.1604;-0.1078;
457.2000;0.1604;-0.1102;
457.5000;0.1612;-0.1030;
457.8000;0.1612;-0.1054;
458.1000;0.1579;-0.1102;
458.4000;0.1644;-0.0839;
458.7000;0.1595;-0.1054;
459.0000;0.1693;-0.0767;
459.3000;0.1579;-0.1102;
459.6000;0.1571;-0.1102;
459.9000;0.1604;-0.1030;
460.2000;0.1571;-0.1030;
460.5000;0.1579;-0.1054;
460.8000;0.1595;-0.0982;
461.1000;0.1579;-0.1030;
461.4000;0.1604;-0.0982;
461.7000;0.1587;-0.0982;
462.0000;0.1579;-0.0958;
462.3000;0.1587;-0.0982;
462.6000;0.1587;-0.0934;
462.9000;0.1587;-0.1006;
463.2000;0.1587;-0.1030;
463.5000;0.1604;-0.0934;
463.8000;0.1579;-0.1054;
464.1000;0.1571;-0.1054;
464.4000;0.1604;-0.0958;
464.7000;0.1612;-0.1030;
465.0000;0.1579;-0.1102;
465.3000;0.1595;-0.1078;
465.6000;0.1587;-0.1126;
465.9000;0.1555;-0.1222;
466.2000;0.1644;-0.0982;
466.5000;0.1571;-0.1126;
466.8000;0.1604;-0.1030;
467.1000;0.1579;-0.1078;
467.4000;0.1612;-0.1102;
467.7000;0.1604;-0.1198;
468.0000;0.1555;-0.1270;
468.3000;0.1595;-0.1198;
468.6000;0.1538;-0.1246;
468.9000;0.1604;-0.1126;
469.2000;0.1604;-0.1054;
469.5000;0.1579;-0.1150;
469.8000;0.1587;-0.1126;
470.1000;0.1604;-0.1030;
470.4000;0.1587;-0.1126;
470.7000;0.1571;-0.1150;
471.0000;0.1563;-0.1222;
471.3000;0.1587;-0.1222;
471.6000;0.1587;-0.1222;
471.9000;0.1604;-0.1270;
472.2000;0.1563;-0.1318;
472.5000;0.1571;-0.1246;
472.8000;0.1595;-0.1174;
473.1000;0.1595;-0.1006;
473.4000;0.1579;-0.1054;
473.7000;0.1595;-0.1030;
474.0000;0.1555;-0.1102;
474.3000;0.1587;-0.1006;
474.6000;0.1579;-0.1006;
474.9000;0.1595;-0.1030;
475.2000;0.1669;-0.0863;
475.5000;0.1579;-0.1078;
475.8000;0.1571;-0.1102;
476.1000;0.1555;-0.1126;
476.4000;0.1579;-0.1078;
476.7000;0.1595;-0.1054;
477.0000;0.1612;-0.1006;
477.3000;0.1587;-0.1102;
477.6000;0.1587;-0.1126;
477.9000;0.1587;-0.1078;
478.2000;0.1563;-0.1078;
478.5000;0.1579;-0.0958;
478.8000;0.1579;-0.0958;
479.1000;0.1571;-0.0910;
479.4000;0.1595;-0.0839;
479.7000;0.1571;-0.0743;
480.0000;0.1595;-0.0767;
480.3000;0.1579;-0.0839;
480.6000;0.1587;-0.0815;
480.9000;0.1579;-0.0767;
481.2000;0.1579;-0.0791;
481.5000;0.1571;-0.0791;
481.8000;0.1595;-0.0791;
482.1000;0.1587;-0.0743;
482.4000;0.1587;-0.0815;
482.7000;0.1587;-0.0815;
483.0000;0.1636;-0.0551;
483.3000;0.1620;-0.0623;
483.6000;0.1579;-0.0767;
483.9000;0.1538;-0.0839;
484.2000;0.1555;-0.0815;
484.5000;0.1604;-0.0719;
484.8000;0.1595;-0.0767;
485.1000;0.1595;-0.0815;
485.4000;0.1604;-0.0815;
485.7000;0.1612;-0.0839;
486.0000;0.1644;-0.0767;
486.3000;0.1587;-0.0863;
486.6000;0.1579;-0.0910;
486.9000;0.1579;-0.0887;
487.2000;0.1571;-0.0934;
487.5000;0.1579;-0.0910;
487.8000;0.1587;-0.0815;
488.1000;0.1604;-0.0719;
488.4000;0.1595;-0.0791;
488.7000;0.1612;-0.0791;
489.0000;0.1587;-0.0791;
489.3000;0.1571;-0.0839;
489.6000;0.1555;-0.1006;
489.9000;0.1587;-0.0934;
490.2000;0.1555;-0.1102;
490.5000;0.1579;-0.1102;
490.8000;0.1669;-0.0791;
491.1000;0.1571;-0.1030;
491.4000;0.1571;-0.0958;
491.7000;0.1457;-0.1246;
492.0000;0.1571;-0.0934;
492.3000;0.1579;-0.0982;
492.6000;0.1547;-0.1102;
492.9000;0.1579;-0.1030;
493.2000;0.1612;-0.1054;
493.5000;0.1604;-0.1078;
493.8000;0.1498;-0.1390;
494.1000;0.1587;-0.1102;
494.4000;0.1587;-0.1054;
494.7000;0.1579;-0.1054;
495.0000;0.1498;-0.1270;
495.3000;0.1604;-0.0958;
495.6000;0.1587;-0.0958;
495.9000;0.1579;-0.0934;
496.2000;0.1587;-0.0839;
496.5000;0.1571;-0.0910;
496.8000;0.1563;-0.0934;
497.1000;0.1579;-0.0839;
497.4000;0.1604;-0.0910;
497.7000;0.1514;-0.1126;
498.0000;0.1595;-0.0982;
498.3000;0.1595;-0.0982;
498.6000;0.1579;-0.1054;
498.9000;0.1571;-0.0982;
499.2000;0.1571;-0.0910;
499.5000;0.1604;-0.0910;
499.8000;0.1587;-0.0982;
500.1000;0.1595;-0.0982;
500.4000;0.1481;-0.1294;
500.7000;0.1571;-0.1054;
501.0000;0.1587;-0.1006;
501.3000;0.1701;-0.0767;
501.6000;0.1555;-0.1150;
501.9000;0.1579;-0.1102;
502.2000;0.1587;-0.1006;
502.5000;0.1579;-0.1006;
502.8000;0.1579;-0.1054;
503.1000;0.1571;-0.1126;
503.4000;0.1547;-0.1078;
503.7000;0.1563;-0.1006;
504.0000;0.1595;-0.0982;
504.3000;0.1571;-0.1054;
504.6000;0.1571;-0.0982;
504.9000;0.1514;-0.1054;
505.2000;0.1595;-0.0863;
505.5000;0.1595;-0.0934;
505.8000;0.1628;-0.0791;
506.1000;0.1612;-0.0767;
506.4000;0.1604;-0.0839;
506.7000;0.1661;-0.0527;
507.0000;0.1579;-0.0743;
507.3000;0.1498;-0.0982;
507.6000;0.1595;-0.0719;
507.9000;0.1571;-0.0743;
508.2000;0.1587;-0.0647;
508.5000;0.1595;-0.0671;
508.8000;0.1612;-0.0695;
509.1000;0.1595;-0.0743;
509.4000;0.1563;-0.0839;
509.7000;0.1579;-0.0910;
510.0000;0.1473;-0.1174;
510.3000;0.1604;-0.0910;
510.6000;0.1620;-0.0958;
510.9000;0.1628;-0.0910;
511.2000;0.1604;-0.0934;
511.5000;0.1620;-0.0934;
511.8000;0.1587;-0.1006;
512.1000;0.1595;-0.1078;
512.4000;0.1571;-0.1078;
512.7000;0.1571;-0.1126;
513.0000;0.1522;-0.1246;
513.3000;0.1604;-0.0934;
513.6000;0.1563;-0.0982;
513.9000;0.1490;-0.1246;
514.2000;0.1547;-0.1102;
514.5000;0.1587;-0.1078;
514.8000;0.1595;-0.1030;
515.1000;0.1579;-0.1006;
515.4000;0.1604;-0.0958;
515.7000;0.1587;-0.0982;
516.0000;0.1579;-0.1006;
516.3000;0.1612;-0.0910;
516.6000;0.1595;-0.0910;
516.9000;0.1661;-0.0719;
517.2000;0.1579;-0.1054;
517.5000;0.1571;-0.1006;
517.8000;0.1571;-0.0934;
518.1000;0.1579;-0.0958;
518.4000;0.1595;-0.0910;
518.7000;0.1595;-0.0958;
519.0000;0.1612;-0.0910;
519.3000;0.1587;-0.1006;
519.6000;0.1595;-0.0982;
519.9000;0.1547;-0.1126;
520.2000;0.1620;-0.0887;
520.5000;0.1587;-0.0982;
520.8000;0.1612;-0.0982;
521.1000;0.1587;-0.0934;
521.4000;0.1595;-0.0887;
521.7000;0.1595;-0.0934;
522.0000;0.1595;-0.1006;
522.3000;0.1595;-0.0934;
522.6000;0.1579;-0.0887;
522.9000;0.1604;-0.0743;
523.2000;0.1571;-0.0743;
523.5000;0.1620;-0.0647;
523.8000;0.1571;-0.0791;
524.1000;0.1579;-0.0839;
524.4000;0.1563;-0.0934;
524.7000;0.1612;-0.0791;
525.0000;0.1555;-0.0791;
525.3000;0.1571;-0.0815;
525.6000;0.1579;-0.0863;
525.9000;0.1604;-0.0887;
526.2000;0.1587;-0.0982;
526.5000;0.1587;-0.1030;
526.8000;0.1595;-0.1006;
527.1000;0.1612;-0.0934;
527.4000;0.1547;-0.1030;
527.7000;0.1718;-0.0599;
528.0000;0.1571;-0.1078;
528.3000;0.1620;-0.0982;
528.6000;0.1604;-0.1006;
528.9000;0.1571;-0.1174;
529.2000;0.1563;-0.1222;
529.5000;0.1579;-0.1150;
529.8000;0.1612;-0.1006;
530.1000;0.1604;-0.0934;
530.4000;0.1669;-0.0791;
530.7000;0.1644;-0.0743;
531.0000;0.1563;-0.0839;
531.3000;0.1563;-0.0719;
531.6000;0.1661;-0.0527;
531.9000;0.1587;-0.0719;
532.2000;0.1612;-0.0743;
532.5000;0.1571;-0.0767;
532.8000;0.1612;-0.0647;
533.1000;0.1579;-0.0671;
533.4000;0.1579;-0.0743;
533.7000;0.1571;-0.0791;
534.0000;0.1685;-0.0479;
534.3000;0.1563;-0.0839;
534.6000;0.1538;-0.0958;
534.9000;0.1587;-0.0791;
535.2000;0.1595;-0.0839;
535.5000;0.1587;-0.0934;
535.8000;0.1538;-0.1054;
536.1000;0.1457;-0.1198;
536.4000;0.1571;-0.0910;
536.7000;0.1587;-0.0887;
537.0000;0.1547;-0.1006;
537.3000;0.1595;-0.0887;
537.6000;0.1595;-0.0887;
537.9000;0.1604;-0.0910;
538.2000;0.1612;-0.0887;
538.5000;0.1579;-0.0958;
538.8000;0.1734;-0.0503;
539.1000;0.1595;-0.0887;
539.4000;0.1579;-0.1054;
539.7000;0.1547;-0.1126;
540.0000;0.1563;-0.1126;
540.3000;0.1579;-0.1078;
540.6000;0.1587;-0.1030;
540.9000;0.1587;-0.1006;
541.2000;0.1579;-0.1030;
541.5000;0.1571;-0.1030;
541.8000;0.1547;-0.1054;
542.1000;0.1612;-0.0910;
542.4000;0.1571;-0.1054;
542.7000;0.1587;-0.1006;
543.0000;0.1587;-0.1054;
543.3000;0.1620;-0.0958;
543.6000;0.1595;-0.0934;
543.9000;0.1579;-0.0982;
544.2000;0.1587;-0.1054;
544.5000;0.1579;-0.1030;
544.8000;0.1571;-0.0934;
545.1000;0.1587;-0.0934;
545.4000;0.1595;-0.0934;
545.7000;0.1571;-0.1006;
546.0000;0.1579;-0.1054;
546.3000;0.1579;-0.1054;
546.6000;0.1579;-0.0982;
546.9000;0.1563;-0.1030;
547.2000;0.1579;-0.0958;
547.5000;0.1579;-0.0982;
547.8000;0.1587;-0.0958;
548.1000;0.1571;-0.0982;
548.4000;0.1587;-0.0982;
548.7000;0.1595;-0.0791;
549.0000;0.1595;-0.0767;
549.3000;0.1628;-0.0815;
549.6000;0.1579;-0.0982;
549.9000;0.1604;-0.0934;
550.2000;0.1514;-0.1126;
550.5000;0.1604;-0.0887;
550.8000;0.1587;-0.0815;
551.1000;0.1579;-0.0815;
551.4000;0.1579;-0.0863;
551.7000;0.1604;-0.0695;
552.0000;0.1652;-0.0527;
552.3000;0.1595;-0.0767;
552.6000;0.1547;-0.0910;
552.9000;0.1612;-0.0815;
553.2000;0.1587;-0.0934;
553.5000;0.1587;-0.0958;
553.8000;0.1571;-0.0958;
554.1000;0.1571;-0.1078;
554.4000;0.1644;-0.0839;
554.7000;0.1571;-0.1030;
555.0000;0.1490;-0.1342;
555.3000;0.1579;-0.1030;
555.6000;0.1587;-0.0934;
555.9000;0.1587;-0.1006;
556.2000;0.1579;-0.1054;
556.5000;0.1620;-0.1030;
556.8000;0.1612;-0.1126;
557.1000;0.1579;-0.1174;
557.4000;0.1587;-0.1102;
557.7000;0.1579;-0.1102;
558.0000;0.1604;-0.1030;
558.3000;0.1587;-0.1102;
558.6000;0.1563;-0.1174;
558.9000;0.1579;-0.1174;
559.2000;0.1579;-0.1174;
559.5000;0.1555;-0.1150;
559.8000;0.1555;-0.1222;
560.1000;0.1538;-0.1294;
560.4000;0.1595;-0.1150;
560.7000;0.1595;-0.1222;
561.0000;0.1604;-0.1126;
561.3000;0.1612;-0.1126;
561.6000;0.1652;-0.1102;
561.9000;0.1579;-0.1318;
562.2000;0.1587;-0.1342;
562.5000;0.1571;-0.1318;
562.8000;0.1579;-0.1294;
563.1000;0.1547;-0.1342;
563.4000;0.1587;-0.1318;
563.7000;0.1644;-0.1102;
564.0000;0.1595;-0.1246;
564.3000;0.1595;-0.1246;
564.6000;0.1628;-0.1078;
564.9000;0.1587;-0.1174;
565.2000;0.1636;-0.1054;
565.5000;0.1595;-0.1198;
565.8000;0.1595;-0.1270;
566.1000;0.1644;-0.1246;
566.4000;0.1595;-0.1342;
566.7000;0.1563;-0.1390;
567.0000;0.1579;-0.1366;
567.3000;0.1595;-0.1318;
567.6000;0.1587;-0.1270;
567.9000;0.1579;-0.1150;
568.2000;0.1579;-0.1150;
568.5000;0.1587;-0.1078;
568.8000;0.1595;-0.1102;
569.1000;0.1587;-0.1102;
569.4000;0.1571;-0.1102;
569.7000;0.1612;-0.1030;
570.0000;0.1563;-0.1054;
570.3000;0.1563;-0.1006;
570.6000;0.1579;-0.0982;
570.9000;0.1587;-0.1006;
571.2000;0.1693;-0.0743;
571.5000;0.1579;-0.1078;
571.8000;0.1604;-0.1030;
572.1000;0.1571;-0.1054;
572.4000;0.1595;-0.0982;
572.7000;0.1587;-0.1030;
573.0000;0.1498;-0.1270;
573.3000;0.1620;-0.1102;
573.6000;0.1587;-0.1174;
573.9000;0.1604;-0.1078;
574.2000;0.1620;-0.1102;
574.5000;0.1571;-0.1270;
574.8000;0.1604;-0.1174;
575.1000;0.1555;-0.1366;
575.4000;0.1547;-0.1438;
575.7000;0.1587;-0.1366;
576.0000;0.1669;-0.1246;
576.3000;0.1579;-0.1438;
576.6000;0.1595;-0.1366;
576.9000;0.1628;-0.1246;
577.2000;0.1587;-0.1414;
577.5000;0.1595;-0.1318;
577.8000;0.1579;-0.1318;
578.1000;0.1595;-0.1270;
578.4000;0.1587;-0.1270;
578.7000;0.1587;-0.1246;
579.0000;0.1587;-0.1126;
579.3000;0.1579;-0.1174;
579.6000;0.1579;-0.1174;
579.9000;0.1579;-0.1102;
580.2000;0.1595;-0.1150;
580.5000;0.1595;-0.1078;
580.8000;0.1595;-0.1078;
581.1000;0.1595;-0.1054;
581.4000;0.1571;-0.1174;
581.7000;0.1579;-0.1102;
582.0000;0.1587;-0.1102;
582.3000;0.1587;-0.1030;
582.6000;0.1538;-0.1222;
582.9000;0.1571;-0.1126;
583.2000;0.1604;-0.1030;
583.5000;0.1604;-0.1102;
583.8000;0.1595;-0.1174;
584.1000;0.1595;-0.1222;
584.4000;0.1587;-0.1318;
584.7000;0.1604;-0.1198;
585.0000;0.1587;-0.1294;
585.3000;0.1587;-0.1246;
585.6000;0.1579;-0.1222;
585.9000;0.1571;-0.1246;
586.2000;0.1612;-0.1054;
586.5000;0.1595;-0.1030;
586.8000;0.1579;-0.1030;
587.1000;0.1595;-0.1054;
587.4000;0.1563;-0.1222;
587.7000;0.1595;-0.1174;
588.0000;0.1587;-0.1198;
588.3000;0.1595;-0.1246;
588.6000;0.1579;-0.1198;
588.9000;0.1587;-0.1222;
589.2000;0.1514;-0.1462;
589.5000;0.1587;-0.1318;
589.8000;0.1587;-0.1342;
590.1000;0.1587;-0.1342;
590.4000;0.1612;-0.1318;
590.7000;0.1579;-0.1342;
591.0000;0.1595;-0.1294;
591.3000;0.1587;-0.1198;
591.6000;0.1587;-0.1198;
591.9000;0.1579;-0.1150;
592.2000;0.1661;-0.0982;
592.5000;0.1612;-0.1126;
592.8000;0.1595;-0.1150;
593.1000;0.1579;-0.1150;
593.4000;0.1587;-0.1222;
593.7000;0.1579;-0.1294;
594.0000;0.1604;-0.1270;
594.3000;0.1587;-0.1318;
594.6000;0.1587;-0.1318;
594.9000;0.1579;-0.1246;
595.2000;0.1669;-0.1030;
595.5000;0.1595;-0.1126;
595.8000;0.1579;-0.1102;
596.1000;0.1571;-0.1222;
596.4000;0.1587;-0.1174;
596.7000;0.1604;-0.1150;
597.0000;0.1595;-0.1222;
597.3000;0.1587;-0.1318;
597.6000;0.1595;-0.1318;
597.9000;0.1587;-0.1270;
598.2000;0.1595;-0.1174;
598.5000;0.1579;-0.1102;
598.8000;0.1571;-0.1126;
599.1000;0.1628;-0.1078;
599.4000;0.1587;-0.1150;
599.7000;0.1587;-0.1126;
600.0000;0.1327;-0.1869;
600.3000;0.1579;-0.1294;
600.6000;0.1595;-0.1222;
600.9000;0.1579;-0.1342;
601.2000;0.1587;-0.1486;
601.5000;0.1571;-0.1677;
601.8000;0.1563;-0.1725;
602.1000;0.1514;-0.2013;
602.4000;0.1555;-0.1989;
602.7000;0.1538;-0.2061;
603.0000;0.1555;-0.2085;
603.3000;0.1538;-0.2204;
603.6000;0.1538;-0.2324;
603.9000;0.1547;-0.2468;
604.2000;0.1563;-0.2468;
604.5000;0.1522;-0.2588;
604.8000;0.1514;-0.2540;
605.1000;0.1433;-0.2731;
605.4000;0.1522;-0.2588;
605.7000;0.1547;-0.2588;
606.0000;0.1465;-0.2827;
606.3000;0.1506;-0.2755;
606.6000;0.1514;-0.2827;
606.9000;0.1522;-0.2779;
607.2000;0.1522;-0.2684;
607.5000;0.1498;-0.2803;
607.8000;0.1498;-0.2731;
608.1000;0.1522;-0.2612;
608.4000;0.1538;-0.2468;
608.7000;0.1506;-0.2636;
609.0000;0.1498;-0.2707;
609.3000;0.1498;-0.2755;
609.6000;0.1514;-0.2707;
609.9000;0.1506;-0.2755;
610.2000;0.1522;-0.2827;
610.5000;0.1506;-0.2923;
610.8000;0.1514;-0.2995;
611.1000;0.1555;-0.2851;
611.4000;0.1514;-0.2875;
611.7000;0.1571;-0.2755;
612.0000;0.1498;-0.2923;
612.3000;0.1506;-0.2923;
612.6000;0.1506;-0.2995;
612.9000;0.1465;-0.3115;
613.2000;0.1595;-0.2731;
613.5000;0.1538;-0.2851;
613.8000;0.1628;-0.2588;
614.1000;0.1498;-0.2971;
614.4000;0.1506;-0.2899;
614.7000;0.1514;-0.2947;
615.0000;0.1506;-0.2995;
615.3000;0.1498;-0.3019;
615.6000;0.1506;-0.2875;
615.9000;0.1587;-0.2684;
616.2000;0.1490;-0.3019;
616.5000;0.1490;-0.3019;
616.8000;0.1506;-0.3115;
617.1000;0.1498;-0.3115;
617.4000;0.1498;-0.3091;
617.7000;0.1490;-0.3043;
618.0000;0.1514;-0.2995;
618.3000;0.1514;-0.3019;
618.6000;0.1522;-0.3067;
618.9000;0.1368;-0.3378;
619.2000;0.1514;-0.2995;
619.5000;0.1498;-0.2971;
619.8000;0.1498;-0.3043;
620.1000;0.1563;-0.2971;
620.4000;0.1506;-0.3211;
620.7000;0.1490;-0.3354;
621.0000;0.1498;-0.3187;
621.3000;0.1498;-0.3139;
621.6000;0.1498;-0.3115;
621.9000;0.1490;-0.3211;
622.2000;0.1514;-0.3211;
622.5000;0.1522;-0.3187;
622.8000;0.1506;-0.3211;
623.1000;0.1522;-0.3235;
623.4000;0.1506;-0.3211;
623.7000;0.1514;-0.3211;
624.0000;0.1506;-0.3283;
624.3000;0.1498;-0.3378;
624.6000;0.1498;-0.3450;
624.9000;0.1490;-0.3474;
625.2000;0.1514;-0.3426;
625.5000;0.1498;-0.3450;
625.8000;0.1490;-0.3402;
626.1000;0.1481;-0.3498;
626.4000;0.1506;-0.3426;
626.7000;0.1490;-0.3402;
627.0000;0.1481;-0.3402;
627.3000;0.1481;-0.3378;
627.6000;0.1506;-0.3259;
627.9000;0.1481;-0.3330;
628.2000;0.1595;-0.2899;
628.5000;0.1490;-0.3235;
628.8000;0.1514;-0.3211;
629.1000;0.1433;-0.3450;
629.4000;0.1506;-0.3211;
629.7000;0.1490;-0.3235;
630.0000;0.1555;-0.2995;
630.3000;0.1522;-0.3091;
630.6000;0.1392;-0.3450;
630.9000;0.1490;-0.3139;
631.2000;0.1498;-0.3115;
631.5000;0.1498;-0.3019;
631.8000;0.1481;-0.3067;
632.1000;0.1498;-0.2995;
632.4000;0.1490;-0.2923;
632.7000;0.1506;-0.2923;
633.0000;0.1481;-0.2995;
633.3000;0.1481;-0.3067;
633.6000;0.1506;-0.2899;
633.9000;0.1457;-0.2899;
634.2000;0.1530;-0.2684;
634.5000;0.1490;-0.2827;
634.8000;0.1449;-0.3019;
635.1000;0.1530;-0.2803;
635.4000;0.1473;-0.3067;
635.7000;0.1481;-0.3139;
636.0000;0.1498;-0.3091;
636.3000;0.1376;-0.3450;
636.6000;0.1498;-0.3067;
636.9000;0.1490;-0.3019;
637.2000;0.1490;-0.3139;
637.5000;0.1490;-0.3139;
637.8000;0.1498;-0.3139;
638.1000;0.1473;-0.3259;
638.4000;0.1498;-0.3139;
638.7000;0.1498;-0.3139;
639.0000;0.1498;-0.3043;
639.3000;0.1392;-0.3259;
639.6000;0.1498;-0.2947;
639.9000;0.1481;-0.3115;
640.2000;0.1522;-0.2995;
640.5000;0.1498;-0.3139;
640.8000;0.1506;-0.3235;
641.1000;0.1506;-0.3187;
641.4000;0.1514;-0.3235;
641.7000;0.1473;-0.3426;
642.0000;0.1514;-0.3283;
642.3000;0.1506;-0.3259;
642.6000;0.1465;-0.3354;
642.9000;0.1481;-0.3283;
643.2000;0.1506;-0.3235;
643.5000;0.1498;-0.3187;
643.8000;0.1473;-0.3259;
644.1000;0.1530;-0.3163;
644.4000;0.1547;-0.3115;
644.7000;0.1481;-0.3211;
645.0000;0.1514;-0.3187;
645.3000;0.1473;-0.3330;
645.6000;0.1514;-0.3163;
645.9000;0.1498;-0.3211;
646.2000;0.1425;-0.3498;
646.5000;0.1506;-0.3283;
646.8000;0.1490;-0.3354;
647.1000;0.1498;-0.3402;
647.4000;0.1547;-0.3283;
647.7000;0.1514;-0.3283;
648.0000;0.1530;-0.3211;
648.3000;0.1481;-0.3283;
648.6000;0.1449;-0.3306;
648.9000;0.1490;-0.3211;
649.2000;0.1465;-0.3330;
649.5000;0.1473;-0.3306;
649.8000;0.1498;-0.3378;
650.1000;0.1490;-0.3306;
650.4000;0.1473;-0.3402;
650.7000;0.1490;-0.3426;
651.0000;0.1563;-0.3187;
651.3000;0.1490;-0.3354;
651.6000;0.1441;-0.3402;
651.9000;0.1481;-0.3211;
652.2000;0.1481;-0.3211;
652.5000;0.1490;-0.3354;
652.8000;0.1490;-0.3330;
653.1000;0.1490;-0.3330;
653.4000;0.1473;-0.3306;
653.7000;0.1547;-0.3139;
654.0000;0.1530;-0.3235;
654.3000;0.1490;-0.3283;
654.6000;0.1498;-0.3283;
654.9000;0.1490;-0.3259;
655.2000;0.1538;-0.3211;
655.5000;0.1473;-0.3330;
655.8000;0.1555;-0.3163;
656.1000;0.1506;-0.3235;
656.4000;0.1490;-0.3330;
656.7000;0.1514;-0.3283;
657.0000;0.1490;-0.3378;
657.3000;0.1498;-0.3235;
657.6000;0.1473;-0.3378;
657.9000;0.1498;-0.3259;
658.2000;0.1481;-0.3259;
658.5000;0.1498;-0.3163;
658.8000;0.1498;-0.3235;
659.1000;0.1481;-0.3139;
659.4000;0.1498;-0.3139;
659.7000;0.1473;-0.3091;
660.0000;0.1498;-0.3043;
660.3000;0.1530;-0.2971;
660.6000;0.1481;-0.3115;
660.9000;0.1473;-0.3091;
661.2000;0.1416;-0.3235;
661.5000;0.1351;-0.3450;
661.8000;0.1522;-0.3043;
662.1000;0.1538;-0.2971;
662.4000;0.1457;-0.3091;
662.7000;0.1522;-0.2971;
663.0000;0.1481;-0.3139;
663.3000;0.1416;-0.3402;
663.6000;0.1498;-0.3235;
663.9000;0.1481;-0.3163;
664.2000;0.1473;-0.3235;
664.5000;0.1490;-0.3187;
664.8000;0.1538;-0.2995;
665.1000;0.1392;-0.3330;
665.4000;0.1465;-0.3091;
665.7000;0.1490;-0.3019;
666.0000;0.1514;-0.2971;
666.3000;0.1425;-0.3187;
666.6000;0.1400;-0.3306;
666.9000;0.1490;-0.3043;
667.2000;0.1522;-0.3043;
667.5000;0.1498;-0.3115;
667.8000;0.1506;-0.3163;
668.1000;0.1490;-0.3139;
668.4000;0.1473;-0.3283;
668.7000;0.1498;-0.3139;
669.0000;0.1587;-0.2875;
669.3000;0.1490;-0.3163;
669.6000;0.1490;-0.3163;
669.9000;0.1473;-0.3187;
670.2000;0.1514;-0.3115;
670.5000;0.1522;-0.3067;
670.8000;0.1538;-0.2995;
671.1000;0.1506;-0.3115;
671.4000;0.1506;-0.3235;
671.7000;0.1514;-0.3283;
672.0000;0.1498;-0.3330;
672.3000;0.1481;-0.3330;
672.6000;0.1506;-0.3259;
672.9000;0.1465;-0.3426;
673.2000;0.1490;-0.3283;
673.5000;0.1522;-0.3211;
673.8000;0.1506;-0.3235;
674.1000;0.1530;-0.3211;
674.4000;0.1481;-0.3378;
674.7000;0.1457;-0.3402;
675.0000;0.1498;-0.3354;
675.3000;0.1522;-0.3235;
675.6000;0.1473;-0.3330;
675.9000;0.1498;-0.3306;
676.2000;0.1490;-0.3283;
676.5000;0.1473;-0.3283;
676.8000;0.1490;-0.3211;
677.1000;0.1563;-0.3043;
677.4000;0.1514;-0.3115;
677.7000;0.1514;-0.3163;
678.0000;0.1506;-0.3163;
678.3000;0.1506;-0.3091;
678.6000;0.1481;-0.3115;
678.9000;0.1498;-0.3019;
679.2000;0.1481;-0.3163;
679.5000;0.1481;-0.3187;
679.8000;0.1490;-0.3187;
680.1000;0.1473;-0.3235;
680.4000;0.1481;-0.3306;
680.7000;0.1506;-0.3259;
681.0000;0.1490;-0.3330;
681.3000;0.1522;-0.3211;
681.6000;0.1490;-0.3354;
681.9000;0.1457;-0.3378;
682.2000;0.1490;-0.3330;
682.5000;0.1514;-0.3283;
682.8000;0.1506;-0.3259;
683.1000;0.1465;-0.3259;
683.4000;0.1498;-0.3091;
683.7000;0.1530;-0.3019;
684.0000;0.1351;-0.3402;
684.3000;0.1587;-0.2875;
684.6000;0.1481;-0.3139;
684.9000;0.1506;-0.3115;
685.2000;0.1425;-0.3211;
685.5000;0.1538;-0.2995;
685.8000;0.1416;-0.3330;
686.1000;0.1490;-0.3043;
686.4000;0.1555;-0.2827;
686.7000;0.1465;-0.3067;
687.0000;0.1498;-0.3043;
687.3000;0.1498;-0.3139;
687.6000;0.1490;-0.3139;
687.9000;0.1506;-0.3091;
688.2000;0.1522;-0.3043;
688.5000;0.1522;-0.3019;
688.8000;0.1498;-0.3139;
689.1000;0.1498;-0.3283;
689.4000;0.1490;-0.3211;
689.7000;0.1490;-0.3211;
690.0000;0.1490;-0.3211;
690.3000;0.1498;-0.3211;
690.6000;0.1506;-0.3115;
690.9000;0.1506;-0.3091;
691.2000;0.1481;-0.3163;
691.5000;0.1473;-0.3163;
691.8000;0.1441;-0.3163;
692.1000;0.1368;-0.3378;
692.4000;0.1481;-0.3163;
692.7000;0.1457;-0.3163;
693.0000;0.1481;-0.3067;
693.3000;0.1563;-0.2731;
693.6000;0.1514;-0.2947;
693.9000;0.1473;-0.3115;
694.2000;0.1506;-0.3067;
694.5000;0.1465;-0.3211;
694.8000;0.1490;-0.3163;
695.1000;0.1416;-0.3378;
695.4000;0.1506;-0.3091;
695.7000;0.1490;-0.3091;
696.0000;0.1481;-0.3139;
696.3000;0.1457;-0.3139;
696.6000;0.1473;-0.3115;
696.9000;0.1490;-0.3139;
697.2000;0.1514;-0.3067;
697.5000;0.1473;-0.3163;
697.8000;0.1498;-0.3139;
698.1000;0.1579;-0.2947;
698.4000;0.1498;-0.3163;
698.7000;0.1473;-0.3259;
699.0000;0.1514;-0.3211;
699.3000;0.1490;-0.3235;
699.6000;0.1465;-0.3426;
699.9000;0.1481;-0.3498;
700.2000;0.1498;-0.3426;
700.5000;0.1498;-0.3378;
700.8000;0.1506;-0.3354;
701.1000;0.1359;-0.3738;
701.4000;0.1481;-0.3426;
701.7000;0.1465;-0.3474;
702.0000;0.1579;-0.3019;
702.3000;0.1490;-0.3211;
702.6000;0.1473;-0.3259;
702.9000;0.1490;-0.3235;
703.2000;0.1408;-0.3426;
703.5000;0.1514;-0.3187;
703.8000;0.1530;-0.3115;
704.1000;0.1481;-0.3235;
704.4000;0.1490;-0.3235;
704.7000;0.1514;-0.3139;
705.0000;0.1506;-0.3235;
705.3000;0.1490;-0.3354;
705.6000;0.1498;-0.3306;
705.9000;0.1522;-0.3235;
706.2000;0.1473;-0.3283;
706.5000;0.1449;-0.3354;
706.8000;0.1465;-0.3306;
707.1000;0.1498;-0.3283;
707.4000;0.1481;-0.3306;
707.7000;0.1481;-0.3283;
708.0000;0.1481;-0.3330;
708.3000;0.1636;-0.2947;
708.6000;0.1498;-0.3235;
708.9000;0.1490;-0.3211;
709.2000;0.1514;-0.3163;
709.5000;0.1425;-0.3330;
709.8000;0.1514;-0.3139;
710.1000;0.1473;-0.3235;
710.4000;0.1498;-0.3235;
710.7000;0.1481;-0.3235;
711.0000;0.1498;-0.3235;
711.3000;0.1506;-0.3235;
711.6000;0.1473;-0.3283;
711.9000;0.1465;-0.3283;
712.2000;0.1481;-0.3259;
712.5000;0.1490;-0.3235;
712.8000;0.1465;-0.3259;
713.1000;0.1465;-0.3211;
713.4000;0.1473;-0.3187;
713.7000;0.1498;-0.3115;
714.0000;0.1506;-0.3187;
714.3000;0.1506;-0.3187;
714.6000;0.1481;-0.3235;
714.9000;0.1514;-0.3163;
715.2000;0.1514;-0.3019;
715.5000;0.1498;-0.3019;
715.8000;0.1490;-0.3139;
716.1000;0.1400;-0.3354;
716.4000;0.1490;-0.3139;
716.7000;0.1473;-0.3235;
717.0000;0.1498;-0.3235;
717.3000;0.1481;-0.3259;
717.6000;0.1490;-0.3259;
717.9000;0.1490;-0.3283;
718.2000;0.1490;-0.3235;
718.5000;0.1481;-0.3330;
718.8000;0.1514;-0.3211;
719.1000;0.1490;-0.3235;
719.4000;0.1473;-0.3283;
719.7000;0.1506;-0.3235;
720.0000;0.1490;-0.3235;
720.3000;0.1498;-0.3211;
720.6000;0.1530;-0.3163;
720.9000;0.1473;-0.3235;
721.2000;0.1530;-0.3187;
721.5000;0.1498;-0.3259;
721.8000;0.1506;-0.3187;
722.1000;0.1530;-0.3115;
722.4000;0.1498;-0.3235;
722.7000;0.1498;-0.3211;
723.0000;0.1506;-0.3139;
723.3000;0.1473;-0.3115;
723.6000;0.1490;-0.2995;
723.9000;0.1481;-0.2971;
724.2000;0.1612;-0.2612;
724.5000;0.1498;-0.2923;
724.8000;0.1506;-0.2899;
725.1000;0.1506;-0.3019;
725.4000;0.1506;-0.3067;
725.7000;0.1481;-0.3091;
726.0000;0.1490;-0.3019;
726.3000;0.1514;-0.2947;
726.6000;0.1506;-0.3043;
726.9000;0.1522;-0.3067;
727.2000;0.1441;-0.3259;
727.5000;0.1384;-0.3426;
727.8000;0.1498;-0.3139;
728.1000;0.1498;-0.3211;
728.4000;0.1490;-0.3211;
728.7000;0.1490;-0.3235;
729.0000;0.1400;-0.3450;
729.3000;0.1457;-0.3235;
729.6000;0.1384;-0.3402;
729.9000;0.1514;-0.3139;
730.2000;0.1538;-0.3019;
730.5000;0.1408;-0.3259;
730.8000;0.1498;-0.3139;
731.1000;0.1506;-0.3211;
731.4000;0.1481;-0.3235;
731.7000;0.1457;-0.3330;
732.0000;0.1522;-0.3187;
732.3000;0.1498;-0.3259;
732.6000;0.1490;-0.3283;
732.9000;0.1490;-0.3235;
733.2000;0.1514;-0.3115;
733.5000;0.1498;-0.3187;
733.8000;0.1490;-0.3354;
734.1000;0.1465;-0.3378;
734.4000;0.1506;-0.3283;
734.7000;0.1490;-0.3354;
735.0000;0.1498;-0.3259;
735.3000;0.1490;-0.3235;
735.6000;0.1481;-0.3235;
735.9000;0.1465;-0.3259;
736.2000;0.1506;-0.3235;
736.5000;0.1473;-0.3354;
736.8000;0.1490;-0.3235;
737.1000;0.1441;-0.3259;
737.4000;0.1490;-0.3211;
737.7000;0.1612;-0.2875;
738.0000;0.1465;-0.3187;
738.3000;0.1579;-0.2899;
738.6000;0.1530;-0.3067;
738.9000;0.1498;-0.3187;
739.2000;0.1498;-0.3163;
739.5000;0.1490;-0.3187;
739.8000;0.1514;-0.3163;
740.1000;0.1490;-0.3187;
740.4000;0.1490;-0.3115;
740.7000;0.1473;-0.3187;
741.0000;0.1506;-0.3067;
741.3000;0.1473;-0.3163;
741.6000;0.1481;-0.3139;
741.9000;0.1498;-0.3187;
742.2000;0.1498;-0.3187;
742.5000;0.1522;-0.3187;
742.8000;0.1457;-0.3426;
743.1000;0.1612;-0.3067;
743.4000;0.1490;-0.3330;
743.7000;0.1473;-0.3283;
744.0000;0.1514;-0.3187;
744.3000;0.1514;-0.3259;
744.6000;0.1506;-0.3259;
744.9000;0.1498;-0.3211;
745.2000;0.1490;-0.3163;
745.5000;0.1481;-0.3139;
745.8000;0.1498;-0.3091;
746.1000;0.1481;-0.3139;
746.4000;0.1465;-0.3115;
746.7000;0.1490;-0.3091;
747.0000;0.1490;-0.3115;
747.3000;0.1522;-0.3139;
747.6000;0.1481;-0.3259;
747.9000;0.1490;-0.3283;
748.2000;0.1490;-0.3259;
748.5000;0.1490;-0.3235;
748.8000;0.1481;-0.3187;
749.1000;0.1498;-0.3163;
749.4000;0.1465;-0.3330;
749.7000;0.1457;-0.3259;
750.0000;0.1457;-0.3283;
750.3000;0.1473;-0.3211;
750.6000;0.1490;-0.3187;
750.9000;0.1473;-0.3235;
751.2000;0.1506;-0.3139;
751.5000;0.1506;-0.3187;
751.8000;0.1498;-0.3187;
752.1000;0.1481;-0.3211;
752.4000;0.1490;-0.3139;
752.7000;0.1555;-0.2851;
753.0000;0.1490;-0.3019;
753.3000;0.1514;-0.3043;
753.6000;0.1392;-0.3378;
753.9000;0.1425;-0.3211;
754.2000;0.1481;-0.3091;
754.5000;0.1416;-0.3211;
754.8000;0.1506;-0.2995;
755.1000;0.1498;-0.3043;
755.4000;0.1514;-0.3043;
755.7000;0.1481;-0.3187;
756.0000;0.1490;-0.3139;
756.3000;0.1498;-0.3091;
756.6000;0.1506;-0.3115;
756.9000;0.1457;-0.3259;
757.2000;0.1498;-0.3306;
757.5000;0.1506;-0.3378;
757.8000;0.1481;-0.3354;
758.1000;0.1498;-0.3378;
758.4000;0.1506;-0.3450;
758.7000;0.1506;-0.3378;
759.0000;0.1359;-0.3642;
759.3000;0.1481;-0.3330;
759.6000;0.1490;-0.3259;
759.9000;0.1498;-0.3259;
760.2000;0.1571;-0.3067;
760.5000;0.1506;-0.3330;
760.8000;0.1490;-0.3402;
761.1000;0.1425;-0.3546;
761.4000;0.1595;-0.2947;
761.7000;0.1441;-0.3354;
762.0000;0.1416;-0.3354;
762.3000;0.1376;-0.3450;
762.6000;0.1490;-0.3163;
762.9000;0.1522;-0.3187;
763.2000;0.1449;-0.3402;
763.5000;0.1481;-0.3259;
763.8000;0.1457;-0.3426;
764.1000;0.1579;-0.3115;
764.4000;0.1522;-0.3306;
764.7000;0.1490;-0.3354;
765.0000;0.1490;-0.3378;
765.3000;0.1490;-0.3330;
765.6000;0.1506;-0.3283;
765.9000;0.1481;-0.3187;
766.2000;0.1498;-0.3139;
766.5000;0.1506;-0.3115;
766.8000;0.1416;-0.3306;
767.1000;0.1490;-0.3163;
767.4000;0.1481;-0.3187;
767.7000;0.1498;-0.2995;
768.0000;0.1490;-0.3019;
768.3000;0.1490;-0.3115;
768.6000;0.1498;-0.3163;
768.9000;0.1506;-0.3091;
769.2000;0.1490;-0.3091;
769.5000;0.1490;-0.3139;
769.8000;0.1490;-0.3187;
770.1000;0.1490;-0.3259;
770.4000;0.1498;-0.3283;
770.7000;0.1498;-0.3306;
771.0000;0.1498;-0.3235;
771.3000;0.1473;-0.3259;
771.6000;0.1490;-0.3306;
771.9000;0.1481;-0.3330;
772.2000;0.1514;-0.3115;
772.5000;0.1490;-0.3259;
772.8000;0.1506;-0.3163;
773.1000;0.1522;-0.3091;
773.4000;0.1498;-0.3115;
773.7000;0.1465;-0.3211;
774.0000;0.1498;-0.3067;
774.3000;0.1498;-0.3067;
774.6000;0.1514;-0.3139;
774.9000;0.1481;-0.3211;
775.2000;0.1498;-0.3211;
775.5000;0.1490;-0.3211;
775.8000;0.1644;-0.2827;
776.1000;0.1416;-0.3498;
776.4000;0.1481;-0.3235;
776.7000;0.1465;-0.3259;
777.0000;0.1555;-0.2923;
777.3000;0.1359;-0.3402;
777.6000;0.1498;-0.3091;
777.9000;0.1425;-0.3378;
778.2000;0.1408;-0.3354;
778.5000;0.1538;-0.2923;
778.8000;0.1490;-0.3115;
779.1000;0.1506;-0.3091;
779.4000;0.1506;-0.3163;
779.7000;0.1498;-0.3211;
780.0000;0.1481;-0.3235;
780.3000;0.1490;-0.3235;
780.6000;0.1506;-0.3163;
780.9000;0.1457;-0.3235;
781.2000;0.1514;-0.3043;
781.5000;0.1498;-0.3067;
781.8000;0.1498;-0.3043;
782.1000;0.1498;-0.3091;
782.4000;0.1490;-0.3115;
782.7000;0.1498;-0.3091;
783.0000;0.1473;-0.3163;
783.3000;0.1457;-0.3187;
783.6000;0.1530;-0.2995;
783.9000;0.1465;-0.3163;
784.2000;0.1490;-0.3115;
784.5000;0.1490;-0.3091;
784.8000;0.1473;-0.3043;
785.1000;0.1498;-0.3019;
785.4000;0.1441;-0.3187;
785.7000;0.1449;-0.3187;
786.0000;0.1506;-0.3139;
786.3000;0.1506;-0.3139;
786.6000;0.1473;-0.3211;
786.9000;0.1522;-0.3067;
787.2000;0.1465;-0.3163;
787.5000;0.1498;-0.3091;
787.8000;0.1490;-0.3091;
788.1000;0.1490;-0.3067;
788.4000;0.1506;-0.3043;
788.7000;0.1481;-0.3091;
789.0000;0.1490;-0.3139;
789.3000;0.1449;-0.3211;
789.6000;0.1506;-0.3115;
789.9000;0.1498;-0.3187;
790.2000;0.1498;-0.3211;
790.5000;0.1547;-0.3043;
790.8000;0.1490;-0.3211;
791.1000;0.1481;-0.3187;
791.4000;0.1490;-0.3139;
791.7000;0.1506;-0.3091;
792.0000;0.1514;-0.3115;
792.3000;0.1506;-0.3187;
792.6000;0.1498;-0.3163;
792.9000;0.1498;-0.3139;
793.2000;0.1481;-0.3211;
793.5000;0.1514;-0.3067;
793.8000;0.1506;-0.3091;
794.1000;0.1571;-0.2923;
794.4000;0.1490;-0.3163;
794.7000;0.1514;-0.3115;
795.0000;0.1522;-0.3043;
795.3000;0.1465;-0.3139;
795.6000;0.1481;-0.3115;
795.9000;0.1473;-0.3187;
796.2000;0.1481;-0.3115;
796.5000;0.1490;-0.3043;
796.8000;0.1473;-0.3091;
797.1000;0.1498;-0.3139;
797.4000;0.1473;-0.3235;
797.7000;0.1506;-0.3163;
798.0000;0.1498;-0.3139;
798.3000;0.1506;-0.3115;
798.6000;0.1481;-0.3115;
798.9000;0.1522;-0.3067;
799.2000;0.1481;-0.3139;
799.5000;0.1490;-0.3115;
799.8000;0.1547;-0.2995;
800.1000;0.1522;-0.3043;
800.4000;0.1481;-0.3139;
800.7000;0.1465;-0.3163;
801.0000;0.1368;-0.3354;
801.3000;0.1490;-0.3019;
801.6000;0.1481;-0.2971;
801.9000;0.1473;-0.2995;
802.2000;0.1498;-0.2995;
802.5000;0.1457;-0.3139;
802.8000;0.1571;-0.2875;
803.1000;0.1506;-0.3043;
803.4000;0.1481;-0.3163;
803.7000;0.1490;-0.3067;
804.0000;0.1481;-0.3091;
804.3000;0.1481;-0.3115;
804.6000;0.1490;-0.3115;
804.9000;0.1481;-0.3115;
805.2000;0.1514;-0.3043;
805.5000;0.1490;-0.3091;
805.8000;0.1481;-0.3115;
806.1000;0.1481;-0.3091;
806.4000;0.1506;-0.2923;
806.7000;0.1490;-0.3019;
807.0000;0.1490;-0.2947;
807.3000;0.1490;-0.3019;
807.6000;0.1490;-0.3067;
807.9000;0.1481;-0.3091;
808.2000;0.1490;-0.3043;
808.5000;0.1506;-0.2995;
808.8000;0.1473;-0.2995;
809.1000;0.1490;-0.3019;
809.4000;0.1490;-0.2971;
809.7000;0.1473;-0.2875;
810.0000;0.1473;-0.2803;
810.3000;0.1465;-0.2971;
810.6000;0.1473;-0.2947;
810.9000;0.1490;-0.2875;
811.2000;0.1481;-0.2851;
811.5000;0.1498;-0.2875;
811.8000;0.1481;-0.2779;
812.1000;0.1514;-0.2755;
812.4000;0.1506;-0.2827;
812.7000;0.1522;-0.2827;
813.0000;0.1522;-0.2827;
813.3000;0.1514;-0.2923;
813.6000;0.1481;-0.3043;
813.9000;0.1465;-0.3091;
814.2000;0.1481;-0.3043;
814.5000;0.1473;-0.3091;
814.8000;0.1490;-0.3163;
815.1000;0.1465;-0.3163;
815.4000;0.1465;-0.3115;
815.7000;0.1481;-0.3139;
816.0000;0.1530;-0.3019;
816.3000;0.1449;-0.3235;
816.6000;0.1522;-0.3043;
816.9000;0.1481;-0.3091;
817.2000;0.1408;-0.3163;
817.5000;0.1498;-0.3043;
817.8000;0.1473;-0.3139;
818.1000;0.1498;-0.3091;
818.4000;0.1481;-0.2995;
818.7000;0.1498;-0.2971;
819.0000;0.1416;-0.3139;
819.3000;0.1457;-0.2971;
819.6000;0.1498;-0.2875;
819.9000;0.1498;-0.2875;
820.2000;0.1481;-0.2923;
820.5000;0.1481;-0.2947;
820.8000;0.1522;-0.2827;
821.1000;0.1465;-0.3043;
821.4000;0.1506;-0.2923;
821.7000;0.1620;-0.2660;
822.0000;0.1392;-0.3354;
822.3000;0.1555;-0.2971;
822.6000;0.1555;-0.2899;
822.9000;0.1506;-0.3067;
823.2000;0.1490;-0.3091;
823.5000;0.1490;-0.3067;
823.8000;0.1579;-0.2755;
824.1000;0.1449;-0.3019;
824.4000;0.1498;-0.2899;
824.7000;0.1506;-0.3019;
825.0000;0.1481;-0.3067;
825.3000;0.1506;-0.2971;
825.6000;0.1498;-0.3043;
825.9000;0.1498;-0.3019;
826.2000;0.1498;-0.3139;
826.5000;0.1514;-0.3115;
826.8000;0.1498;-0.3115;
827.1000;0.1473;-0.3235;
827.4000;0.1506;-0.3139;
827.7000;0.1473;-0.3187;
828.0000;0.1481;-0.3259;
828.3000;0.1498;-0.3235;
828.6000;0.1522;-0.3211;
828.9000;0.1481;-0.3163;
829.2000;0.1490;-0.3163;
829.5000;0.1481;-0.3019;
829.8000;0.1481;-0.3067;
830.1000;0.1465;-0.3139;
830.4000;0.1490;-0.3043;
830.7000;0.1490;-0.3067;
831.0000;0.1473;-0.3043;
831.3000;0.1473;-0.2971;
831.6000;0.1490;-0.3019;
831.9000;0.1514;-0.2971;
832.2000;0.1481;-0.3019;
832.5000;0.1481;-0.2995;
832.8000;0.1490;-0.2995;
833.1000;0.1465;-0.3091;
833.4000;0.1498;-0.3019;
833.7000;0.1506;-0.2971;
834.0000;0.1481;-0.2971;
834.3000;0.1522;-0.2827;
834.6000;0.1457;-0.2899;
834.9000;0.1620;-0.2420;
835.2000;0.1481;-0.2899;
835.5000;0.1481;-0.2923;
835.8000;0.1457;-0.2995;
836.1000;0.1481;-0.2899;
836.4000;0.1490;-0.2971;
836.7000;0.1481;-0.2947;
837.0000;0.1490;-0.2875;
837.3000;0.1481;-0.2923;
837.6000;0.1506;-0.2851;
837.9000;0.1514;-0.2899;
838.2000;0.1490;-0.2971;
838.5000;0.1481;-0.2947;
838.8000;0.1481;-0.2899;
839.1000;0.1490;-0.2923;
839.4000;0.1473;-0.2899;
839.7000;0.1473;-0.2875;
840.0000;0.1538;-0.2755;
840.3000;0.1490;-0.2923;
840.6000;0.1490;-0.2923;
840.9000;0.1481;-0.3043;
841.2000;0.1490;-0.3019;
841.5000;0.1490;-0.3019;
841.8000;0.1506;-0.2827;
842.1000;0.1433;-0.3067;
842.4000;0.1498;-0.2851;
842.7000;0.1506;-0.2755;
843.0000;0.1490;-0.2827;
843.3000;0.1465;-0.2899;
843.6000;0.1490;-0.2827;
843.9000;0.1498;-0.2899;
844.2000;0.1506;-0.2875;
844.5000;0.1498;-0.2923;
844.8000;0.1490;-0.2923;
845.1000;0.1530;-0.2875;
845.4000;0.1490;-0.2923;
845.7000;0.1481;-0.2971;
846.0000;0.1490;-0.2995;
846.3000;0.1465;-0.2971;
846.6000;0.1498;-0.2803;
846.9000;0.1473;-0.2971;
847.2000;0.1457;-0.3115;
847.5000;0.1465;-0.3139;
847.8000;0.1449;-0.3091;
848.1000;0.1498;-0.2947;
848.4000;0.1416;-0.3259;
848.7000;0.1473;-0.3139;
849.0000;0.1514;-0.3043;
849.3000;0.1555;-0.2923;
849.6000;0.1595;-0.2755;
849.9000;0.1490;-0.3043;
850.2000;0.1465;-0.3091;
850.5000;0.1506;-0.3091;
850.8000;0.1490;-0.3139;
851.1000;0.1604;-0.2875;
851.4000;0.1473;-0.3235;
851.7000;0.1506;-0.3115;
852.0000;0.1481;-0.3187;
852.3000;0.1481;-0.3211;
852.6000;0.1481;-0.3283;
852.9000;0.1498;-0.3211;
853.2000;0.1522;-0.3139;
853.5000;0.1498;-0.3091;
853.8000;0.1408;-0.3330;
854.1000;0.1522;-0.3091;
854.4000;0.1392;-0.3450;
854.7000;0.1498;-0.3187;
855.0000;0.1490;-0.3259;
855.3000;0.1506;-0.3235;
855.6000;0.1490;-0.3187;
855.9000;0.1514;-0.3139;
856.2000;0.1587;-0.3019;
856.5000;0.1490;-0.3211;
856.8000;0.1595;-0.2851;
857.1000;0.1506;-0.3091;
857.4000;0.1376;-0.3402;
857.7000;0.1555;-0.3019;
858.0000;0.1538;-0.3067;
858.3000;0.1473;-0.3283;
858.6000;0.1490;-0.3163;
858.9000;0.1538;-0.2947;
859.2000;0.1441;-0.3115;
859.5000;0.1481;-0.3091;
859.8000;0.1506;-0.2995;
860.1000;0.1473;-0.3115;
860.4000;0.1498;-0.3043;
860.7000;0.1481;-0.3019;
861.0000;0.1457;-0.3019;
861.3000;0.1490;-0.3019;
861.6000;0.1481;-0.2947;
861.9000;0.1490;-0.2899;
862.2000;0.1473;-0.2875;
862.5000;0.1481;-0.2875;
862.8000;0.1465;-0.2947;
863.1000;0.1473;-0.2947;
863.4000;0.1490;-0.2971;
863.7000;0.1490;-0.3043;
864.0000;0.1457;-0.3139;
864.3000;0.1498;-0.3115;
864.6000;0.1498;-0.3067;
864.9000;0.1490;-0.3163;
865.2000;0.1481;-0.3163;
865.5000;0.1498;-0.3067;
865.8000;0.1457;-0.3139;
866.1000;0.1490;-0.3043;
866.4000;0.1490;-0.3043;
866.7000;0.1473;-0.3139;
867.0000;0.1449;-0.3259;
867.3000;0.1514;-0.3115;
867.6000;0.1490;-0.3115;
867.9000;0.1490;-0.2971;
868.2000;0.1498;-0.2971;
868.5000;0.1490;-0.2899;
868.8000;0.1498;-0.2923;
869.1000;0.1473;-0.3019;
869.4000;0.1481;-0.2947;
869.7000;0.1473;-0.2971;
870.0000;0.1481;-0.2971;
870.3000;0.1392;-0.3259;
870.6000;0.1481;-0.3043;
870.9000;0.1498;-0.2971;
871.2000;0.1498;-0.3091;
871.5000;0.1490;-0.3115;
871.8000;0.1481;-0.3115;
872.1000;0.1473;-0.3115;
872.4000;0.1514;-0.2995;
872.7000;0.1490;-0.3091;
873.0000;0.1473;-0.3067;
873.3000;0.1530;-0.2971;
873.6000;0.1514;-0.2947;
873.9000;0.1498;-0.2947;
874.2000;0.1490;-0.3019;
874.5000;0.1506;-0.2971;
874.8000;0.1522;-0.2899;
875.1000;0.1498;-0.3019;
875.4000;0.1481;-0.3067;
875.7000;0.1498;-0.3067;
876.0000;0.1490;-0.3043;
876.3000;0.1465;-0.3091;
876.6000;0.1457;-0.3163;
876.9000;0.1473;-0.3211;
877.2000;0.1490;-0.3187;
877.5000;0.1441;-0.3283;
877.8000;0.1441;-0.3187;
878.1000;0.1498;-0.2995;
878.4000;0.1530;-0.3019;
878.7000;0.1506;-0.3067;
879.0000;0.1498;-0.2995;
879.3000;0.1441;-0.3091;
879.6000;0.1530;-0.2779;
879.9000;0.1465;-0.2995;
880.2000;0.1465;-0.3019;
880.5000;0.1490;-0.2899;
880.8000;0.1547;-0.2684;
881.1000;0.1490;-0.2827;
881.4000;0.1555;-0.2660;
881.7000;0.1481;-0.2827;
882.0000;0.1514;-0.2779;
882.3000;0.1514;-0.2851;
882.6000;0.1506;-0.2923;
882.9000;0.1473;-0.2899;
883.2000;0.1490;-0.2947;
883.5000;0.1514;-0.2923;
883.8000;0.1506;-0.3019;
884.1000;0.1465;-0.3259;
884.4000;0.1498;-0.3139;
884.7000;0.1506;-0.3091;
885.0000;0.1416;-0.3211;
885.3000;0.1490;-0.3019;
885.6000;0.1490;-0.2995;
885.9000;0.1490;-0.3067;
886.2000;0.1620;-0.2707;
886.5000;0.1498;-0.3043;
886.8000;0.1514;-0.3067;
887.1000;0.1522;-0.3019;
887.4000;0.1481;-0.3115;
887.7000;0.1530;-0.3019;
888.0000;0.1514;-0.3067;
888.3000;0.1473;-0.3139;
888.6000;0.1490;-0.3067;
888.9000;0.1473;-0.3091;
889.2000;0.1465;-0.3211;
889.5000;0.1465;-0.3163;
889.8000;0.1465;-0.3187;
890.1000;0.1457;-0.3211;
890.4000;0.1473;-0.3187;
890.7000;0.1457;-0.3306;
891.0000;0.1473;-0.3354;
891.3000;0.1490;-0.3354;
891.6000;0.1481;-0.3330;
891.9000;0.1457;-0.3402;
892.2000;0.1433;-0.3474;
892.5000;0.1473;-0.3378;
892.8000;0.1408;-0.3402;
893.1000;0.1498;-0.3115;
893.4000;0.1481;-0.3139;
893.7000;0.1490;-0.3043;
894.0000;0.1530;-0.2923;
894.3000;0.1433;-0.3211;
894.6000;0.1547;-0.2803;
894.9000;0.1490;-0.2995;
895.2000;0.1506;-0.2923;
895.5000;0.1490;-0.2899;
895.8000;0.1441;-0.2971;
896.1000;0.1547;-0.2755;
896.4000;0.1457;-0.2971;
896.7000;0.1449;-0.2995;
897.0000;0.1498;-0.2899;
897.3000;0.1498;-0.2923;
897.6000;0.1481;-0.2995;
897.9000;0.1490;-0.3043;
898.2000;0.1457;-0.3115;
898.5000;0.1498;-0.3115;
898.8000;0.1604;-0.2899;
899.1000;0.1514;-0.3211;
899.4000;0.1481;-0.3283;
899.7000;0.1538;-0.3187;
900.0000;0.1473;-0.3235;
900.3000;0.1498;-0.3211;
900.6000;0.1579;-0.2971;
900.9000;0.1481;-0.3211;
901.2000;0.1481;-0.3163;
901.5000;0.1481;-0.3163;
901.8000;0.1473;-0.3139;
902.1000;0.1481;-0.3187;
902.4000;0.1514;-0.3139;
902.7000;0.1481;-0.3211;
903.0000;0.1514;-0.3067;
903.3000;0.1490;-0.3115;
903.6000;0.1457;-0.3211;
903.9000;0.1498;-0.3187;
904.2000;0.1481;-0.3259;
904.5000;0.1490;-0.3283;
904.8000;0.1498;-0.3163;
905.1000;0.1481;-0.3211;
905.4000;0.1490;-0.3211;
905.7000;0.1514;-0.3211;
906.0000;0.1506;-0.3139;
906.3000;0.1465;-0.3259;
906.6000;0.1506;-0.3067;
906.9000;0.1498;-0.3067;
907.2000;0.1490;-0.3019;
907.5000;0.1506;-0.3019;
907.8000;0.1441;-0.3091;
908.1000;0.1498;-0.2995;
908.4000;0.1506;-0.2995;
908.7000;0.1465;-0.3211;
909.0000;0.1514;-0.3187;
909.3000;0.1506;-0.3187;
909.6000;0.1514;-0.3187;
909.9000;0.1490;-0.3163;
910.2000;0.1498;-0.3043;
910.5000;0.1498;-0.3043;
910.8000;0.1481;-0.3043;
911.1000;0.1481;-0.3043;
911.4000;0.1481;-0.3019;
911.7000;0.1473;-0.3043;
912.0000;0.1587;-0.2803;
912.3000;0.1498;-0.3115;
912.6000;0.1481;-0.3139;
912.9000;0.1473;-0.3235;
913.2000;0.1506;-0.3163;
913.5000;0.1498;-0.3187;
913.8000;0.1522;-0.3115;
914.1000;0.1490;-0.3139;
914.4000;0.1457;-0.3091;
914.7000;0.1498;-0.2947;
915.0000;0.1506;-0.2971;
915.3000;0.1473;-0.3019;
915.6000;0.1481;-0.3091;
915.9000;0.1547;-0.2947;
916.2000;0.1530;-0.2947;
916.5000;0.1481;-0.3163;
916.8000;0.1498;-0.3139;
917.1000;0.1473;-0.3187;
917.4000;0.1538;-0.2971;
917.7000;0.1408;-0.3330;
918.0000;0.1481;-0.3139;
918.3000;0.1490;-0.3163;
918.6000;0.1547;-0.3043;
918.9000;0.1506;-0.3091;
919.2000;0.1514;-0.3067;
919.5000;0.1481;-0.3067;
919.8000;0.1473;-0.3091;
920.1000;0.1473;-0.3067;
920.4000;0.1490;-0.3043;
920.7000;0.1490;-0.3043;
921.0000;0.1473;-0.3115;
921.3000;0.1490;-0.3163;
921.6000;0.1490;-0.3187;
921.9000;0.1481;-0.3187;
922.2000;0.1498;-0.3115;
922.5000;0.1481;-0.3139;
922.8000;0.1547;-0.2971;
923.1000;0.1506;-0.3067;
923.4000;0.1473;-0.3067;
923.7000;0.1359;-0.3354;
924.0000;0.1465;-0.3115;
924.3000;0.1498;-0.3019;
924.6000;0.1506;-0.2971;
924.9000;0.1490;-0.3019;
925.2000;0.1490;-0.3067;
925.5000;0.1506;-0.3019;
925.8000;0.1490;-0.3091;
926.1000;0.1490;-0.3067;
926.4000;0.1506;-0.3043;
926.7000;0.1465;-0.3115;
927.0000;0.1473;-0.3115;
927.3000;0.1408;-0.3259;
927.6000;0.1490;-0.3067;
927.9000;0.1490;-0.3139;
928.2000;0.1481;-0.3043;
928.5000;0.1490;-0.2995;
928.8000;0.1506;-0.3019;
929.1000;0.1498;-0.2995;
929.4000;0.1481;-0.2971;
929.7000;0.1490;-0.2995;
930.0000;0.1498;-0.2971;
930.3000;0.1498;-0.3019;
930.6000;0.1490;-0.3043;
930.9000;0.1465;-0.3139;
931.2000;0.1465;-0.3163;
931.5000;0.1481;-0.3115;
931.8000;0.1481;-0.3091;
932.1000;0.1498;-0.2995;
932.4000;0.1465;-0.3115;
932.7000;0.1490;-0.3067;
933.0000;0.1457;-0.3235;
933.3000;0.1490;-0.3139;
933.6000;0.1481;-0.3067;
933.9000;0.1481;-0.3091;
934.2000;0.1490;-0.3019;
934.5000;0.1481;-0.2995;
934.8000;0.1481;-0.2995;
935.1000;0.1481;-0.3043;
935.4000;0.1490;-0.3115;
935.7000;0.1506;-0.3019;
936.0000;0.1506;-0.3043;
936.3000;0.1490;-0.2995;
936.6000;0.1490;-0.3067;
936.9000;0.1498;-0.3043;
937.2000;0.1498;-0.2947;
937.5000;0.1473;-0.2995;
937.8000;0.1506;-0.2947;
938.1000;0.1514;-0.2923;
938.4000;0.1498;-0.3115;
938.7000;0.1498;-0.3043;
939.0000;0.1498;-0.2971;
939.3000;0.1506;-0.3019;
939.6000;0.1490;-0.2995;
939.9000;0.1498;-0.2947;
940.2000;0.1481;-0.2971;
940.5000;0.1514;-0.2947;
940.8000;0.1563;-0.2827;
941.1000;0.1506;-0.3019;
941.4000;0.1465;-0.3139;
941.7000;0.1490;-0.2971;
942.0000;0.1506;-0.2971;
942.3000;0.1465;-0.3115;
942.6000;0.1490;-0.3019;
942.9000;0.1490;-0.2947;
943.2000;0.1481;-0.2947;
943.5000;0.1490;-0.2923;
943.8000;0.1538;-0.2803;
944.1000;0.1481;-0.3043;
944.4000;0.1506;-0.3019;
944.7000;0.1441;-0.3115;
945.0000;0.1506;-0.3019;
945.3000;0.1506;-0.3091;
945.6000;0.1530;-0.2971;
945.9000;0.1433;-0.3139;
946.2000;0.1481;-0.3163;
946.5000;0.1473;-0.3211;
946.8000;0.1547;-0.3019;
947.1000;0.1530;-0.3019;
947.4000;0.1457;-0.3163;
947.7000;0.1490;-0.3091;
948.0000;0.1498;-0.2995;
948.3000;0.1481;-0.2947;
948.6000;0.1473;-0.2995;
948.9000;0.1481;-0.3019;
949.2000;0.1498;-0.2995;
949.5000;0.1514;-0.2923;
949.8000;0.1506;-0.2947;
950.1000;0.1490;-0.2947;
950.4000;0.1465;-0.2947;
950.7000;0.1490;-0.2851;
951.0000;0.1563;-0.2707;
951.3000;0.1481;-0.2899;
951.6000;0.1481;-0.2899;
951.9000;0.1498;-0.2947;
952.2000;0.1514;-0.2923;
952.5000;0.1481;-0.2995;
952.8000;0.1506;-0.2875;
953.1000;0.1498;-0.2899;
953.4000;0.1490;-0.2803;
953.7000;0.1490;-0.2851;
954.0000;0.1473;-0.2947;
954.3000;0.1465;-0.2971;
954.6000;0.1490;-0.2971;
954.9000;0.1498;-0.2995;
955.2000;0.1473;-0.3139;
955.5000;0.1465;-0.3187;
955.8000;0.1457;-0.3163;
956.1000;0.1506;-0.3019;
956.4000;0.1490;-0.3019;
956.7000;0.1457;-0.3115;
957.0000;0.1490;-0.3043;
957.3000;0.1555;-0.2803;
957.6000;0.1498;-0.2971;
957.9000;0.1481;-0.3043;
958.2000;0.1579;-0.2755;
958.5000;0.1490;-0.2899;
958.8000;0.1425;-0.3067;
959.1000;0.1416;-0.3067;
959.4000;0.1473;-0.3019;
959.7000;0.1481;-0.2995;
960.0000;0.1506;-0.2875;
960.3000;0.1490;-0.2899;
960.6000;0.1465;-0.2923;
960.9000;0.1400;-0.3163;
961.2000;0.1498;-0.2923;
961.5000;0.1506;-0.2971;
961.8000;0.1514;-0.2875;
962.1000;0.1473;-0.2899;
962.4000;0.1498;-0.2875;
962.7000;0.1490;-0.2971;
963.0000;0.1514;-0.2947;
963.3000;0.1498;-0.2899;
963.6000;0.1587;-0.2779;
963.9000;0.1457;-0.3187;
964.2000;0.1498;-0.3019;
964.5000;0.1498;-0.3043;
964.8000;0.1449;-0.3139;
965.1000;0.1465;-0.3043;
965.4000;0.1481;-0.3043;
965.7000;0.1376;-0.3283;
966.0000;0.1498;-0.3043;
966.3000;0.1498;-0.3043;
966.6000;0.1473;-0.3091;
966.9000;0.1571;-0.2803;
967.2000;0.1490;-0.2947;
967.5000;0.1473;-0.2971;
967.8000;0.1498;-0.3019;
968.1000;0.1498;-0.3019;
968.4000;0.1498;-0.3043;
968.7000;0.1408;-0.3354;
969.0000;0.1506;-0.3115;
969.3000;0.1506;-0.3091;
969.6000;0.1506;-0.2971;
969.9000;0.1400;-0.3259;
970.2000;0.1473;-0.3019;
970.5000;0.1490;-0.2947;
970.8000;0.1441;-0.2947;
971.1000;0.1547;-0.2707;
971.4000;0.1481;-0.2947;
971.7000;0.1506;-0.2899;
972.0000;0.1506;-0.2827;
972.3000;0.1490;-0.2851;
972.6000;0.1506;-0.2827;
972.9000;0.1547;-0.2731;
973.2000;0.1490;-0.2947;
973.5000;0.1481;-0.3019;
973.8000;0.1514;-0.2947;
974.1000;0.1441;-0.3211;
974.4000;0.1359;-0.3378;
974.7000;0.1473;-0.3139;
975.0000;0.1481;-0.3043;
975.3000;0.1490;-0.3043;
975.6000;0.1465;-0.3043;
975.9000;0.1481;-0.2899;
976.2000;0.1465;-0.2947;
976.5000;0.1490;-0.2947;
976.8000;0.1481;-0.2851;
977.1000;0.1498;-0.2851;
977.4000;0.1433;-0.3043;
977.7000;0.1490;-0.2995;
978.0000;0.1473;-0.2923;
978.3000;0.1490;-0.2803;
978.6000;0.1506;-0.2731;
978.9000;0.1481;-0.2851;
979.2000;0.1473;-0.2803;
979.5000;0.1490;-0.2755;
979.8000;0.1498;-0.2731;
980.1000;0.1490;-0.2731;
980.4000;0.1449;-0.2779;
980.7000;0.1481;-0.2755;
981.0000;0.1457;-0.2923;
981.3000;0.1481;-0.2875;
981.6000;0.1481;-0.2875;
981.9000;0.1441;-0.2947;
982.2000;0.1368;-0.3067;
982.5000;0.1481;-0.2755;
982.8000;0.1473;-0.2827;
983.1000;0.1530;-0.2731;
983.4000;0.1490;-0.2827;
983.7000;0.1514;-0.2779;
984.0000;0.1498;-0.2851;
984.3000;0.1498;-0.2875;
984.6000;0.1498;-0.2923;
984.9000;0.1522;-0.2779;
985.2000;0.1498;-0.2899;
985.5000;0.1490;-0.2947;
985.8000;0.1490;-0.3019;
986.1000;0.1490;-0.3019;
986.4000;0.1490;-0.3091;
986.7000;0.1465;-0.3163;
987.0000;0.1481;-0.3019;
987.3000;0.1506;-0.2947;
987.6000;0.1473;-0.2971;
987.9000;0.1473;-0.3067;
988.2000;0.1547;-0.2875;
988.5000;0.1490;-0.3091;
988.8000;0.1514;-0.3019;
989.1000;0.1465;-0.3091;
989.4000;0.1514;-0.3067;
989.7000;0.1506;-0.3067;
990.0000;0.1498;-0.3019;
990.3000;0.1498;-0.3019;
990.6000;0.1481;-0.3043;
990.9000;0.1449;-0.2995;
991.2000;0.1498;-0.2851;
991.5000;0.1473;-0.2803;
991.8000;0.1425;-0.2947;
992.1000;0.1481;-0.2827;
992.4000;0.1481;-0.2779;
992.7000;0.1514;-0.2755;
993.0000;0.1473;-0.2827;
993.3000;0.1538;-0.2707;
993.6000;0.1457;-0.2971;
993.9000;0.1506;-0.2947;
994.2000;0.1481;-0.2947;
994.5000;0.1555;-0.2803;
994.8000;0.1449;-0.3139;
995.1000;0.1490;-0.2995;
995.4000;0.1522;-0.2923;
995.7000;0.1481;-0.3139;
996.0000;0.1416;-0.3259;
996.3000;0.1473;-0.3043;
996.6000;0.1465;-0.3067;
996.9000;0.1481;-0.2947;
997.2000;0.1498;-0.2923;
997.5000;0.1498;-0.2899;
997.8000;0.1449;-0.3019;
998.1000;0.1481;-0.2875;
998.4000;0.1490;-0.2851;
998.7000;0.1506;-0.2755;
999.0000;0.1498;-0.2851;
999.3000;0.1465;-0.2923;
999.6000;0.1481;-0.2947;
999.9000;0.1490;-0.2995;
1000.2000;0.1490;-0.2971;
1000.5000;0.1457;-0.3115;
1000.8000;0.1498;-0.3019;
1001.1000;0.1498;-0.3019;
1001.4000;0.1490;-0.3091;
1001.7000;0.1481;-0.3115;
1002.0000;0.1481;-0.3067;
1002.3000;0.1490;-0.2947;
1002.6000;0.1498;-0.3019;
1002.9000;0.1433;-0.3115;
1003.2000;0.1449;-0.3115;
1003.5000;0.1490;-0.3091;
1003.8000;0.1498;-0.3019;
1004.1000;0.1473;-0.3139;
1004.4000;0.1490;-0.3091;
1004.7000;0.1522;-0.3067;
1005.0000;0.1498;-0.3139;
1005.3000;0.1481;-0.3139;
1005.6000;0.1449;-0.3163;
1005.9000;0.1498;-0.3115;
1006.2000;0.1481;-0.3187;
1006.5000;0.1481;-0.3163;
1006.8000;0.1490;-0.3187;
1007.1000;0.1481;-0.3211;
1007.4000;0.1490;-0.3235;
1007.7000;0.1490;-0.3187;
1008.0000;0.1473;-0.3211;
1008.3000;0.1473;-0.3259;
1008.6000;0.1506;-0.3235;
1008.9000;0.1400;-0.3402;
1009.2000;0.1498;-0.3211;
1009.5000;0.1498;-0.3163;
1009.8000;0.1433;-0.3283;
1010.1000;0.1506;-0.3139;
1010.4000;0.1490;-0.3139;
1010.7000;0.1498;-0.3115;
1011.0000;0.1490;-0.3019;
1011.3000;0.1490;-0.2995;
1011.6000;0.1506;-0.2995;
1011.9000;0.1547;-0.2803;
1012.2000;0.1506;-0.2899;
1012.5000;0.1425;-0.3043;
1012.8000;0.1473;-0.2995;
1013.1000;0.1547;-0.2851;
1013.4000;0.1481;-0.3115;
1013.7000;0.1441;-0.3115;
1014.0000;0.1473;-0.2995;
1014.3000;0.1425;-0.3115;
1014.6000;0.1473;-0.2995;
1014.9000;0.1465;-0.3043;
1015.2000;0.1490;-0.3019;
1015.5000;0.1498;-0.2923;
1015.8000;0.1490;-0.2923;
1016.1000;0.1498;-0.2947;
1016.4000;0.1498;-0.2947;
1016.7000;0.1481;-0.3091;
1017.0000;0.1506;-0.3019;
1017.3000;0.1490;-0.2971;
1017.6000;0.1490;-0.2923;
1017.9000;0.1490;-0.2899;
1018.2000;0.1498;-0.2947;
1018.5000;0.1481;-0.3043;
1018.8000;0.1490;-0.3163;
1019.1000;0.1490;-0.3163;
1019.4000;0.1433;-0.3235;
1019.7000;0.1481;-0.3091;
1020.0000;0.1481;-0.3067;
1020.3000;0.1490;-0.3067;
1020.6000;0.1473;-0.3091;
1020.9000;0.1351;-0.3354;
1021.2000;0.1490;-0.3043;
1021.5000;0.1498;-0.3115;
1021.8000;0.1498;-0.3115;
1022.1000;0.1481;-0.3091;
1022.4000;0.1490;-0.3115;
1022.7000;0.1490;-0.3187;
1023.0000;0.1498;-0.3187;
1023.3000;0.1506;-0.3091;
1023.6000;0.1481;-0.3043;
1023.9000;0.1490;-0.3091;
1024.2000;0.1465;-0.3115;
1024.5000;0.1498;-0.3067;
1024.8000;0.1465;-0.3187;
1025.1000;0.1368;-0.3378;
1025.4000;0.1522;-0.2971;
1025.7000;0.1490;-0.3019;
1026.0000;0.1473;-0.3091;
1026.3000;0.1498;-0.3019;
1026.6000;0.1514;-0.2971;
1026.9000;0.1473;-0.3187;
1027.2000;0.1498;-0.3067;
1027.5000;0.1498;-0.3067;
1027.8000;0.1457;-0.3187;
1028.1000;0.1498;-0.3067;
1028.4000;0.1457;-0.3139;
1028.7000;0.1530;-0.3019;
1029.0000;0.1506;-0.3163;
1029.3000;0.1465;-0.3283;
1029.6000;0.1465;-0.3283;
1029.9000;0.1473;-0.3306;
1030.2000;0.1473;-0.3283;
1030.5000;0.1490;-0.3187;
1030.8000;0.1449;-0.3306;
1031.1000;0.1392;-0.3426;
1031.4000;0.1506;-0.3115;
1031.7000;0.1441;-0.3306;
1032.0000;0.1473;-0.3163;
1032.3000;0.1498;-0.3139;
1032.6000;0.1490;-0.3187;
1032.9000;0.1587;-0.2803;
1033.2000;0.1498;-0.2995;
1033.5000;0.1498;-0.2947;
1033.8000;0.1498;-0.2875;
1034.1000;0.1465;-0.3043;
1034.4000;0.1465;-0.3043;
1034.7000;0.1490;-0.2923;
1035.0000;0.1481;-0.2971;
1035.3000;0.1457;-0.2971;
1035.6000;0.1490;-0.2875;
1035.9000;0.1481;-0.2923;
1036.2000;0.1498;-0.2875;
1036.5000;0.1490;-0.2971;
1036.8000;0.1498;-0.3019;
1037.1000;0.1481;-0.3043;
1037.4000;0.1392;-0.3354;
1037.7000;0.1481;-0.3043;
1038.0000;0.1481;-0.3091;
1038.3000;0.1490;-0.3115;
1038.6000;0.1538;-0.2971;
1038.9000;0.1555;-0.2923;
1039.2000;0.1498;-0.3043;
1039.5000;0.1465;-0.3187;
1039.8000;0.1490;-0.3115;
1040.1000;0.1506;-0.3043;
1040.4000;0.1481;-0.3067;
1040.7000;0.1481;-0.3067;
1041.0000;0.1490;-0.3019;
1041.3000;0.1514;-0.2995;
1041.6000;0.1473;-0.3139;
1041.9000;0.1481;-0.3115;
1042.2000;0.1506;-0.3019;
1042.5000;0.1490;-0.2995;
1042.8000;0.1514;-0.2923;
1043.1000;0.1441;-0.3067;
1043.4000;0.1481;-0.3043;
1043.7000;0.1506;-0.2947;
1044.0000;0.1490;-0.3067;
1044.3000;0.1506;-0.3019;
1044.6000;0.1481;-0.3019;
1044.9000;0.1481;-0.2995;
1045.2000;0.1498;-0.2851;
1045.5000;0.1490;-0.2971;
1045.8000;0.1473;-0.2947;
1046.1000;0.1490;-0.2923;
1046.4000;0.1490;-0.2875;
1046.7000;0.1465;-0.2971;
1047.0000;0.1490;-0.2971;
1047.3000;0.1506;-0.3043;
1047.6000;0.1481;-0.3019;
1047.9000;0.1481;-0.3115;
1048.2000;0.1416;-0.3306;
1048.5000;0.1473;-0.3139;
1048.8000;0.1490;-0.3211;
1049.1000;0.1490;-0.3330;
1049.4000;0.1465;-0.3378;
1049.7000;0.1481;-0.3378;
1050.0000;0.1498;-0.3283;
1050.3000;0.1481;-0.3330;
1050.6000;0.1490;-0.3402;
1050.9000;0.1441;-0.3450;
1051.2000;0.1473;-0.3211;
1051.5000;0.1481;-0.3187;
1051.8000;0.1473;-0.3115;
1052.1000;0.1465;-0.3187;
1052.4000;0.1481;-0.3139;
1052.7000;0.1457;-0.3187;
1053.0000;0.1514;-0.3019;
1053.3000;0.1490;-0.3091;
1053.6000;0.1490;-0.2995;
1053.9000;0.1506;-0.3019;
1054.2000;0.1490;-0.3067;
1054.5000;0.1490;-0.3091;
1054.8000;0.1490;-0.3139;
1055.1000;0.1490;-0.3163;
1055.4000;0.1490;-0.3235;
1055.7000;0.1498;-0.3259;
1056.0000;0.1433;-0.3402;
1056.3000;0.1473;-0.3187;
1056.6000;0.1498;-0.3043;
1056.9000;0.1481;-0.3067;
1057.2000;0.1547;-0.2947;
1057.5000;0.1490;-0.3091;
1057.8000;0.1498;-0.3019;
1058.1000;0.1490;-0.3067;
1058.4000;0.1563;-0.2827;
1058.7000;0.1522;-0.2923;
1059.0000;0.1498;-0.3067;
1059.3000;0.1498;-0.3043;
1059.6000;0.1498;-0.3067;
1059.9000;0.1449;-0.3115;
1060.2000;0.1473;-0.3091;
1060.5000;0.1481;-0.3067;
1060.8000;0.1506;-0.2995;
1061.1000;0.1473;-0.3091;
1061.4000;0.1490;-0.3043;
1061.7000;0.1376;-0.3330;
1062.0000;0.1490;-0.3091;
1062.3000;0.1498;-0.3115;
1062.6000;0.1441;-0.3306;
1062.9000;0.1538;-0.3091;
1063.2000;0.1498;-0.3187;
1063.5000;0.1457;-0.3259;
1063.8000;0.1498;-0.3115;
1064.1000;0.1498;-0.3187;
1064.4000;0.1498;-0.3235;
1064.7000;0.1595;-0.2947;
1065.0000;0.1481;-0.3211;
1065.3000;0.1498;-0.3091;
1065.6000;0.1498;-0.3115;
1065.9000;0.1449;-0.3330;
1066.2000;0.1490;-0.3283;
1066.5000;0.1498;-0.3259;
1066.8000;0.1506;-0.3115;
1067.1000;0.1563;-0.2971;
1067.4000;0.1473;-0.3163;
1067.7000;0.1490;-0.3139;
1068.0000;0.1433;-0.3259;
1068.3000;0.1514;-0.3091;
1068.6000;0.1498;-0.3067;
1068.9000;0.1481;-0.3187;
1069.2000;0.1506;-0.3163;
1069.5000;0.1498;-0.3139;
1069.8000;0.1506;-0.3211;
1070.1000;0.1457;-0.3283;
1070.4000;0.1522;-0.3163;
1070.7000;0.1457;-0.3306;
1071.0000;0.1571;-0.3019;
1071.3000;0.1473;-0.3139;
1071.6000;0.1506;-0.3091;
1071.9000;0.1481;-0.3091;
1072.2000;0.1530;-0.2971;
1072.5000;0.1490;-0.3067;
1072.8000;0.1490;-0.3115;
1073.1000;0.1481;-0.3139;
1073.4000;0.1425;-0.3235;
1073.7000;0.1473;-0.3139;
1074.0000;0.1449;-0.3139;
1074.3000;0.1490;-0.3019;
1074.6000;0.1498;-0.3091;
1074.9000;0.1498;-0.3067;
1075.2000;0.1514;-0.2971;
1075.5000;0.1490;-0.3043;
1075.8000;0.1416;-0.3330;
1076.1000;0.1465;-0.3235;
1076.4000;0.1498;-0.3187;
1076.7000;0.1425;-0.3450;
1077.0000;0.1522;-0.3139;
1077.3000;0.1571;-0.3019;
1077.6000;0.1490;-0.3235;
1077.9000;0.1538;-0.3187;
1078.2000;0.1498;-0.3283;
1078.5000;0.1490;-0.3235;
1078.8000;0.1490;-0.3235;
1079.1000;0.1465;-0.3259;
1079.4000;0.1612;-0.2923;
1079.7000;0.1473;-0.3163;
1080.0000;0.1490;-0.3115;
1080.3000;0.1400;-0.3378;
1080.6000;0.1498;-0.3115;
1080.9000;0.1498;-0.3115;
1081.2000;0.1490;-0.3115;
1081.5000;0.1490;-0.3043;
1081.8000;0.1441;-0.3283;
1082.1000;0.1408;-0.3354;
1082.4000;0.1506;-0.3163;
1082.7000;0.1457;-0.3235;
1083.0000;0.1481;-0.3115;
1083.3000;0.1449;-0.3283;
1083.6000;0.1465;-0.3139;
1083.9000;0.1506;-0.3067;
1084.2000;0.1498;-0.3067;
1084.5000;0.1465;-0.3163;
1084.8000;0.1587;-0.2875;
1085.1000;0.1506;-0.3043;
1085.4000;0.1481;-0.3067;
1085.7000;0.1587;-0.2755;
1086.0000;0.1506;-0.2947;
1086.3000;0.1490;-0.3067;
1086.6000;0.1481;-0.3211;
1086.9000;0.1465;-0.3235;
1087.2000;0.1563;-0.2971;
1087.5000;0.1514;-0.3091;
1087.8000;0.1425;-0.3306;
1088.1000;0.1473;-0.3163;
1088.4000;0.1481;-0.3091;
1088.7000;0.1449;-0.3139;
1089.0000;0.1441;-0.3019;
1089.3000;0.1498;-0.2923;
1089.6000;0.1481;-0.3019;
1089.9000;0.1441;-0.3139;
1090.2000;0.1506;-0.3019;
1090.5000;0.1490;-0.3115;
1090.8000;0.1473;-0.3091;
1091.1000;0.1490;-0.3019;
1091.4000;0.1498;-0.2995;
1091.7000;0.1473;-0.3091;
1092.0000;0.1457;-0.3187;
1092.3000;0.1481;-0.3139;
1092.6000;0.1498;-0.3019;
1092.9000;0.1490;-0.3067;
1093.2000;0.1490;-0.3139;
1093.5000;0.1490;-0.3187;
1093.8000;0.1473;-0.3259;
1094.1000;0.1490;-0.3163;
1094.4000;0.1490;-0.3115;
1094.7000;0.1490;-0.3091;
1095.0000;0.1481;-0.3091;
1095.3000;0.1498;-0.3139;
1095.6000;0.1465;-0.3235;
1095.9000;0.1490;-0.3187;
1096.2000;0.1441;-0.3402;
1096.5000;0.1490;-0.3283;
1096.8000;0.1506;-0.3306;
1097.1000;0.1490;-0.3354;
1097.4000;0.1490;-0.3402;
1097.7000;0.1506;-0.3402;
1098.0000;0.1481;-0.3450;
1098.3000;0.1490;-0.3402;
1098.6000;0.1473;-0.3378;
1098.9000;0.1514;-0.3306;
1099.2000;0.1376;-0.3642;
1099.5000;0.1473;-0.3378;
1099.8000;0.1481;-0.3306;
1100.1000;0.1498;-0.3211;
1100.4000;0.1490;-0.3163;
1100.7000;0.1555;-0.3019;
1101.0000;0.1481;-0.3163;
1101.3000;0.1481;-0.3211;
1101.6000;0.1465;-0.3259;
1101.9000;0.1506;-0.3139;
1102.2000;0.1490;-0.3187;
1102.5000;0.1490;-0.3187;
1102.8000;0.1465;-0.3211;
1103.1000;0.1490;-0.3187;
1103.4000;0.1506;-0.3091;
1103.7000;0.1490;-0.3091;
1104.0000;0.1498;-0.3019;
1104.3000;0.1457;-0.3115;
1104.6000;0.1490;-0.3043;
1104.9000;0.1457;-0.3187;
1105.2000;0.1408;-0.3283;
1105.5000;0.1506;-0.3115;
1105.8000;0.1498;-0.3091;
1106.1000;0.1384;-0.3378;
1106.4000;0.1457;-0.3163;
1106.7000;0.1425;-0.3283;
1107.0000;0.1563;-0.2971;
1107.3000;0.1506;-0.3067;
1107.6000;0.1506;-0.3091;
1107.9000;0.1506;-0.3043;
1108.2000;0.1490;-0.3115;
1108.5000;0.1490;-0.3091;
1108.8000;0.1530;-0.3019;
1109.1000;0.1481;-0.3139;
1109.4000;0.1490;-0.3187;
1109.7000;0.1538;-0.3067;
1110.0000;0.1465;-0.3187;
1110.3000;0.1481;-0.3091;
1110.6000;0.1506;-0.2995;
1110.9000;0.1490;-0.3019;
1111.2000;0.1490;-0.3019;
1111.5000;0.1498;-0.2995;
1111.8000;0.1433;-0.3211;
1112.1000;0.1498;-0.3067;
1112.4000;0.1473;-0.3091;
1112.7000;0.1457;-0.3235;
1113.0000;0.1498;-0.3187;
1113.3000;0.1514;-0.3163;
1113.6000;0.1506;-0.3235;
1113.9000;0.1498;-0.3211;
1114.2000;0.1473;-0.3259;
1114.5000;0.1490;-0.3139;
1114.8000;0.1506;-0.3019;
1115.1000;0.1400;-0.3330;
1115.4000;0.1473;-0.3115;
1115.7000;0.1490;-0.3091;
1116.0000;0.1490;-0.3091;
1116.3000;0.1481;-0.3067;
1116.6000;0.1473;-0.3091;
1116.9000;0.1490;-0.3115;
1117.2000;0.1465;-0.3211;
1117.5000;0.1481;-0.3139;
1117.8000;0.1490;-0.3139;
1118.1000;0.1449;-0.3187;
1118.4000;0.1490;-0.3163;
1118.7000;0.1498;-0.3163;
1119.0000;0.1490;-0.3211;
1119.3000;0.1481;-0.3354;
1119.6000;0.1506;-0.3259;
1119.9000;0.1490;-0.3306;
1120.2000;0.1465;-0.3402;
1120.5000;0.1473;-0.3235;
1120.8000;0.1481;-0.3187;
1121.1000;0.1579;-0.2875;
1121.4000;0.1376;-0.3402;
1121.7000;0.1481;-0.3115;
1122.0000;0.1481;-0.3163;
1122.3000;0.1522;-0.2995;
1122.6000;0.1498;-0.3043;
1122.9000;0.1481;-0.3091;
1123.2000;0.1481;-0.3067;
1123.5000;0.1490;-0.3187;
1123.8000;0.1408;-0.3522;
1124.1000;0.1498;-0.3211;
1124.4000;0.1604;-0.2899;
1124.7000;0.1473;-0.3163;
1125.0000;0.1514;-0.3019;
1125.3000;0.1506;-0.3043;
1125.6000;0.1490;-0.3091;
1125.9000;0.1506;-0.3019;
1126.2000;0.1514;-0.3043;
1126.5000;0.1498;-0.3091;
1126.8000;0.1481;-0.3211;
1127.1000;0.1490;-0.3115;
1127.4000;0.1351;-0.3450;
1127.7000;0.1490;-0.3187;
1128.0000;0.1441;-0.3330;
1128.3000;0.1473;-0.3283;
1128.6000;0.1490;-0.3259;
1128.9000;0.1490;-0.3283;
1129.2000;0.1465;-0.3402;
1129.5000;0.1490;-0.3354;
1129.8000;0.1449;-0.3450;
1130.1000;0.1530;-0.3163;
1130.4000;0.1498;-0.3187;
1130.7000;0.1481;-0.3211;
1131.0000;0.1498;-0.3187;
1131.3000;0.1506;-0.3115;
1131.6000;0.1490;-0.3187;
1131.9000;0.1522;-0.3043;
1132.2000;0.1498;-0.3163;
1132.5000;0.1481;-0.3067;
1132.8000;0.1490;-0.3019;
1133.1000;0.1481;-0.3139;
1133.4000;0.1473;-0.3187;
1133.7000;0.1481;-0.3115;
1134.0000;0.1514;-0.3091;
1134.3000;0.1481;-0.3115;
1134.6000;0.1473;-0.3091;
1134.9000;0.1498;-0.3091;
1135.2000;0.1522;-0.3043;
1135.5000;0.1490;-0.3091;
1135.8000;0.1481;-0.3067;
1136.1000;0.1522;-0.3043;
1136.4000;0.1490;-0.3187;
1136.7000;0.1498;-0.3163;
1137.0000;0.1481;-0.3235;
1137.3000;0.1441;-0.3354;
1137.6000;0.1481;-0.3259;
1137.9000;0.1571;-0.3091;
1138.2000;0.1441;-0.3474;
1138.5000;0.1465;-0.3426;
1138.8000;0.1506;-0.3259;
1139.1000;0.1490;-0.3330;
1139.4000;0.1514;-0.3354;
1139.7000;0.1473;-0.3378;
1140.0000;0.1498;-0.3402;
1140.3000;0.1490;-0.3354;
1140.6000;0.1498;-0.3330;
1140.9000;0.1490;-0.3283;
1141.2000;0.1522;-0.3259;
1141.5000;0.1498;-0.3354;
1141.8000;0.1522;-0.3378;
1142.1000;0.1408;-0.3714;
1142.4000;0.1514;-0.3498;
1142.7000;0.1481;-0.3522;
1143.0000;0.1490;-0.3402;
1143.3000;0.1490;-0.3306;
1143.6000;0.1498;-0.3211;
1143.9000;0.1506;-0.3187;
1144.2000;0.1555;-0.3019;
1144.5000;0.1490;-0.3187;
1144.8000;0.1514;-0.3139;
1145.1000;0.1506;-0.3235;
1145.4000;0.1506;-0.3211;
1145.7000;0.1498;-0.3187;
1146.0000;0.1449;-0.3354;
1146.3000;0.1530;-0.3067;
1146.6000;0.1490;-0.3211;
1146.9000;0.1481;-0.3259;
1147.2000;0.1433;-0.3570;
1147.5000;0.1490;-0.3378;
1147.8000;0.1498;-0.3330;
1148.1000;0.1506;-0.3330;
1148.4000;0.1465;-0.3426;
1148.7000;0.1473;-0.3426;
1149.0000;0.1481;-0.3354;
1149.3000;0.1473;-0.3330;
1149.6000;0.1481;-0.3283;
1149.9000;0.1538;-0.3019;
1150.2000;0.1481;-0.3187;
1150.5000;0.1506;-0.3115;
1150.8000;0.1490;-0.3091;
1151.1000;0.1498;-0.3019;
1151.4000;0.1490;-0.3091;
1151.7000;0.1481;-0.3115;
1152.0000;0.1490;-0.3091;
1152.3000;0.1506;-0.3043;
1152.6000;0.1547;-0.2851;
1152.9000;0.1481;-0.3067;
1153.2000;0.1530;-0.2971;
1153.5000;0.1490;-0.3067;
1153.8000;0.1498;-0.3115;
1154.1000;0.1490;-0.3091;
1154.4000;0.1522;-0.3115;
1154.7000;0.1522;-0.3043;
1155.0000;0.1538;-0.3067;
1155.3000;0.1473;-0.3235;
1155.6000;0.1506;-0.3163;
1155.9000;0.1522;-0.3115;
1156.2000;0.1490;-0.3163;
1156.5000;0.1473;-0.3211;
1156.8000;0.1498;-0.3139;
1157.1000;0.1425;-0.3306;
1157.4000;0.1457;-0.3283;
1157.7000;0.1498;-0.3378;
1158.0000;0.1498;-0.3426;
1158.3000;0.1481;-0.3474;
1158.6000;0.1481;-0.3522;
1158.9000;0.1522;-0.3426;
1159.2000;0.1538;-0.3474;
1159.5000;0.1498;-0.3570;
1159.8000;0.1481;-0.3522;
1160.1000;0.1498;-0.3450;
1160.4000;0.1490;-0.3450;
1160.7000;0.1498;-0.3450;
1161.0000;0.1522;-0.3354;
1161.3000;0.1481;-0.3450;
1161.6000;0.1490;-0.3426;
1161.9000;0.1555;-0.3187;
1162.2000;0.1506;-0.3402;
1162.5000;0.1538;-0.3354;
1162.8000;0.1506;-0.3498;
1163.1000;0.1490;-0.3570;
1163.4000;0.1506;-0.3474;
1163.7000;0.1506;-0.3474;
1164.0000;0.1498;-0.3474;
1164.3000;0.1490;-0.3498;
1164.6000;0.1481;-0.3474;
1164.9000;0.1506;-0.3402;
1165.2000;0.1441;-0.3618;
1165.5000;0.1490;-0.3474;
1165.8000;0.1473;-0.3426;
1166.1000;0.1530;-0.3283;
1166.4000;0.1481;-0.3402;
1166.7000;0.1473;-0.3378;
1167.0000;0.1490;-0.3306;
1167.3000;0.1490;-0.3259;
1167.6000;0.1498;-0.3211;
1167.9000;0.1490;-0.3211;
1168.2000;0.1457;-0.3283;
1168.5000;0.1490;-0.3211;
1168.8000;0.1498;-0.3235;
1169.1000;0.1490;-0.3235;
1169.4000;0.1473;-0.3283;
1169.7000;0.1392;-0.3474;
1170.0000;0.1425;-0.3402;
1170.3000;0.1473;-0.3330;
1170.6000;0.1498;-0.3306;
1170.9000;0.1465;-0.3330;
1171.2000;0.1498;-0.3235;
1171.5000;0.1441;-0.3426;
1171.8000;0.1481;-0.3283;
1172.1000;0.1473;-0.3354;
1172.4000;0.1563;-0.3163;
1172.7000;0.1498;-0.3259;
1173.0000;0.1498;-0.3306;
1173.3000;0.1473;-0.3330;
1173.6000;0.1490;-0.3259;
1173.9000;0.1498;-0.3235;
1174.2000;0.1473;-0.3402;
1174.5000;0.1457;-0.3498;
1174.8000;0.1514;-0.3426;
1175.1000;0.1498;-0.3570;
1175.4000;0.1481;-0.3666;
1175.7000;0.1481;-0.3666;
1176.0000;0.1449;-0.3905;
1176.3000;0.1514;-0.3738;
1176.6000;0.1498;-0.3738;
1176.9000;0.1481;-0.3738;
1177.2000;0.1522;-0.3546;
1177.5000;0.1579;-0.3330;
1177.8000;0.1530;-0.3354;
1178.1000;0.1490;-0.3450;
1178.4000;0.1498;-0.3522;
1178.7000;0.1538;-0.3450;
1179.0000;0.1490;-0.3570;
1179.3000;0.1481;-0.3618;
1179.6000;0.1457;-0.3666;
1179.9000;0.1433;-0.3714;
1180.2000;0.1481;-0.3618;
1180.5000;0.1490;-0.3570;
1180.8000;0.1571;-0.3378;
1181.1000;0.1481;-0.3642;
1181.4000;0.1490;-0.3642;
1181.7000;0.1368;-0.3929;
1182.0000;0.1457;-0.3642;
1182.3000;0.1498;-0.3498;
1182.6000;0.1425;-0.3714;
1182.9000;0.1538;-0.3474;
1183.2000;0.1498;-0.3642;
1183.5000;0.1490;-0.3642;
1183.8000;0.1514;-0.3594;
1184.1000;0.1490;-0.3594;
1184.4000;0.1498;-0.3570;
1184.7000;0.1498;-0.3522;
1185.0000;0.1538;-0.3426;
1185.3000;0.1490;-0.3498;
1185.6000;0.1481;-0.3546;
1185.9000;0.1473;-0.3618;
1186.2000;0.1449;-0.3642;
1186.5000;0.1506;-0.3426;
1186.8000;0.1457;-0.3570;
1187.1000;0.1457;-0.3546;
1187.4000;0.1473;-0.3474;
1187.7000;0.1473;-0.3426;
1188.0000;0.1473;-0.3378;
1188.3000;0.1555;-0.3139;
1188.6000;0.1498;-0.3306;
1188.9000;0.1498;-0.3306;
1189.2000;0.1392;-0.3666;
1189.5000;0.1530;-0.3330;
1189.8000;0.1514;-0.3354;
1190.1000;0.1481;-0.3474;
1190.4000;0.1465;-0.3522;
1190.7000;0.1490;-0.3378;
1191.0000;0.1465;-0.3378;
1191.3000;0.1498;-0.3330;
1191.6000;0.1498;-0.3330;
1191.9000;0.1498;-0.3378;
1192.2000;0.1498;-0.3306;
1192.5000;0.1498;-0.3306;
1192.8000;0.1506;-0.3306;
1193.1000;0.1392;-0.3570;
1193.4000;0.1465;-0.3426;
1193.7000;0.1595;-0.3043;
1194.0000;0.1490;-0.3330;
1194.3000;0.1506;-0.3259;
1194.6000;0.1481;-0.3259;
1194.9000;0.1441;-0.3378;
1195.2000;0.1490;-0.3306;
1195.5000;0.1506;-0.3283;
1195.8000;0.1481;-0.3235;
1196.1000;0.1465;-0.3306;
1196.4000;0.1498;-0.3235;
1196.7000;0.1465;-0.3306;
1197.0000;0.1408;-0.3378;
1197.3000;0.1547;-0.3067;
1197.6000;0.1490;-0.3259;
1197.9000;0.1555;-0.3091;
1198.2000;0.1408;-0.3474;
1198.5000;0.1481;-0.3259;
1198.8000;0.1498;-0.3306;
1199.1000;0.1490;-0.3330;
1199.4000;0.1498;-0.3259;
1199.7000;0.1490;-0.3306;
1200.0000;0.1384;-0.3546;
1200.3000;0.1384;-0.3570;
1200.6000;0.1481;-0.3235;
1200.9000;0.1498;-0.3211;
1201.2000;0.1481;-0.3235;
1201.5000;0.1506;-0.3163;
1201.8000;0.1522;-0.3163;
1202.1000;0.1490;-0.3211;
1202.4000;0.1473;-0.3187;
1202.7000;0.1473;-0.3187;
1203.0000;0.1490;-0.3283;
1203.3000;0.1473;-0.3283;
1203.6000;0.1449;-0.3354;
1203.9000;0.1481;-0.3259;
1204.2000;0.1481;-0.3235;
1204.5000;0.1473;-0.3306;
1204.8000;0.1457;-0.3354;
1205.1000;0.1506;-0.3330;
1205.4000;0.1498;-0.3330;
1205.7000;0.1473;-0.3330;
1206.0000;0.1481;-0.3426;
1206.3000;0.1490;-0.3450;
1206.6000;0.1481;-0.3522;
1206.9000;0.1514;-0.3426;
1207.2000;0.1506;-0.3474;
1207.5000;0.1498;-0.3474;
1207.8000;0.1490;-0.3594;
1208.1000;0.1408;-0.3834;
1208.4000;0.1465;-0.3618;
1208.7000;0.1506;-0.3474;
1209.0000;0.1506;-0.3474;
1209.3000;0.1490;-0.3546;
1209.6000;0.1506;-0.3522;
1209.9000;0.1522;-0.3426;
1210.2000;0.1490;-0.3498;
1210.5000;0.1514;-0.3354;
1210.8000;0.1490;-0.3378;
1211.1000;0.1490;-0.3330;
1211.4000;0.1481;-0.3402;
1211.7000;0.1441;-0.3426;
1212.0000;0.1514;-0.3378;
1212.3000;0.1481;-0.3450;
1212.6000;0.1465;-0.3402;
1212.9000;0.1490;-0.3402;
1213.2000;0.1465;-0.3426;
1213.5000;0.1595;-0.3115;
1213.8000;0.1473;-0.3450;
1214.1000;0.1465;-0.3426;
1214.4000;0.1490;-0.3474;
1214.7000;0.1579;-0.3378;
1215.0000;0.1506;-0.3522;
1215.3000;0.1473;-0.3594;
1215.6000;0.1490;-0.3474;
1215.9000;0.1498;-0.3474;
1216.2000;0.1465;-0.3522;
1216.5000;0.1506;-0.3474;
1216.8000;0.1490;-0.3594;
1217.1000;0.1506;-0.3522;
1217.4000;0.1481;-0.3570;
1217.7000;0.1449;-0.3690;
1218.0000;0.1449;-0.3618;
1218.3000;0.1481;-0.3426;
1218.6000;0.1473;-0.3330;
1218.9000;0.1522;-0.3163;
1219.2000;0.1490;-0.3187;
1219.5000;0.1490;-0.3235;
1219.8000;0.1547;-0.3067;
1220.1000;0.1457;-0.3259;
1220.4000;0.1547;-0.3163;
1220.7000;0.1490;-0.3306;
1221.0000;0.1506;-0.3306;
1221.3000;0.1547;-0.3163;
1221.6000;0.1481;-0.3283;
1221.9000;0.1498;-0.3235;
1222.2000;0.1457;-0.3354;
1222.5000;0.1506;-0.3283;
1222.8000;0.1457;-0.3354;
1223.1000;0.1490;-0.3235;
1223.4000;0.1506;-0.3187;
1223.7000;0.1473;-0.3259;
1224.0000;0.1481;-0.3330;
1224.3000;0.1473;-0.3402;
1224.6000;0.1555;-0.3211;
1224.9000;0.1490;-0.3402;
1225.2000;0.1514;-0.3283;
1225.5000;0.1473;-0.3283;
1225.8000;0.1473;-0.3259;
1226.1000;0.1506;-0.3211;
1226.4000;0.1498;-0.3259;
1226.7000;0.1506;-0.3259;
1227.0000;0.1490;-0.3259;
1227.3000;0.1481;-0.3259;
1227.6000;0.1514;-0.3163;
1227.9000;0.1473;-0.3187;
1228.2000;0.1465;-0.3306;
1228.5000;0.1473;-0.3354;
1228.8000;0.1449;-0.3450;
1229.1000;0.1473;-0.3426;
1229.4000;0.1490;-0.3426;
1229.7000;0.1465;-0.3498;
1230.0000;0.1473;-0.3450;
1230.3000;0.1506;-0.3402;
1230.6000;0.1490;-0.3426;
1230.9000;0.1490;-0.3450;
1231.2000;0.1481;-0.3474;
1231.5000;0.1498;-0.3450;
1231.8000;0.1498;-0.3426;
1232.1000;0.1343;-0.3810;
1232.4000;0.1465;-0.3450;
1232.7000;0.1506;-0.3378;
1233.0000;0.1481;-0.3283;
1233.3000;0.1506;-0.3283;
1233.6000;0.1514;-0.3187;
1233.9000;0.1514;-0.3139;
1234.2000;0.1481;-0.3235;
1234.5000;0.1490;-0.3235;
1234.8000;0.1498;-0.3139;
1235.1000;0.1506;-0.3163;
1235.4000;0.1490;-0.3211;
1235.7000;0.1457;-0.3354;
1236.0000;0.1481;-0.3259;
1236.3000;0.1538;-0.3139;
1236.6000;0.1514;-0.3211;
1236.9000;0.1506;-0.3235;
1237.2000;0.1547;-0.3115;
1237.5000;0.1473;-0.3259;
1237.8000;0.1506;-0.3139;
1238.1000;0.1514;-0.3043;
1238.4000;0.1473;-0.3211;
1238.7000;0.1498;-0.3187;
1239.0000;0.1547;-0.3043;
1239.3000;0.1490;-0.3091;
1239.6000;0.1473;-0.3330;
1239.9000;0.1481;-0.3330;
1240.2000;0.1465;-0.3378;
1240.5000;0.1506;-0.3211;
1240.8000;0.1473;-0.3330;
1241.1000;0.1506;-0.3211;
1241.4000;0.1490;-0.3259;
1241.7000;0.1530;-0.3115;
1242.0000;0.1498;-0.3283;
1242.3000;0.1465;-0.3330;
1242.6000;0.1498;-0.3306;
1242.9000;0.1473;-0.3378;
1243.2000;0.1490;-0.3330;
1243.5000;0.1587;-0.3067;
1243.8000;0.1514;-0.3402;
1244.1000;0.1465;-0.3522;
1244.4000;0.1490;-0.3498;
1244.7000;0.1514;-0.3354;
1245.0000;0.1506;-0.3354;
1245.3000;0.1481;-0.3330;
1245.6000;0.1473;-0.3402;
1245.9000;0.1490;-0.3211;
1246.2000;0.1457;-0.3235;
1246.5000;0.1498;-0.3187;
1246.8000;0.1498;-0.3211;
1247.1000;0.1530;-0.3211;
1247.4000;0.1506;-0.3211;
1247.7000;0.1473;-0.3283;
1248.0000;0.1514;-0.3187;
1248.3000;0.1457;-0.3306;
1248.6000;0.1490;-0.3211;
1248.9000;0.1490;-0.3235;
1249.2000;0.1490;-0.3235;
1249.5000;0.1457;-0.3259;
1249.8000;0.1473;-0.3235;
1250.1000;0.1498;-0.3115;
1250.4000;0.1498;-0.3115;
1250.7000;0.1481;-0.3187;
1251.0000;0.1384;-0.3450;
1251.3000;0.1555;-0.3091;
1251.6000;0.1490;-0.3139;
1251.9000;0.1481;-0.3067;
1252.2000;0.1530;-0.2923;
1252.5000;0.1506;-0.2971;
1252.8000;0.1522;-0.2875;
1253.1000;0.1481;-0.2947;
1253.4000;0.1490;-0.2899;
1253.7000;0.1514;-0.2827;
1254.0000;0.1498;-0.2995;
1254.3000;0.1498;-0.3091;
1254.6000;0.1481;-0.3115;
1254.9000;0.1506;-0.3043;
1255.2000;0.1522;-0.3043;
1255.5000;0.1473;-0.3139;
1255.8000;0.1481;-0.3091;
1256.1000;0.1490;-0.3019;
1256.4000;0.1506;-0.3019;
1256.7000;0.1506;-0.3043;
1257.0000;0.1473;-0.3211;
1257.3000;0.1449;-0.3259;
1257.6000;0.1506;-0.3091;
1257.9000;0.1490;-0.3091;
1258.2000;0.1490;-0.3067;
1258.5000;0.1490;-0.3067;
1258.8000;0.1514;-0.2971;
1259.1000;0.1490;-0.3067;
1259.4000;0.1506;-0.3091;
1259.7000;0.1481;-0.3163;
1260.0000;0.1522;-0.3091;
1260.3000;0.1506;-0.3139;
1260.6000;0.1473;-0.3211;
1260.9000;0.1457;-0.3235;
1261.2000;0.1392;-0.3474;
1261.5000;0.1506;-0.3163;
1261.8000;0.1490;-0.3235;
1262.1000;0.1490;-0.3211;
1262.4000;0.1506;-0.3235;
1262.7000;0.1522;-0.3139;
1263.0000;0.1514;-0.3115;
1263.3000;0.1457;-0.3115;
1263.6000;0.1490;-0.3067;
1263.9000;0.1506;-0.3019;
1264.2000;0.1498;-0.3139;
1264.5000;0.1498;-0.3211;
1264.8000;0.1498;-0.3330;
1265.1000;0.1514;-0.3378;
1265.4000;0.1490;-0.3378;
1265.7000;0.1498;-0.3354;
1266.0000;0.1425;-0.3498;
1266.3000;0.1498;-0.3306;
1266.6000;0.1490;-0.3354;
1266.9000;0.1498;-0.3283;
1267.2000;0.1490;-0.3211;
1267.5000;0.1465;-0.3378;
1267.8000;0.1351;-0.3594;
1268.1000;0.1490;-0.3163;
1268.4000;0.1481;-0.3115;
1268.7000;0.1498;-0.3115;
1269.0000;0.1481;-0.3187;
1269.3000;0.1490;-0.3235;
1269.6000;0.1498;-0.3235;
1269.9000;0.1514;-0.3187;
1270.2000;0.1490;-0.3283;
1270.5000;0.1490;-0.3283;
1270.8000;0.1579;-0.3043;
1271.1000;0.1481;-0.3354;
1271.4000;0.1514;-0.3402;
1271.7000;0.1506;-0.3474;
1272.0000;0.1481;-0.3546;
1272.3000;0.1498;-0.3498;
1272.6000;0.1449;-0.3618;
1272.9000;0.1481;-0.3522;
1273.2000;0.1481;-0.3570;
1273.5000;0.1498;-0.3426;
1273.8000;0.1481;-0.3426;
1274.1000;0.1522;-0.3306;
1274.4000;0.1498;-0.3426;
1274.7000;0.1506;-0.3450;
1275.0000;0.1473;-0.3498;
1275.3000;0.1506;-0.3354;
1275.6000;0.1506;-0.3402;
1275.9000;0.1425;-0.3690;
1276.2000;0.1473;-0.3522;
1276.5000;0.1481;-0.3474;
1276.8000;0.1490;-0.3402;
1277.1000;0.1490;-0.3426;
1277.4000;0.1490;-0.3402;
1277.7000;0.1498;-0.3283;
1278.0000;0.1595;-0.2923;
1278.3000;0.1473;-0.3235;
1278.6000;0.1498;-0.3259;
1278.9000;0.1433;-0.3402;
1279.2000;0.1506;-0.3187;
1279.5000;0.1522;-0.3139;
1279.8000;0.1506;-0.3259;
1280.1000;0.1481;-0.3378;
1280.4000;0.1473;-0.3402;
1280.7000;0.1490;-0.3354;
1281.0000;0.1490;-0.3306;
1281.3000;0.1498;-0.3259;
1281.6000;0.1481;-0.3378;
1281.9000;0.1490;-0.3498;
1282.2000;0.1481;-0.3474;
1282.5000;0.1473;-0.3546;
1282.8000;0.1498;-0.3474;
1283.1000;0.1481;-0.3474;
1283.4000;0.1473;-0.3522;
1283.7000;0.1490;-0.3546;
1284.0000;0.1490;-0.3546;
1284.3000;0.1490;-0.3570;
1284.6000;0.1498;-0.3594;
1284.9000;0.1481;-0.3690;
1285.2000;0.1481;-0.3642;
1285.5000;0.1457;-0.3642;
1285.8000;0.1457;-0.3570;
1286.1000;0.1481;-0.3426;
1286.4000;0.1498;-0.3426;
1286.7000;0.1481;-0.3450;
1287.0000;0.1498;-0.3378;
1287.3000;0.1481;-0.3354;
1287.6000;0.1473;-0.3187;
1287.9000;0.1498;-0.3211;
1288.2000;0.1457;-0.3354;
1288.5000;0.1620;-0.2899;
1288.8000;0.1506;-0.3163;
1289.1000;0.1481;-0.3235;
1289.4000;0.1490;-0.3163;
1289.7000;0.1457;-0.3235;
1290.0000;0.1514;-0.3139;
1290.3000;0.1506;-0.3235;
1290.6000;0.1490;-0.3211;
1290.9000;0.1514;-0.3139;
1291.2000;0.1506;-0.3211;
1291.5000;0.1498;-0.3211;
1291.8000;0.1490;-0.3259;
1292.1000;0.1481;-0.3115;
1292.4000;0.1465;-0.3211;
1292.7000;0.1506;-0.3115;
1293.0000;0.1449;-0.3139;
1293.3000;0.1473;-0.3139;
1293.6000;0.1498;-0.3115;
1293.9000;0.1481;-0.3163;
1294.2000;0.1481;-0.3187;
1294.5000;0.1473;-0.3163;
1294.8000;0.1481;-0.3139;
1295.1000;0.1522;-0.3043;
1295.4000;0.1506;-0.3067;
1295.7000;0.1490;-0.3115;
1296.0000;0.1530;-0.3115;
1296.3000;0.1498;-0.3163;
1296.6000;0.1498;-0.3139;
1296.9000;0.1506;-0.3067;
1297.2000;0.1490;-0.3115;
1297.5000;0.1498;-0.3187;
1297.8000;0.1490;-0.3283;
1298.1000;0.1433;-0.3594;
1298.4000;0.1498;-0.3402;
1298.7000;0.1473;-0.3474;
1299.0000;0.1498;-0.3450;
1299.3000;0.1498;-0.3354;
1299.6000;0.1538;-0.3163;
1299.9000;0.1498;-0.3187;
1300.2000;0.1490;-0.3259;
1300.5000;0.1473;-0.3283;
1300.8000;0.1490;-0.3235;
1301.1000;0.1368;-0.3498;
1301.4000;0.1481;-0.3091;
1301.7000;0.1490;-0.3067;
1302.0000;0.1473;-0.3139;
1302.3000;0.1498;-0.2995;
1302.6000;0.1498;-0.3091;
1302.9000;0.1514;-0.3067;
1303.2000;0.1490;-0.3115;
1303.5000;0.1498;-0.3139;
1303.8000;0.1490;-0.3115;
1304.1000;0.1490;-0.3115;
1304.4000;0.1498;-0.3043;
1304.7000;0.1473;-0.3187;
1305.0000;0.1473;-0.3187;
1305.3000;0.1490;-0.3115;
1305.6000;0.1530;-0.2971;
1305.9000;0.1473;-0.3211;
1306.2000;0.1490;-0.3163;
1306.5000;0.1481;-0.3187;
1306.8000;0.1473;-0.3187;
1307.1000;0.1490;-0.3187;
1307.4000;0.1481;-0.3259;
1307.7000;0.1368;-0.3570;
1308.0000;0.1490;-0.3259;
1308.3000;0.1457;-0.3330;
1308.6000;0.1481;-0.3211;
1308.9000;0.1481;-0.3187;
1309.2000;0.1514;-0.3019;
1309.5000;0.1563;-0.3043;
1309.8000;0.1498;-0.3187;
1310.1000;0.1490;-0.3259;
1310.4000;0.1473;-0.3259;
1310.7000;0.1481;-0.3283;
1311.0000;0.1481;-0.3211;
1311.3000;0.1457;-0.3283;
1311.6000;0.1498;-0.3139;
1311.9000;0.1457;-0.3330;
1312.2000;0.1490;-0.3187;
1312.5000;0.1481;-0.3235;
1312.8000;0.1425;-0.3306;
1313.1000;0.1514;-0.3043;
1313.4000;0.1490;-0.3019;
1313.7000;0.1384;-0.3211;
1314.0000;0.1473;-0.2971;
1314.3000;0.1498;-0.2971;
1314.6000;0.1490;-0.2995;
1314.9000;0.1473;-0.3019;
1315.2000;0.1481;-0.3043;
1315.5000;0.1506;-0.2995;
1315.8000;0.1498;-0.2995;
1316.1000;0.1514;-0.2923;
1316.4000;0.1498;-0.3043;
1316.7000;0.1490;-0.3139;
1317.0000;0.1481;-0.3139;
1317.3000;0.1481;-0.3091;
1317.6000;0.1498;-0.3043;
1317.9000;0.1465;-0.3067;
1318.2000;0.1498;-0.3019;
1318.5000;0.1530;-0.2947;
1318.8000;0.1490;-0.3139;
1319.1000;0.1481;-0.3187;
1319.4000;0.1498;-0.3163;
1319.7000;0.1498;-0.3163;
1320.0000;0.1473;-0.3067;
1320.3000;0.1481;-0.2971;
1320.6000;0.1506;-0.3019;
1320.9000;0.1481;-0.3067;
1321.2000;0.1506;-0.3019;
1321.5000;0.1612;-0.2684;
1321.8000;0.1490;-0.2947;
1322.1000;0.1490;-0.3019;
1322.4000;0.1473;-0.2995;
1322.7000;0.1473;-0.3019;
1323.0000;0.1481;-0.3115;
1323.3000;0.1498;-0.3043;
1323.6000;0.1498;-0.3115;
1323.9000;0.1481;-0.3163;
1324.2000;0.1547;-0.2971;
1324.5000;0.1457;-0.3187;
1324.8000;0.1441;-0.3330;
1325.1000;0.1481;-0.3163;
1325.4000;0.1490;-0.3187;
1325.7000;0.1506;-0.3043;
1326.0000;0.1481;-0.3115;
1326.3000;0.1490;-0.3067;
1326.6000;0.1506;-0.2923;
1326.9000;0.1465;-0.3043;
1327.2000;0.1441;-0.3139;
1327.5000;0.1547;-0.2899;
1327.8000;0.1473;-0.3115;
1328.1000;0.1481;-0.3163;
1328.4000;0.1530;-0.3115;
1328.7000;0.1490;-0.3211;
1329.0000;0.1490;-0.3211;
1329.3000;0.1465;-0.3211;
1329.6000;0.1530;-0.3019;
1329.9000;0.1481;-0.3211;
1330.2000;0.1555;-0.2947;
1330.5000;0.1473;-0.3139;
1330.8000;0.1481;-0.3067;
1331.1000;0.1490;-0.3019;
1331.4000;0.1473;-0.3043;
1331.7000;0.1587;-0.2755;
1332.0000;0.1506;-0.2995;
1332.3000;0.1530;-0.2971;
1332.6000;0.1612;-0.2755;
1332.9000;0.1555;-0.2899;
1333.2000;0.1612;-0.2731;
1333.5000;0.1498;-0.2995;
1333.8000;0.1506;-0.2995;
1334.1000;0.1449;-0.3163;
1334.4000;0.1490;-0.3091;
1334.7000;0.1587;-0.2803;
1335.0000;0.1490;-0.3067;
1335.3000;0.1498;-0.3115;
1335.6000;0.1481;-0.3211;
1335.9000;0.1547;-0.3067;
1336.2000;0.1490;-0.3211;
1336.5000;0.1490;-0.3259;
1336.8000;0.1400;-0.3426;
1337.1000;0.1473;-0.3283;
1337.4000;0.1498;-0.3235;
1337.7000;0.1522;-0.3163;
1338.0000;0.1481;-0.3235;
1338.3000;0.1481;-0.3211;
1338.6000;0.1498;-0.3187;
1338.9000;0.1522;-0.3211;
1339.2000;0.1490;-0.3259;
1339.5000;0.1490;-0.3235;
1339.8000;0.1530;-0.3139;
1340.1000;0.1498;-0.3163;
1340.4000;0.1571;-0.3019;
1340.7000;0.1506;-0.3139;
1341.0000;0.1433;-0.3330;
1341.3000;0.1490;-0.3091;
1341.6000;0.1473;-0.3115;
1341.9000;0.1465;-0.3211;
1342.2000;0.1498;-0.3139;
1342.5000;0.1490;-0.3091;
1342.8000;0.1530;-0.2995;
1343.1000;0.1481;-0.3115;
1343.4000;0.1481;-0.3115;
1343.7000;0.1506;-0.3091;
1344.0000;0.1481;-0.3139;
1344.3000;0.1514;-0.3163;
1344.6000;0.1506;-0.3235;
1344.9000;0.1514;-0.3163;
1345.2000;0.1490;-0.3187;
1345.5000;0.1514;-0.3091;
1345.8000;0.1498;-0.3091;
1346.1000;0.1563;-0.2851;
1346.4000;0.1449;-0.3115;
1346.7000;0.1481;-0.2995;
1347.0000;0.1498;-0.3043;
1347.3000;0.1465;-0.3115;
1347.6000;0.1490;-0.3139;
1347.9000;0.1481;-0.3115;
1348.2000;0.1506;-0.2947;
1348.5000;0.1481;-0.3019;
1348.8000;0.1490;-0.3067;
1349.1000;0.1498;-0.3091;
1349.4000;0.1506;-0.3139;
1349.7000;0.1465;-0.3306;
1350.0000;0.1506;-0.3139;
1350.3000;0.1498;-0.3163;
1350.6000;0.1571;-0.2995;
1350.9000;0.1522;-0.3019;
1351.2000;0.1498;-0.3115;
1351.5000;0.1473;-0.3187;
1351.8000;0.1465;-0.3235;
1352.1000;0.1473;-0.3235;
1352.4000;0.1481;-0.3211;
1352.7000;0.1547;-0.3067;
1353.0000;0.1522;-0.3163;
1353.3000;0.1490;-0.3115;
1353.6000;0.1514;-0.3091;
1353.9000;0.1506;-0.3163;
1354.2000;0.1571;-0.2995;
1354.5000;0.1473;-0.3187;
1354.8000;0.1481;-0.3115;
1355.1000;0.1490;-0.3067;
1355.4000;0.1490;-0.3043;
1355.7000;0.1506;-0.3019;
1356.0000;0.1530;-0.2947;
1356.3000;0.1498;-0.3043;
1356.6000;0.1392;-0.3235;
1356.9000;0.1498;-0.2995;
1357.2000;0.1563;-0.2827;
1357.5000;0.1473;-0.3067;
1357.8000;0.1481;-0.3139;
1358.1000;0.1457;-0.3115;
1358.4000;0.1498;-0.3043;
1358.7000;0.1433;-0.3211;
1359.0000;0.1538;-0.2899;
1359.3000;0.1490;-0.3043;
1359.6000;0.1498;-0.2995;
1359.9000;0.1490;-0.2947;
1360.2000;0.1506;-0.2875;
1360.5000;0.1481;-0.2947;
1360.8000;0.1473;-0.2947;
1361.1000;0.1465;-0.3019;
1361.4000;0.1490;-0.3019;
1361.7000;0.1506;-0.2947;
1362.0000;0.1498;-0.2995;
1362.3000;0.1506;-0.3019;
1362.6000;0.1481;-0.3091;
1362.9000;0.1433;-0.3187;
1363.2000;0.1481;-0.3091;
1363.5000;0.1490;-0.3043;
1363.8000;0.1490;-0.3115;
1364.1000;0.1481;-0.3163;
1364.4000;0.1490;-0.3139;
1364.7000;0.1473;-0.3115;
1365.0000;0.1490;-0.3163;
1365.3000;0.1498;-0.3235;
1365.6000;0.1506;-0.3211;
1365.9000;0.1514;-0.3235;
1366.2000;0.1506;-0.3211;
1366.5000;0.1498;-0.3235;
1366.8000;0.1522;-0.3139;
1367.1000;0.1481;-0.3187;
1367.4000;0.1498;-0.3163;
1367.7000;0.1490;-0.3163;
1368.0000;0.1473;-0.3211;
1368.3000;0.1506;-0.3115;
1368.6000;0.1457;-0.3211;
1368.9000;0.1481;-0.3211;
1369.2000;0.1433;-0.3354;
1369.5000;0.1506;-0.3115;
1369.8000;0.1392;-0.3378;
1370.1000;0.1465;-0.3163;
1370.4000;0.1547;-0.2995;
1370.7000;0.1449;-0.3283;
1371.0000;0.1498;-0.3163;
1371.3000;0.1481;-0.3115;
1371.6000;0.1530;-0.2995;
1371.9000;0.1538;-0.2971;
1372.2000;0.1465;-0.3211;
1372.5000;0.1506;-0.3043;
1372.8000;0.1498;-0.3019;
1373.1000;0.1498;-0.2995;
1373.4000;0.1498;-0.3019;
1373.7000;0.1490;-0.3043;
1374.0000;0.1498;-0.3067;
1374.3000;0.1481;-0.2947;
1374.6000;0.1481;-0.2875;
1374.9000;0.1490;-0.2923;
1375.2000;0.1481;-0.2947;
1375.5000;0.1514;-0.2899;
1375.8000;0.1498;-0.3019;
1376.1000;0.1530;-0.2947;
1376.4000;0.1628;-0.2731;
1376.7000;0.1506;-0.3067;
1377.0000;0.1498;-0.3019;
1377.3000;0.1490;-0.2995;
1377.6000;0.1490;-0.3091;
1377.9000;0.1465;-0.3163;
1378.2000;0.1481;-0.3211;
1378.5000;0.1465;-0.3235;
1378.8000;0.1506;-0.3187;
1379.1000;0.1481;-0.3259;
1379.4000;0.1498;-0.3259;
1379.7000;0.1457;-0.3330;
1380.0000;0.1498;-0.3187;
1380.3000;0.1465;-0.3283;
1380.6000;0.1498;-0.3163;
1380.9000;0.1498;-0.3115;
1381.2000;0.1490;-0.3115;
1381.5000;0.1490;-0.3115;
1381.8000;0.1449;-0.3211;
1382.1000;0.1473;-0.3187;
1382.4000;0.1481;-0.3211;
1382.7000;0.1465;-0.3259;
1383.0000;0.1457;-0.3330;
1383.3000;0.1416;-0.3474;
1383.6000;0.1481;-0.3259;
1383.9000;0.1506;-0.3043;
1384.2000;0.1498;-0.2995;
1384.5000;0.1473;-0.3043;
1384.8000;0.1473;-0.3067;
1385.1000;0.1481;-0.2995;
1385.4000;0.1481;-0.3019;
1385.7000;0.1465;-0.3019;
1386.0000;0.1490;-0.2875;
1386.3000;0.1506;-0.2827;
1386.6000;0.1490;-0.2923;
1386.9000;0.1400;-0.3283;
1387.2000;0.1457;-0.3115;
1387.5000;0.1612;-0.2755;
1387.8000;0.1490;-0.3043;
1388.1000;0.1506;-0.2995;
1388.4000;0.1490;-0.3091;
1388.7000;0.1490;-0.3043;
1389.0000;0.1498;-0.3019;
1389.3000;0.1563;-0.2875;
1389.6000;0.1473;-0.3091;
1389.9000;0.1465;-0.3067;
1390.2000;0.1490;-0.2947;
1390.5000;0.1473;-0.3091;
1390.8000;0.1490;-0.3043;
1391.1000;0.1506;-0.2899;
1391.4000;0.1563;-0.2827;
1391.7000;0.1481;-0.3139;
1392.0000;0.1473;-0.3139;
1392.3000;0.1481;-0.3187;
1392.6000;0.1490;-0.3091;
1392.9000;0.1481;-0.3067;
1393.2000;0.1530;-0.2971;
1393.5000;0.1416;-0.3235;
1393.8000;0.1522;-0.2947;
1394.1000;0.1498;-0.2995;
1394.4000;0.1490;-0.3019;
1394.7000;0.1538;-0.2899;
1395.0000;0.1490;-0.3019;
1395.3000;0.1481;-0.3091;
1395.6000;0.1449;-0.3163;
1395.9000;0.1481;-0.3067;
1396.2000;0.1498;-0.3019;
1396.5000;0.1490;-0.3115;
1396.8000;0.1498;-0.3115;
1397.1000;0.1506;-0.3115;
1397.4000;0.1522;-0.3163;
1397.7000;0.1595;-0.2971;
1398.0000;0.1628;-0.2875;
1398.3000;0.1481;-0.3211;
1398.6000;0.1506;-0.3187;
1398.9000;0.1473;-0.3259;
1399.2000;0.1473;-0.3187;
1399.5000;0.1481;-0.3211;
1399.8000;0.1392;-0.3522;
