time/ms;Fluo/V;P700 deltaI/I x10³;
-199.8000;0.1514;-0.2588;
-199.5000;0.1522;-0.2564;
-199.2000;0.1514;-0.2636;
-198.9000;0.1522;-0.2564;
-198.6000;0.1514;-0.2444;
-198.3000;0.1514;-0.2396;
-198.0000;0.1522;-0.2444;
-197.7000;0.1522;-0.2444;
-197.4000;0.1506;-0.2492;
-197.1000;0.1457;-0.2684;
-196.8000;0.1522;-0.2636;
-196.5000;0.1530;-0.2612;
-196.2000;0.1514;-0.2684;
-195.9000;0.1449;-0.2947;
-195.6000;0.1522;-0.2731;
-195.3000;0.1514;-0.2707;
-195.0000;0.1522;-0.2707;
-194.7000;0.1498;-0.2707;
-194.4000;0.1514;-0.2660;
-194.1000;0.1538;-0.2636;
-193.8000;0.1522;-0.2755;
-193.5000;0.1514;-0.2779;
-193.2000;0.1522;-0.2851;
-192.9000;0.1522;-0.2755;
-192.6000;0.1514;-0.2731;
-192.3000;0.1514;-0.2660;
-192.0000;0.1498;-0.2660;
-191.7000;0.1514;-0.2636;
-191.4000;0.1522;-0.2612;
-191.1000;0.1530;-0.2588;
-190.8000;0.1530;-0.2684;
-190.5000;0.1506;-0.2660;
-190.2000;0.1514;-0.2684;
-189.9000;0.1490;-0.2851;
-189.6000;0.1490;-0.2875;
-189.3000;0.1522;-0.2827;
-189.0000;0.1538;-0.2755;
-188.7000;0.1538;-0.2755;
-188.4000;0.1538;-0.2755;
-188.1000;0.1522;-0.2684;
-187.8000;0.1302;-0.3163;
-187.5000;0.1538;-0.2636;
-187.2000;0.1530;-0.2731;
-186.9000;0.1571;-0.2660;
-186.6000;0.1514;-0.2851;
-186.3000;0.1506;-0.2803;
-186.0000;0.1498;-0.2779;
-185.7000;0.1530;-0.2755;
-185.4000;0.1498;-0.2899;
-185.1000;0.1481;-0.2947;
-184.8000;0.1490;-0.2827;
-184.5000;0.1498;-0.2803;
-184.2000;0.1514;-0.2707;
-183.9000;0.1514;-0.2707;
-183.6000;0.1530;-0.2660;
-183.3000;0.1522;-0.2707;
-183.0000;0.1547;-0.2612;
-182.7000;0.1514;-0.2684;
-182.4000;0.1514;-0.2636;
-182.1000;0.1473;-0.2779;
-181.8000;0.1490;-0.2827;
-181.5000;0.1514;-0.2803;
-181.2000;0.1514;-0.2803;
-180.9000;0.1522;-0.2612;
-180.6000;0.1506;-0.2660;
-180.3000;0.1514;-0.2636;
-180.0000;0.1506;-0.2588;
-179.7000;0.1604;-0.2324;
-179.4000;0.1522;-0.2612;
-179.1000;0.1514;-0.2540;
-178.8000;0.1522;-0.2516;
-178.5000;0.1522;-0.2468;
-178.2000;0.1579;-0.2324;
-177.9000;0.1514;-0.2420;
-177.6000;0.1538;-0.2444;
-177.3000;0.1538;-0.2348;
-177.0000;0.1506;-0.2468;
-176.7000;0.1498;-0.2396;
-176.4000;0.1514;-0.2348;
-176.1000;0.1522;-0.2372;
-175.8000;0.1530;-0.2420;
-175.5000;0.1506;-0.2468;
-175.2000;0.1538;-0.2468;
-174.9000;0.1547;-0.2444;
-174.6000;0.1522;-0.2564;
-174.3000;0.1465;-0.2755;
-174.0000;0.1595;-0.2516;
-173.7000;0.1530;-0.2707;
-173.4000;0.1522;-0.2803;
-173.1000;0.1530;-0.2707;
-172.8000;0.1514;-0.2707;
-172.5000;0.1522;-0.2588;
-172.2000;0.1522;-0.2540;
-171.9000;0.1587;-0.2324;
-171.6000;0.1530;-0.2540;
-171.3000;0.1506;-0.2660;
-171.0000;0.1530;-0.2660;
-170.7000;0.1604;-0.2444;
-170.4000;0.1571;-0.2564;
-170.1000;0.1481;-0.2731;
-169.8000;0.1514;-0.2564;
-169.5000;0.1571;-0.2492;
-169.2000;0.1473;-0.2827;
-168.9000;0.1514;-0.2684;
-168.6000;0.1490;-0.2755;
-168.3000;0.1490;-0.2755;
-168.0000;0.1538;-0.2636;
-167.7000;0.1530;-0.2660;
-167.4000;0.1595;-0.2564;
-167.1000;0.1530;-0.2684;
-166.8000;0.1530;-0.2707;
-166.5000;0.1555;-0.2612;
-166.2000;0.1530;-0.2707;
-165.9000;0.1530;-0.2612;
-165.6000;0.1506;-0.2636;
-165.3000;0.1498;-0.2684;
-165.0000;0.1433;-0.2779;
-164.7000;0.1522;-0.2588;
-164.4000;0.1498;-0.2588;
-164.1000;0.1481;-0.2660;
-163.8000;0.1481;-0.2660;
-163.5000;0.1538;-0.2516;
-163.2000;0.1555;-0.2468;
-162.9000;0.1490;-0.2540;
-162.6000;0.1506;-0.2564;
-162.3000;0.1498;-0.2564;
-162.0000;0.1514;-0.2564;
-161.7000;0.1481;-0.2684;
-161.4000;0.1514;-0.2564;
-161.1000;0.1579;-0.2516;
-160.8000;0.1514;-0.2660;
-160.5000;0.1530;-0.2731;
-160.2000;0.1522;-0.2612;
-159.9000;0.1514;-0.2755;
-159.6000;0.1522;-0.2755;
-159.3000;0.1506;-0.2899;
-159.0000;0.1498;-0.2899;
-158.7000;0.1530;-0.2851;
-158.4000;0.1555;-0.2803;
-158.1000;0.1530;-0.2827;
-157.8000;0.1457;-0.2899;
-157.5000;0.1506;-0.2779;
-157.2000;0.1514;-0.2731;
-156.9000;0.1595;-0.2348;
-156.6000;0.1522;-0.2492;
-156.3000;0.1538;-0.2444;
-156.0000;0.1547;-0.2516;
-155.7000;0.1522;-0.2516;
-155.4000;0.1530;-0.2516;
-155.1000;0.1498;-0.2612;
-154.8000;0.1538;-0.2516;
-154.5000;0.1530;-0.2612;
-154.2000;0.1522;-0.2731;
-153.9000;0.1514;-0.2707;
-153.6000;0.1522;-0.2660;
-153.3000;0.1538;-0.2588;
-153.0000;0.1425;-0.2851;
-152.7000;0.1555;-0.2492;
-152.4000;0.1579;-0.2396;
-152.1000;0.1514;-0.2564;
-151.8000;0.1522;-0.2588;
-151.5000;0.1522;-0.2612;
-151.2000;0.1530;-0.2516;
-150.9000;0.1587;-0.2396;
-150.6000;0.1514;-0.2636;
-150.3000;0.1506;-0.2660;
-150.0000;0.1506;-0.2707;
-149.7000;0.1498;-0.2660;
-149.4000;0.1595;-0.2372;
-149.1000;0.1530;-0.2492;
-148.8000;0.1514;-0.2540;
-148.5000;0.1433;-0.2731;
-148.2000;0.1538;-0.2444;
-147.9000;0.1636;-0.2085;
-147.6000;0.1514;-0.2468;
-147.3000;0.1473;-0.2588;
-147.0000;0.1522;-0.2492;
-146.7000;0.1506;-0.2492;
-146.4000;0.1514;-0.2516;
-146.1000;0.1514;-0.2540;
-145.8000;0.1490;-0.2564;
-145.5000;0.1530;-0.2420;
-145.2000;0.1530;-0.2420;
-144.9000;0.1514;-0.2516;
-144.6000;0.1530;-0.2468;
-144.3000;0.1571;-0.2396;
-144.0000;0.1506;-0.2444;
-143.7000;0.1522;-0.2372;
-143.4000;0.1604;-0.2132;
-143.1000;0.1506;-0.2492;
-142.8000;0.1530;-0.2516;
-142.5000;0.1514;-0.2516;
-142.2000;0.1514;-0.2516;
-141.9000;0.1530;-0.2492;
-141.6000;0.1514;-0.2492;
-141.3000;0.1547;-0.2420;
-141.0000;0.1522;-0.2444;
-140.7000;0.1514;-0.2444;
-140.4000;0.1400;-0.2827;
-140.1000;0.1465;-0.2636;
-139.8000;0.1522;-0.2516;
-139.5000;0.1514;-0.2516;
-139.2000;0.1481;-0.2612;
-138.9000;0.1620;-0.2156;
-138.6000;0.1481;-0.2516;
-138.3000;0.1506;-0.2516;
-138.0000;0.1457;-0.2755;
-137.7000;0.1514;-0.2468;
-137.4000;0.1514;-0.2492;
-137.1000;0.1498;-0.2564;
-136.8000;0.1514;-0.2540;
-136.5000;0.1498;-0.2588;
-136.2000;0.1498;-0.2588;
-135.9000;0.1522;-0.2444;
-135.6000;0.1530;-0.2348;
-135.3000;0.1555;-0.2276;
-135.0000;0.1636;-0.2061;
-134.7000;0.1522;-0.2396;
-134.4000;0.1514;-0.2396;
-134.1000;0.1506;-0.2444;
-133.8000;0.1555;-0.2348;
-133.5000;0.1571;-0.2300;
-133.2000;0.1498;-0.2516;
-132.9000;0.1514;-0.2540;
-132.6000;0.1530;-0.2516;
-132.3000;0.1514;-0.2516;
-132.0000;0.1465;-0.2684;
-131.7000;0.1547;-0.2492;
-131.4000;0.1530;-0.2564;
-131.1000;0.1433;-0.2827;
-130.8000;0.1473;-0.2851;
-130.5000;0.1530;-0.2755;
-130.2000;0.1506;-0.2755;
-129.9000;0.1530;-0.2660;
-129.6000;0.1506;-0.2684;
-129.3000;0.1587;-0.2492;
-129.0000;0.1481;-0.2803;
-128.7000;0.1506;-0.2731;
-128.4000;0.1522;-0.2684;
-128.1000;0.1547;-0.2468;
-127.8000;0.1522;-0.2468;
-127.5000;0.1538;-0.2492;
-127.2000;0.1498;-0.2540;
-126.9000;0.1514;-0.2588;
-126.6000;0.1563;-0.2540;
-126.3000;0.1481;-0.2755;
-126.0000;0.1522;-0.2564;
-125.7000;0.1498;-0.2588;
-125.4000;0.1490;-0.2636;
-125.1000;0.1530;-0.2564;
-124.8000;0.1514;-0.2540;
-124.5000;0.1408;-0.2923;
-124.2000;0.1522;-0.2588;
-123.9000;0.1498;-0.2612;
-123.6000;0.1514;-0.2540;
-123.3000;0.1514;-0.2588;
-123.0000;0.1514;-0.2588;
-122.7000;0.1547;-0.2516;
-122.4000;0.1522;-0.2588;
-122.1000;0.1538;-0.2468;
-121.8000;0.1506;-0.2636;
-121.5000;0.1555;-0.2516;
-121.2000;0.1514;-0.2612;
-120.9000;0.1538;-0.2588;
-120.6000;0.1538;-0.2588;
-120.3000;0.1506;-0.2684;
-120.0000;0.1506;-0.2803;
-119.7000;0.1490;-0.2851;
-119.4000;0.1538;-0.2707;
-119.1000;0.1522;-0.2731;
-118.8000;0.1506;-0.2707;
-118.5000;0.1530;-0.2588;
-118.2000;0.1547;-0.2516;
-117.9000;0.1514;-0.2612;
-117.6000;0.1530;-0.2540;
-117.3000;0.1522;-0.2612;
-117.0000;0.1490;-0.2588;
-116.7000;0.1538;-0.2492;
-116.4000;0.1514;-0.2588;
-116.1000;0.1522;-0.2564;
-115.8000;0.1530;-0.2636;
-115.5000;0.1522;-0.2755;
-115.2000;0.1538;-0.2707;
-114.9000;0.1530;-0.2803;
-114.6000;0.1538;-0.2684;
-114.3000;0.1522;-0.2731;
-114.0000;0.1538;-0.2731;
-113.7000;0.1538;-0.2707;
-113.4000;0.1506;-0.2755;
-113.1000;0.1490;-0.2827;
-112.8000;0.1514;-0.2755;
-112.5000;0.1522;-0.2707;
-112.2000;0.1376;-0.3139;
-111.9000;0.1538;-0.2660;
-111.6000;0.1522;-0.2684;
-111.3000;0.1457;-0.2827;
-111.0000;0.1514;-0.2660;
-110.7000;0.1449;-0.2923;
-110.4000;0.1473;-0.2947;
-110.1000;0.1522;-0.2851;
-109.8000;0.1514;-0.2923;
-109.5000;0.1522;-0.2851;
-109.2000;0.1514;-0.2851;
-108.9000;0.1514;-0.2851;
-108.6000;0.1506;-0.2779;
-108.3000;0.1514;-0.2779;
-108.0000;0.1530;-0.2684;
-107.7000;0.1547;-0.2612;
-107.4000;0.1506;-0.2684;
-107.1000;0.1457;-0.2851;
-106.8000;0.1433;-0.2995;
-106.5000;0.1538;-0.2707;
-106.2000;0.1506;-0.2755;
-105.9000;0.1490;-0.2779;
-105.6000;0.1579;-0.2492;
-105.3000;0.1490;-0.2731;
-105.0000;0.1530;-0.2516;
-104.7000;0.1530;-0.2540;
-104.4000;0.1579;-0.2420;
-104.1000;0.1514;-0.2612;
-103.8000;0.1481;-0.2779;
-103.5000;0.1514;-0.2803;
-103.2000;0.1530;-0.2731;
-102.9000;0.1433;-0.2947;
-102.6000;0.1538;-0.2803;
-102.3000;0.1530;-0.2875;
-102.0000;0.1530;-0.2851;
-101.7000;0.1604;-0.2684;
-101.4000;0.1449;-0.3067;
-101.1000;0.1490;-0.2923;
-100.8000;0.1530;-0.2755;
-100.5000;0.1522;-0.2851;
-100.2000;0.1514;-0.2875;
-99.9000;0.1538;-0.2779;
-99.6000;0.1376;-0.3139;
-99.3000;0.1465;-0.2947;
-99.0000;0.1522;-0.2827;
-98.7000;0.1522;-0.2779;
-98.4000;0.1522;-0.2731;
-98.1000;0.1514;-0.2684;
-97.8000;0.1506;-0.2707;
-97.5000;0.1530;-0.2707;
-97.2000;0.1538;-0.2660;
-96.9000;0.1522;-0.2636;
-96.6000;0.1514;-0.2588;
-96.3000;0.1530;-0.2636;
-96.0000;0.1522;-0.2684;
-95.7000;0.1530;-0.2731;
-95.4000;0.1514;-0.2660;
-95.1000;0.1522;-0.2684;
-94.8000;0.1538;-0.2684;
-94.5000;0.1514;-0.2755;
-94.2000;0.1522;-0.2612;
-93.9000;0.1538;-0.2540;
-93.6000;0.1506;-0.2588;
-93.3000;0.1547;-0.2540;
-93.0000;0.1498;-0.2612;
-92.7000;0.1538;-0.2564;
-92.4000;0.1522;-0.2660;
-92.1000;0.1522;-0.2707;
-91.8000;0.1506;-0.2731;
-91.5000;0.1522;-0.2707;
-91.2000;0.1498;-0.2827;
-90.9000;0.1538;-0.2755;
-90.6000;0.1522;-0.2755;
-90.3000;0.1579;-0.2564;
-90.0000;0.1538;-0.2660;
-89.7000;0.1514;-0.2684;
-89.4000;0.1563;-0.2516;
-89.1000;0.1514;-0.2636;
-88.8000;0.1522;-0.2707;
-88.5000;0.1571;-0.2612;
-88.2000;0.1530;-0.2755;
-87.9000;0.1498;-0.2803;
-87.6000;0.1538;-0.2779;
-87.3000;0.1490;-0.2875;
-87.0000;0.1514;-0.2803;
-86.7000;0.1522;-0.2755;
-86.4000;0.1498;-0.2851;
-86.1000;0.1514;-0.2851;
-85.8000;0.1514;-0.2779;
-85.5000;0.1498;-0.2803;
-85.2000;0.1547;-0.2779;
-84.9000;0.1530;-0.2827;
-84.6000;0.1563;-0.2803;
-84.3000;0.1530;-0.2899;
-84.0000;0.1595;-0.2755;
-83.7000;0.1538;-0.2827;
-83.4000;0.1530;-0.2731;
-83.1000;0.1506;-0.2779;
-82.8000;0.1538;-0.2731;
-82.5000;0.1514;-0.2731;
-82.2000;0.1547;-0.2684;
-81.9000;0.1416;-0.3139;
-81.6000;0.1506;-0.2851;
-81.3000;0.1530;-0.2827;
-81.0000;0.1514;-0.2875;
-80.7000;0.1498;-0.2947;
-80.4000;0.1514;-0.2971;
-80.1000;0.1506;-0.2971;
-79.8000;0.1506;-0.2875;
-79.5000;0.1538;-0.2779;
-79.2000;0.1425;-0.2995;
-78.9000;0.1530;-0.2707;
-78.6000;0.1506;-0.2827;
-78.3000;0.1530;-0.2707;
-78.0000;0.1514;-0.2707;
-77.7000;0.1506;-0.2755;
-77.4000;0.1530;-0.2707;
-77.1000;0.1530;-0.2684;
-76.8000;0.1514;-0.2779;
-76.5000;0.1522;-0.2707;
-76.2000;0.1644;-0.2372;
-75.9000;0.1555;-0.2540;
-75.6000;0.1538;-0.2444;
-75.3000;0.1449;-0.2827;
-75.0000;0.1530;-0.2731;
-74.7000;0.1530;-0.2827;
-74.4000;0.1506;-0.2851;
-74.1000;0.1661;-0.2420;
-73.8000;0.1481;-0.2827;
-73.5000;0.1522;-0.2707;
-73.2000;0.1441;-0.2899;
-72.9000;0.1506;-0.2660;
-72.6000;0.1538;-0.2707;
-72.3000;0.1498;-0.2851;
-72.0000;0.1506;-0.2731;
-71.7000;0.1522;-0.2707;
-71.4000;0.1530;-0.2707;
-71.1000;0.1547;-0.2660;
-70.8000;0.1506;-0.2779;
-70.5000;0.1547;-0.2707;
-70.2000;0.1522;-0.2636;
-69.9000;0.1481;-0.2755;
-69.6000;0.1490;-0.2827;
-69.3000;0.1490;-0.2755;
-69.0000;0.1473;-0.2660;
-68.7000;0.1506;-0.2612;
-68.4000;0.1506;-0.2636;
-68.1000;0.1522;-0.2588;
-67.8000;0.1522;-0.2516;
-67.5000;0.1498;-0.2612;
-67.2000;0.1490;-0.2636;
-66.9000;0.1530;-0.2468;
-66.6000;0.1522;-0.2468;
-66.3000;0.1538;-0.2468;
-66.0000;0.1514;-0.2540;
-65.7000;0.1530;-0.2564;
-65.4000;0.1612;-0.2372;
-65.1000;0.1522;-0.2564;
-64.8000;0.1514;-0.2516;
-64.5000;0.1473;-0.2684;
-64.2000;0.1530;-0.2540;
-63.9000;0.1522;-0.2588;
-63.6000;0.1498;-0.2636;
-63.3000;0.1514;-0.2612;
-63.0000;0.1473;-0.2684;
-62.7000;0.1522;-0.2588;
-62.4000;0.1522;-0.2444;
-62.1000;0.1547;-0.2348;
-61.8000;0.1514;-0.2348;
-61.5000;0.1506;-0.2324;
-61.2000;0.1522;-0.2252;
-60.9000;0.1514;-0.2348;
-60.6000;0.1514;-0.2372;
-60.3000;0.1522;-0.2372;
-60.0000;0.1514;-0.2444;
-59.7000;0.1538;-0.2396;
-59.4000;0.1514;-0.2492;
-59.1000;0.1514;-0.2492;
-58.8000;0.1530;-0.2420;
-58.5000;0.1514;-0.2396;
-58.2000;0.1506;-0.2444;
-57.9000;0.1498;-0.2468;
-57.6000;0.1522;-0.2444;
-57.3000;0.1506;-0.2444;
-57.0000;0.1441;-0.2564;
-56.7000;0.1538;-0.2300;
-56.4000;0.1563;-0.2300;
-56.1000;0.1530;-0.2468;
-55.8000;0.1530;-0.2396;
-55.5000;0.1579;-0.2276;
-55.2000;0.1530;-0.2396;
-54.9000;0.1538;-0.2348;
-54.6000;0.1506;-0.2372;
-54.3000;0.1555;-0.2324;
-54.0000;0.1530;-0.2492;
-53.7000;0.1522;-0.2468;
-53.4000;0.1522;-0.2420;
-53.1000;0.1522;-0.2468;
-52.8000;0.1506;-0.2588;
-52.5000;0.1514;-0.2564;
-52.2000;0.1498;-0.2660;
-51.9000;0.1514;-0.2612;
-51.6000;0.1522;-0.2540;
-51.3000;0.1628;-0.2348;
-51.0000;0.1628;-0.2300;
-50.7000;0.1506;-0.2564;
-50.4000;0.1522;-0.2540;
-50.1000;0.1514;-0.2564;
-49.8000;0.1530;-0.2516;
-49.5000;0.1530;-0.2516;
-49.2000;0.1530;-0.2564;
-48.9000;0.1514;-0.2564;
-48.6000;0.1514;-0.2612;
-48.3000;0.1612;-0.2420;
-48.0000;0.1506;-0.2588;
-47.7000;0.1506;-0.2564;
-47.4000;0.1498;-0.2612;
-47.1000;0.1490;-0.2636;
-46.8000;0.1530;-0.2612;
-46.5000;0.1490;-0.2636;
-46.2000;0.1522;-0.2564;
-45.9000;0.1498;-0.2660;
-45.6000;0.1506;-0.2660;
-45.3000;0.1490;-0.2731;
-45.0000;0.1547;-0.2684;
-44.7000;0.1465;-0.2803;
-44.4000;0.1538;-0.2660;
-44.1000;0.1555;-0.2636;
-43.8000;0.1498;-0.2707;
-43.5000;0.1498;-0.2707;
-43.2000;0.1514;-0.2636;
-42.9000;0.1498;-0.2660;
-42.6000;0.1457;-0.2731;
-42.3000;0.1547;-0.2588;
-42.0000;0.1547;-0.2564;
-41.7000;0.1522;-0.2636;
-41.4000;0.1514;-0.2636;
-41.1000;0.1530;-0.2540;
-40.8000;0.1522;-0.2588;
-40.5000;0.1522;-0.2564;
-40.2000;0.1555;-0.2516;
-39.9000;0.1506;-0.2707;
-39.6000;0.1514;-0.2684;
-39.3000;0.1530;-0.2731;
-39.0000;0.1579;-0.2588;
-38.7000;0.1522;-0.2731;
-38.4000;0.1530;-0.2684;
-38.1000;0.1514;-0.2707;
-37.8000;0.1514;-0.2827;
-37.5000;0.1522;-0.2827;
-37.2000;0.1514;-0.2779;
-36.9000;0.1506;-0.2779;
-36.6000;0.1555;-0.2803;
-36.3000;0.1538;-0.2827;
-36.0000;0.1555;-0.2803;
-35.7000;0.1481;-0.3043;
-35.4000;0.1514;-0.2971;
-35.1000;0.1530;-0.2923;
-34.8000;0.1547;-0.2779;
-34.5000;0.1547;-0.2923;
-34.2000;0.1530;-0.3019;
-33.9000;0.1522;-0.2995;
-33.6000;0.1571;-0.2779;
-33.3000;0.1522;-0.2923;
-33.0000;0.1514;-0.3019;
-32.7000;0.1522;-0.2899;
-32.4000;0.1506;-0.3067;
-32.1000;0.1522;-0.2947;
-31.8000;0.1538;-0.2875;
-31.5000;0.1538;-0.2827;
-31.2000;0.1433;-0.3139;
-30.9000;0.1490;-0.2899;
-30.6000;0.1555;-0.2707;
-30.3000;0.1506;-0.2707;
-30.0000;0.1514;-0.2660;
-29.7000;0.1506;-0.2707;
-29.4000;0.1555;-0.2540;
-29.1000;0.1530;-0.2588;
-28.8000;0.1579;-0.2492;
-28.5000;0.1522;-0.2779;
-28.2000;0.1538;-0.2755;
-27.9000;0.1547;-0.2660;
-27.6000;0.1522;-0.2684;
-27.3000;0.1514;-0.2684;
-27.0000;0.1506;-0.2779;
-26.7000;0.1530;-0.2755;
-26.4000;0.1522;-0.2707;
-26.1000;0.1522;-0.2731;
-25.8000;0.1555;-0.2684;
-25.5000;0.1490;-0.2851;
-25.2000;0.1522;-0.2707;
-24.9000;0.1555;-0.2612;
-24.6000;0.1547;-0.2707;
-24.3000;0.1506;-0.2755;
-24.0000;0.1522;-0.2779;
-23.7000;0.1498;-0.2851;
-23.4000;0.1538;-0.2731;
-23.1000;0.1530;-0.2731;
-22.8000;0.1555;-0.2707;
-22.5000;0.1530;-0.2779;
-22.2000;0.1522;-0.2803;
-21.9000;0.1555;-0.2803;
-21.6000;0.1506;-0.2899;
-21.3000;0.1522;-0.2827;
-21.0000;0.1522;-0.2827;
-20.7000;0.1490;-0.2971;
-20.4000;0.1490;-0.2899;
-20.1000;0.1506;-0.2779;
-19.8000;0.1538;-0.2731;
-19.5000;0.1522;-0.2684;
-19.2000;0.1538;-0.2684;
-18.9000;0.1514;-0.2684;
-18.6000;0.1514;-0.2707;
-18.3000;0.1498;-0.2851;
-18.0000;0.1490;-0.2899;
-17.7000;0.1506;-0.2899;
-17.4000;0.1530;-0.2923;
-17.1000;0.1506;-0.3019;
-16.8000;0.1506;-0.3019;
-16.5000;0.1506;-0.2923;
-16.2000;0.1522;-0.2875;
-15.9000;0.1530;-0.2803;
-15.6000;0.1522;-0.2875;
-15.3000;0.1530;-0.2827;
-15.0000;0.1522;-0.2827;
-14.7000;0.1490;-0.2899;
-14.4000;0.1514;-0.2755;
-14.1000;0.1530;-0.2731;
-13.8000;0.1490;-0.2803;
-13.5000;0.1514;-0.2803;
-13.2000;0.1522;-0.2827;
-12.9000;0.1522;-0.2779;
-12.6000;0.1530;-0.2755;
-12.3000;0.1498;-0.2803;
-12.0000;0.1522;-0.2731;
-11.7000;0.1416;-0.2971;
-11.4000;0.1514;-0.2731;
-11.1000;0.1595;-0.2516;
-10.8000;0.1433;-0.2947;
-10.5000;0.1506;-0.2731;
-10.2000;0.1441;-0.2875;
-9.9000;0.1604;-0.2444;
-9.6000;0.1514;-0.2612;
-9.3000;0.1506;-0.2588;
-9.0000;0.1530;-0.2588;
-8.7000;0.1522;-0.2636;
-8.4000;0.1514;-0.2660;
-8.1000;0.1514;-0.2731;
-7.8000;0.1522;-0.2636;
-7.5000;0.1563;-0.2564;
-7.2000;0.1530;-0.2707;
-6.9000;0.1514;-0.2803;
-6.6000;0.1481;-0.2875;
-6.3000;0.1522;-0.2684;
-6.0000;0.1457;-0.2803;
-5.7000;0.1522;-0.2731;
-5.4000;0.1538;-0.2827;
-5.1000;0.1514;-0.2803;
-4.8000;0.1465;-0.2971;
-4.5000;0.1530;-0.2827;
-4.2000;0.1498;-0.2851;
-3.9000;0.1644;-0.2444;
-3.6000;0.1506;-0.2803;
-3.3000;0.1579;-0.2660;
-3.0000;0.1498;-0.2827;
-2.7000;0.1490;-0.2779;
-2.4000;0.1538;-0.2636;
-2.1000;0.1481;-0.2707;
-1.8000;0.1530;-0.2660;
-1.5000;0.1530;-0.2660;
-1.2000;0.1538;-0.2612;
-0.9000;0.1506;-0.2707;
-0.6000;0.1490;-0.2755;
-0.3000;0.1514;-0.2803;
0.0000;0.1514;-0.2803;
0.3000;0.1530;-0.2779;
0.6000;0.1514;-0.2707;
0.9000;0.1498;-0.2540;
1.2000;0.1538;-0.2276;
1.5000;0.1555;-0.2061;
1.8000;0.1604;-0.1797;
2.1000;0.1563;-0.1701;
2.4000;0.1612;-0.1486;
2.7000;0.1595;-0.1533;
3.0000;0.1595;-0.1390;
3.3000;0.1547;-0.1342;
3.6000;0.1587;-0.1222;
3.9000;0.1604;-0.1126;
4.2000;0.1628;-0.0934;
4.5000;0.1628;-0.0958;
4.8000;0.1709;-0.0695;
5.1000;0.1620;-0.0982;
5.4000;0.1571;-0.1030;
5.7000;0.1595;-0.1030;
6.0000;0.1620;-0.0958;
6.3000;0.1595;-0.0958;
6.6000;0.1612;-0.0887;
6.9000;0.1579;-0.0982;
7.2000;0.1587;-0.0958;
7.5000;0.1587;-0.0958;
7.8000;0.1612;-0.0863;
8.1000;0.1587;-0.0815;
8.4000;0.1628;-0.0671;
8.7000;0.1587;-0.0695;
9.0000;0.1612;-0.0767;
9.3000;0.1579;-0.0791;
9.6000;0.1604;-0.0791;
9.9000;0.1628;-0.0839;
10.2000;0.1612;-0.0934;
10.5000;0.1612;-0.0887;
10.8000;0.1595;-0.0934;
11.1000;0.1595;-0.0815;
11.4000;0.1538;-0.1030;
11.7000;0.1587;-0.0934;
12.0000;0.1498;-0.1174;
12.3000;0.1514;-0.1174;
12.6000;0.1612;-0.0863;
12.9000;0.1595;-0.0887;
13.2000;0.1661;-0.0719;
13.5000;0.1604;-0.0887;
13.8000;0.1620;-0.0887;
14.1000;0.1473;-0.1198;
14.4000;0.1595;-0.0887;
14.7000;0.1620;-0.0863;
15.0000;0.1685;-0.0671;
15.3000;0.1587;-0.0934;
15.6000;0.1587;-0.0934;
15.9000;0.1620;-0.0887;
16.2000;0.1595;-0.0934;
16.5000;0.1636;-0.0910;
16.8000;0.1595;-0.0887;
17.1000;0.1604;-0.0887;
17.4000;0.1587;-0.0958;
17.7000;0.1595;-0.0934;
18.0000;0.1604;-0.0887;
18.3000;0.1612;-0.0887;
18.6000;0.1595;-0.0934;
18.9000;0.1571;-0.0958;
19.2000;0.1652;-0.0695;
19.5000;0.1636;-0.0719;
19.8000;0.1612;-0.0719;
20.1000;0.1612;-0.0767;
20.4000;0.1604;-0.0719;
20.7000;0.1628;-0.0647;
21.0000;0.1620;-0.0767;
21.3000;0.1612;-0.0767;
21.6000;0.1587;-0.0934;
21.9000;0.1604;-0.0934;
22.2000;0.1595;-0.0910;
22.5000;0.1620;-0.0887;
22.8000;0.1587;-0.0934;
23.1000;0.1612;-0.0887;
23.4000;0.1612;-0.0863;
23.7000;0.1604;-0.0815;
24.0000;0.1612;-0.0767;
24.3000;0.1587;-0.0743;
24.6000;0.1595;-0.0719;
24.9000;0.1604;-0.0767;
25.2000;0.1595;-0.0791;
25.5000;0.1612;-0.0791;
25.8000;0.1604;-0.0863;
26.1000;0.1612;-0.0958;
26.4000;0.1628;-0.0934;
26.7000;0.1587;-0.0982;
27.0000;0.1579;-0.0982;
27.3000;0.1587;-0.0887;
27.6000;0.1587;-0.0887;
27.9000;0.1604;-0.0815;
28.2000;0.1620;-0.0791;
28.5000;0.1579;-0.0958;
28.8000;0.1571;-0.0982;
29.1000;0.1604;-0.0863;
29.4000;0.1595;-0.0839;
29.7000;0.1595;-0.0863;
30.0000;0.1571;-0.0887;
30.3000;0.1612;-0.0791;
30.6000;0.1612;-0.0815;
30.9000;0.1587;-0.0863;
31.2000;0.1612;-0.0767;
31.5000;0.1604;-0.0719;
31.8000;0.1693;-0.0503;
32.1000;0.1612;-0.0695;
32.4000;0.1620;-0.0671;
32.7000;0.1620;-0.0743;
33.0000;0.1604;-0.0887;
33.3000;0.1587;-0.0887;
33.6000;0.1587;-0.0934;
33.9000;0.1595;-0.0887;
34.2000;0.1620;-0.0887;
34.5000;0.1612;-0.0910;
34.8000;0.1612;-0.0910;
35.1000;0.1652;-0.0863;
35.4000;0.1661;-0.0791;
35.7000;0.1709;-0.0647;
36.0000;0.1604;-0.0910;
36.3000;0.1547;-0.0982;
36.6000;0.1595;-0.0863;
36.9000;0.1595;-0.0839;
37.2000;0.1604;-0.0743;
37.5000;0.1604;-0.0767;
37.8000;0.1661;-0.0671;
38.1000;0.1620;-0.0791;
38.4000;0.1579;-0.0767;
38.7000;0.1595;-0.0671;
39.0000;0.1587;-0.0695;
39.3000;0.1579;-0.0767;
39.6000;0.1620;-0.0647;
39.9000;0.1595;-0.0719;
40.2000;0.1604;-0.0719;
40.5000;0.1595;-0.0815;
40.8000;0.1604;-0.0743;
41.1000;0.1669;-0.0623;
41.4000;0.1612;-0.0743;
41.7000;0.1612;-0.0719;
42.0000;0.1595;-0.0743;
42.3000;0.1612;-0.0671;
42.6000;0.1587;-0.0791;
42.9000;0.1652;-0.0599;
43.2000;0.1530;-0.0934;
43.5000;0.1595;-0.0743;
43.8000;0.1555;-0.0910;
44.1000;0.1612;-0.0791;
44.4000;0.1587;-0.0791;
44.7000;0.1579;-0.0791;
45.0000;0.1595;-0.0815;
45.3000;0.1587;-0.0863;
45.6000;0.1604;-0.0671;
45.9000;0.1604;-0.0647;
46.2000;0.1563;-0.0719;
46.5000;0.1604;-0.0671;
46.8000;0.1595;-0.0695;
47.1000;0.1595;-0.0695;
47.4000;0.1579;-0.0934;
47.7000;0.1604;-0.0934;
48.0000;0.1620;-0.0863;
48.3000;0.1571;-0.0958;
48.6000;0.1595;-0.0887;
48.9000;0.1604;-0.0887;
49.2000;0.1587;-0.0934;
49.5000;0.1571;-0.0910;
49.8000;0.1587;-0.0863;
50.1000;0.1571;-0.0887;
50.4000;0.1571;-0.0863;
50.7000;0.1604;-0.0863;
51.0000;0.1612;-0.0791;
51.3000;0.1587;-0.0815;
51.6000;0.1604;-0.0815;
51.9000;0.1595;-0.0863;
52.2000;0.1612;-0.0839;
52.5000;0.1604;-0.0863;
52.8000;0.1595;-0.0815;
53.1000;0.1718;-0.0431;
53.4000;0.1652;-0.0695;
53.7000;0.1490;-0.1102;
54.0000;0.1595;-0.0839;
54.3000;0.1604;-0.0887;
54.6000;0.1636;-0.0767;
54.9000;0.1604;-0.0887;
55.2000;0.1661;-0.0743;
55.5000;0.1587;-0.0887;
55.8000;0.1547;-0.1030;
56.1000;0.1604;-0.0863;
56.4000;0.1595;-0.0887;
56.7000;0.1604;-0.0839;
57.0000;0.1604;-0.0863;
57.3000;0.1604;-0.0839;
57.6000;0.1579;-0.0767;
57.9000;0.1628;-0.0575;
58.2000;0.1628;-0.0575;
58.5000;0.1612;-0.0575;
58.8000;0.1612;-0.0671;
59.1000;0.1604;-0.0695;
59.4000;0.1571;-0.0863;
59.7000;0.1612;-0.0791;
60.0000;0.1563;-0.0934;
60.3000;0.1604;-0.0958;
60.6000;0.1652;-0.0791;
60.9000;0.1579;-0.0982;
61.2000;0.1604;-0.0910;
61.5000;0.1579;-0.0958;
61.8000;0.1604;-0.0839;
62.1000;0.1522;-0.0982;
62.4000;0.1579;-0.0863;
62.7000;0.1587;-0.0767;
63.0000;0.1579;-0.0767;
63.3000;0.1604;-0.0815;
63.6000;0.1604;-0.0815;
63.9000;0.1604;-0.0910;
64.2000;0.1571;-0.0958;
64.5000;0.1726;-0.0479;
64.8000;0.1604;-0.0791;
65.1000;0.1579;-0.0695;
65.4000;0.1595;-0.0695;
65.7000;0.1563;-0.0815;
66.0000;0.1579;-0.0719;
66.3000;0.1604;-0.0695;
66.6000;0.1579;-0.0695;
66.9000;0.1571;-0.0863;
67.2000;0.1595;-0.0958;
67.5000;0.1571;-0.1030;
67.8000;0.1555;-0.1030;
68.1000;0.1579;-0.0958;
68.4000;0.1595;-0.0934;
68.7000;0.1587;-0.0982;
69.0000;0.1612;-0.0863;
69.3000;0.1571;-0.0982;
69.6000;0.1612;-0.1006;
69.9000;0.1612;-0.1054;
70.2000;0.1612;-0.1078;
70.5000;0.1571;-0.1078;
70.8000;0.1595;-0.1054;
71.1000;0.1587;-0.1054;
71.4000;0.1612;-0.1006;
71.7000;0.1612;-0.0958;
72.0000;0.1579;-0.0982;
72.3000;0.1587;-0.1006;
72.6000;0.1612;-0.0958;
72.9000;0.1595;-0.0982;
73.2000;0.1587;-0.1054;
73.5000;0.1587;-0.0887;
73.8000;0.1595;-0.0863;
74.1000;0.1604;-0.0863;
74.4000;0.1636;-0.0863;
74.7000;0.1481;-0.1342;
75.0000;0.1571;-0.1102;
75.3000;0.1604;-0.0934;
75.6000;0.1669;-0.0815;
75.9000;0.1571;-0.1006;
76.2000;0.1620;-0.0839;
76.5000;0.1612;-0.0887;
76.8000;0.1571;-0.1030;
77.1000;0.1595;-0.0910;
77.4000;0.1604;-0.0934;
77.7000;0.1514;-0.1150;
78.0000;0.1628;-0.0863;
78.3000;0.1587;-0.0934;
78.6000;0.1620;-0.0863;
78.9000;0.1595;-0.0958;
79.2000;0.1595;-0.0887;
79.5000;0.1595;-0.0958;
79.8000;0.1677;-0.0791;
80.1000;0.1604;-0.0982;
80.4000;0.1620;-0.0958;
80.7000;0.1620;-0.0982;
81.0000;0.1563;-0.1126;
81.3000;0.1587;-0.1030;
81.6000;0.1604;-0.0982;
81.9000;0.1571;-0.1006;
82.2000;0.1555;-0.1078;
82.5000;0.1595;-0.0910;
82.8000;0.1604;-0.1006;
83.1000;0.1604;-0.1030;
83.4000;0.1555;-0.1222;
83.7000;0.1595;-0.1078;
84.0000;0.1587;-0.1102;
84.3000;0.1644;-0.0934;
84.6000;0.1628;-0.0934;
84.9000;0.1604;-0.0982;
85.2000;0.1669;-0.0791;
85.5000;0.1538;-0.1102;
85.8000;0.1571;-0.0958;
86.1000;0.1604;-0.0910;
86.4000;0.1473;-0.1198;
86.7000;0.1587;-0.0863;
87.0000;0.1620;-0.0791;
87.3000;0.1595;-0.0815;
87.6000;0.1506;-0.1030;
87.9000;0.1587;-0.0910;
88.2000;0.1587;-0.0910;
88.5000;0.1587;-0.0863;
88.8000;0.1579;-0.0839;
89.1000;0.1587;-0.0839;
89.4000;0.1718;-0.0527;
89.7000;0.1587;-0.0934;
90.0000;0.1595;-0.0887;
90.3000;0.1587;-0.0791;
90.6000;0.1612;-0.0719;
90.9000;0.1587;-0.0671;
91.2000;0.1595;-0.0671;
91.5000;0.1595;-0.0719;
91.8000;0.1571;-0.0743;
92.1000;0.1595;-0.0719;
92.4000;0.1587;-0.0839;
92.7000;0.1628;-0.0719;
93.0000;0.1604;-0.0839;
93.3000;0.1595;-0.0863;
93.6000;0.1604;-0.0791;
93.9000;0.1595;-0.0863;
94.2000;0.1579;-0.0934;
94.5000;0.1612;-0.0934;
94.8000;0.1604;-0.0982;
95.1000;0.1612;-0.0934;
95.4000;0.1579;-0.0982;
95.7000;0.1587;-0.0958;
96.0000;0.1538;-0.1030;
96.3000;0.1579;-0.1006;
96.6000;0.1604;-0.0887;
96.9000;0.1587;-0.0982;
97.2000;0.1595;-0.0958;
97.5000;0.1693;-0.0647;
97.8000;0.1612;-0.0910;
98.1000;0.1579;-0.0982;
98.4000;0.1587;-0.1054;
98.7000;0.1661;-0.0863;
99.0000;0.1579;-0.0982;
99.3000;0.1579;-0.0934;
99.6000;0.1587;-0.0934;
99.9000;0.1587;-0.0958;
100.2000;0.1604;-0.0934;
100.5000;0.1604;-0.0887;
100.8000;0.1604;-0.0910;
101.1000;0.1604;-0.0910;
101.4000;0.1587;-0.0863;
101.7000;0.1595;-0.0910;
102.0000;0.1620;-0.0958;
102.3000;0.1595;-0.0934;
102.6000;0.1587;-0.0958;
102.9000;0.1595;-0.0982;
103.2000;0.1595;-0.0934;
103.5000;0.1620;-0.0887;
103.8000;0.1579;-0.0887;
104.1000;0.1587;-0.0910;
104.4000;0.1595;-0.0887;
104.7000;0.1604;-0.0887;
105.0000;0.1620;-0.0743;
105.3000;0.1628;-0.0671;
105.6000;0.1595;-0.0743;
105.9000;0.1612;-0.0719;
106.2000;0.1604;-0.0791;
106.5000;0.1595;-0.0791;
106.8000;0.1620;-0.0863;
107.1000;0.1563;-0.1054;
107.4000;0.1579;-0.1030;
107.7000;0.1579;-0.1126;
108.0000;0.1595;-0.1006;
108.3000;0.1701;-0.0647;
108.6000;0.1538;-0.1174;
108.9000;0.1604;-0.1078;
109.2000;0.1661;-0.0934;
109.5000;0.1595;-0.1126;
109.8000;0.1595;-0.1102;
110.1000;0.1538;-0.1174;
110.4000;0.1701;-0.0791;
110.7000;0.1587;-0.1006;
111.0000;0.1563;-0.1030;
111.3000;0.1612;-0.0934;
111.6000;0.1522;-0.1054;
111.9000;0.1595;-0.0934;
112.2000;0.1612;-0.0863;
112.5000;0.1595;-0.0887;
112.8000;0.1604;-0.0887;
113.1000;0.1644;-0.0815;
113.4000;0.1612;-0.0815;
113.7000;0.1579;-0.0934;
114.0000;0.1587;-0.0863;
114.3000;0.1571;-0.0863;
114.6000;0.1595;-0.0815;
114.9000;0.1604;-0.0791;
115.2000;0.1604;-0.0791;
115.5000;0.1595;-0.0815;
115.8000;0.1587;-0.0863;
116.1000;0.1604;-0.0815;
116.4000;0.1604;-0.0910;
116.7000;0.1563;-0.0958;
117.0000;0.1595;-0.0839;
117.3000;0.1571;-0.0934;
117.6000;0.1604;-0.0839;
117.9000;0.1587;-0.1006;
118.2000;0.1595;-0.0910;
118.5000;0.1579;-0.0887;
118.8000;0.1563;-0.0934;
119.1000;0.1604;-0.0815;
119.4000;0.1587;-0.0887;
119.7000;0.1604;-0.0839;
120.0000;0.1701;-0.0575;
120.3000;0.1595;-0.0863;
120.6000;0.1514;-0.1102;
120.9000;0.1604;-0.0958;
121.2000;0.1620;-0.0934;
121.5000;0.1628;-0.0910;
121.8000;0.1595;-0.1030;
122.1000;0.1587;-0.1078;
122.4000;0.1579;-0.1030;
122.7000;0.1628;-0.0767;
123.0000;0.1620;-0.0719;
123.3000;0.1595;-0.0815;
123.6000;0.1661;-0.0743;
123.9000;0.1595;-0.0815;
124.2000;0.1595;-0.0695;
124.5000;0.1595;-0.0719;
124.8000;0.1587;-0.0815;
125.1000;0.1579;-0.0767;
125.4000;0.1604;-0.0791;
125.7000;0.1530;-0.1078;
126.0000;0.1587;-0.0958;
126.3000;0.1587;-0.0910;
126.6000;0.1612;-0.0839;
126.9000;0.1620;-0.0839;
127.2000;0.1604;-0.0863;
127.5000;0.1604;-0.0839;
127.8000;0.1604;-0.0863;
128.1000;0.1595;-0.0934;
128.4000;0.1571;-0.0958;
128.7000;0.1555;-0.0982;
129.0000;0.1587;-0.0934;
129.3000;0.1579;-0.0958;
129.6000;0.1612;-0.0934;
129.9000;0.1604;-0.0982;
130.2000;0.1587;-0.1126;
130.5000;0.1579;-0.1126;
130.8000;0.1563;-0.1174;
131.1000;0.1538;-0.1150;
131.4000;0.1595;-0.1030;
131.7000;0.1604;-0.0958;
132.0000;0.1595;-0.1030;
132.3000;0.1595;-0.1054;
132.6000;0.1530;-0.1246;
132.9000;0.1555;-0.1126;
133.2000;0.1563;-0.1150;
133.5000;0.1628;-0.0934;
133.8000;0.1587;-0.1054;
134.1000;0.1579;-0.1006;
134.4000;0.1612;-0.0887;
134.7000;0.1530;-0.1030;
135.0000;0.1587;-0.0887;
135.3000;0.1595;-0.0958;
135.6000;0.1604;-0.0887;
135.9000;0.1595;-0.0839;
136.2000;0.1547;-0.0863;
136.5000;0.1579;-0.0767;
136.8000;0.1587;-0.0767;
137.1000;0.1530;-0.0934;
137.4000;0.1595;-0.0791;
137.7000;0.1514;-0.0887;
138.0000;0.1587;-0.0671;
138.3000;0.1595;-0.0743;
138.6000;0.1579;-0.0719;
138.9000;0.1595;-0.0815;
139.2000;0.1595;-0.0910;
139.5000;0.1595;-0.0839;
139.8000;0.1555;-0.0887;
140.1000;0.1612;-0.0767;
140.4000;0.1612;-0.0815;
140.7000;0.1620;-0.0767;
141.0000;0.1604;-0.0743;
141.3000;0.1620;-0.0815;
141.6000;0.1571;-0.0910;
141.9000;0.1587;-0.0863;
142.2000;0.1595;-0.0887;
142.5000;0.1555;-0.1078;
142.8000;0.1587;-0.1054;
143.1000;0.1612;-0.0982;
143.4000;0.1587;-0.1006;
143.7000;0.1571;-0.1006;
144.0000;0.1579;-0.0839;
144.3000;0.1636;-0.0695;
144.6000;0.1595;-0.0839;
144.9000;0.1555;-0.0934;
145.2000;0.1579;-0.0863;
145.5000;0.1612;-0.0791;
145.8000;0.1579;-0.0815;
146.1000;0.1612;-0.0815;
146.4000;0.1579;-0.0887;
146.7000;0.1563;-0.0863;
147.0000;0.1571;-0.0815;
147.3000;0.1595;-0.0719;
147.6000;0.1604;-0.0791;
147.9000;0.1530;-0.0982;
148.2000;0.1579;-0.1006;
148.5000;0.1595;-0.0934;
148.8000;0.1604;-0.0863;
149.1000;0.1595;-0.0791;
149.4000;0.1587;-0.0934;
149.7000;0.1587;-0.1030;
150.0000;0.1612;-0.0934;
150.3000;0.1612;-0.0910;
150.6000;0.1620;-0.0934;
150.9000;0.1579;-0.1054;
151.2000;0.1587;-0.1078;
151.5000;0.1604;-0.1006;
151.8000;0.1604;-0.1006;
152.1000;0.1604;-0.1054;
152.4000;0.1604;-0.1078;
152.7000;0.1587;-0.1126;
153.0000;0.1587;-0.1126;
153.3000;0.1595;-0.1102;
153.6000;0.1579;-0.1174;
153.9000;0.1579;-0.1126;
154.2000;0.1604;-0.1054;
154.5000;0.1636;-0.0958;
154.8000;0.1579;-0.1102;
155.1000;0.1587;-0.1006;
155.4000;0.1587;-0.1030;
155.7000;0.1587;-0.1078;
156.0000;0.1587;-0.0982;
156.3000;0.1612;-0.0815;
156.6000;0.1490;-0.1222;
156.9000;0.1587;-0.0910;
157.2000;0.1612;-0.0887;
157.5000;0.1612;-0.0863;
157.8000;0.1612;-0.0958;
158.1000;0.1652;-0.0839;
158.4000;0.1644;-0.0863;
158.7000;0.1612;-0.0982;
159.0000;0.1595;-0.0982;
159.3000;0.1563;-0.1078;
159.6000;0.1604;-0.0982;
159.9000;0.1595;-0.0958;
160.2000;0.1652;-0.0815;
160.5000;0.1530;-0.1102;
160.8000;0.1579;-0.0982;
161.1000;0.1587;-0.0934;
161.4000;0.1620;-0.0839;
161.7000;0.1644;-0.0743;
162.0000;0.1587;-0.0863;
162.3000;0.1595;-0.0934;
162.6000;0.1579;-0.0958;
162.9000;0.1563;-0.1006;
163.2000;0.1579;-0.1030;
163.5000;0.1579;-0.1030;
163.8000;0.1579;-0.1030;
164.1000;0.1604;-0.1030;
164.4000;0.1604;-0.0982;
164.7000;0.1604;-0.0982;
165.0000;0.1595;-0.0958;
165.3000;0.1587;-0.0982;
165.6000;0.1595;-0.0982;
165.9000;0.1579;-0.0982;
166.2000;0.1595;-0.0910;
166.5000;0.1579;-0.0958;
166.8000;0.1587;-0.0934;
167.1000;0.1595;-0.0839;
167.4000;0.1514;-0.1054;
167.7000;0.1547;-0.0982;
168.0000;0.1628;-0.0839;
168.3000;0.1563;-0.1006;
168.6000;0.1571;-0.0958;
168.9000;0.1538;-0.1054;
169.2000;0.1612;-0.0839;
169.5000;0.1563;-0.1078;
169.8000;0.1571;-0.1030;
170.1000;0.1587;-0.0934;
170.4000;0.1579;-0.0910;
170.7000;0.1587;-0.0910;
171.0000;0.1595;-0.0910;
171.3000;0.1522;-0.1054;
171.6000;0.1620;-0.0791;
171.9000;0.1620;-0.0743;
172.2000;0.1620;-0.0767;
172.5000;0.1579;-0.0887;
172.8000;0.1563;-0.0982;
173.1000;0.1595;-0.0934;
173.4000;0.1579;-0.1054;
173.7000;0.1587;-0.0958;
174.0000;0.1595;-0.0982;
174.3000;0.1579;-0.0982;
174.6000;0.1604;-0.1078;
174.9000;0.1604;-0.1054;
175.2000;0.1612;-0.1030;
175.5000;0.1563;-0.1150;
175.8000;0.1595;-0.1150;
176.1000;0.1595;-0.1054;
176.4000;0.1571;-0.1078;
176.7000;0.1595;-0.0934;
177.0000;0.1571;-0.1030;
177.3000;0.1628;-0.0839;
177.6000;0.1587;-0.1006;
177.9000;0.1571;-0.0982;
178.2000;0.1604;-0.0910;
178.5000;0.1628;-0.0719;
178.8000;0.1571;-0.0910;
179.1000;0.1579;-0.0791;
179.4000;0.1587;-0.0767;
179.7000;0.1587;-0.0791;
180.0000;0.1604;-0.0791;
180.3000;0.1718;-0.0479;
180.6000;0.1587;-0.0767;
180.9000;0.1595;-0.0743;
181.2000;0.1612;-0.0767;
181.5000;0.1620;-0.0767;
181.8000;0.1652;-0.0599;
182.1000;0.1595;-0.0791;
182.4000;0.1587;-0.0863;
182.7000;0.1571;-0.0982;
183.0000;0.1595;-0.0910;
183.3000;0.1587;-0.0863;
183.6000;0.1587;-0.0863;
183.9000;0.1579;-0.0767;
184.2000;0.1587;-0.0719;
184.5000;0.1587;-0.0767;
184.8000;0.1579;-0.0719;
185.1000;0.1595;-0.0767;
185.4000;0.1595;-0.0839;
185.7000;0.1587;-0.0839;
186.0000;0.1620;-0.0767;
186.3000;0.1587;-0.0815;
186.6000;0.1604;-0.0815;
186.9000;0.1661;-0.0575;
187.2000;0.1595;-0.0767;
187.5000;0.1587;-0.0839;
187.8000;0.1612;-0.0934;
188.1000;0.1604;-0.0910;
188.4000;0.1595;-0.0863;
188.7000;0.1620;-0.0863;
189.0000;0.1595;-0.0934;
189.3000;0.1579;-0.1006;
189.6000;0.1587;-0.1006;
189.9000;0.1538;-0.1174;
190.2000;0.1587;-0.1078;
190.5000;0.1579;-0.1078;
190.8000;0.1587;-0.0982;
191.1000;0.1587;-0.1006;
191.4000;0.1604;-0.0887;
191.7000;0.1587;-0.0910;
192.0000;0.1644;-0.0767;
192.3000;0.1595;-0.0910;
192.6000;0.1612;-0.0839;
192.9000;0.1620;-0.0791;
193.2000;0.1579;-0.0887;
193.5000;0.1579;-0.0887;
193.8000;0.1612;-0.0887;
194.1000;0.1595;-0.0934;
194.4000;0.1604;-0.0839;
194.7000;0.1563;-0.0982;
195.0000;0.1628;-0.0815;
195.3000;0.1571;-0.0934;
195.6000;0.1579;-0.0958;
195.9000;0.1563;-0.1006;
196.2000;0.1587;-0.0910;
196.5000;0.1587;-0.0887;
196.8000;0.1587;-0.0934;
197.1000;0.1604;-0.0887;
197.4000;0.1579;-0.1006;
197.7000;0.1604;-0.0958;
198.0000;0.1595;-0.0910;
198.3000;0.1595;-0.0934;
198.6000;0.1620;-0.0982;
198.9000;0.1612;-0.1078;
199.2000;0.1587;-0.1198;
199.5000;0.1595;-0.1126;
199.8000;0.1587;-0.1126;
200.1000;0.1726;-0.0695;
200.4000;0.1587;-0.1102;
200.7000;0.1579;-0.1102;
201.0000;0.1587;-0.1030;
201.3000;0.1530;-0.1150;
201.6000;0.1547;-0.1030;
201.9000;0.1604;-0.0910;
202.2000;0.1587;-0.0958;
202.5000;0.1555;-0.1030;
202.8000;0.1612;-0.0910;
203.1000;0.1595;-0.0887;
203.4000;0.1595;-0.0887;
203.7000;0.1595;-0.0863;
204.0000;0.1595;-0.0767;
204.3000;0.1604;-0.0791;
204.6000;0.1595;-0.0887;
204.9000;0.1587;-0.0887;
205.2000;0.1595;-0.0887;
205.5000;0.1595;-0.0934;
205.8000;0.1587;-0.0934;
206.1000;0.1612;-0.0815;
206.4000;0.1579;-0.0982;
206.7000;0.1685;-0.0671;
207.0000;0.1612;-0.0815;
207.3000;0.1587;-0.0863;
207.6000;0.1742;-0.0479;
207.9000;0.1661;-0.0791;
208.2000;0.1595;-0.0982;
208.5000;0.1595;-0.0958;
208.8000;0.1595;-0.0958;
209.1000;0.1693;-0.0695;
209.4000;0.1612;-0.0910;
209.7000;0.1587;-0.1006;
210.0000;0.1595;-0.1030;
210.3000;0.1579;-0.1078;
210.6000;0.1595;-0.0982;
210.9000;0.1571;-0.1054;
211.2000;0.1587;-0.0934;
211.5000;0.1604;-0.0910;
211.8000;0.1587;-0.0958;
212.1000;0.1595;-0.1054;
212.4000;0.1604;-0.1030;
212.7000;0.1595;-0.1078;
213.0000;0.1604;-0.0982;
213.3000;0.1612;-0.0934;
213.6000;0.1612;-0.0910;
213.9000;0.1595;-0.0791;
214.2000;0.1628;-0.0719;
214.5000;0.1571;-0.0887;
214.8000;0.1579;-0.0815;
215.1000;0.1595;-0.0743;
215.4000;0.1579;-0.0719;
215.7000;0.1587;-0.0767;
216.0000;0.1612;-0.0815;
216.3000;0.1538;-0.1006;
216.6000;0.1595;-0.0863;
216.9000;0.1587;-0.0887;
217.2000;0.1579;-0.1006;
217.5000;0.1604;-0.1054;
217.8000;0.1587;-0.1054;
218.1000;0.1612;-0.0958;
218.4000;0.1595;-0.0910;
218.7000;0.1571;-0.0958;
219.0000;0.1579;-0.0982;
219.3000;0.1579;-0.0982;
219.6000;0.1587;-0.1006;
219.9000;0.1604;-0.0934;
220.2000;0.1587;-0.1006;
220.5000;0.1604;-0.0982;
220.8000;0.1587;-0.1006;
221.1000;0.1604;-0.0958;
221.4000;0.1571;-0.0982;
221.7000;0.1604;-0.0934;
222.0000;0.1595;-0.0958;
222.3000;0.1595;-0.0910;
222.6000;0.1595;-0.0863;
222.9000;0.1490;-0.1150;
223.2000;0.1612;-0.0767;
223.5000;0.1604;-0.0815;
223.8000;0.1604;-0.0791;
224.1000;0.1587;-0.0743;
224.4000;0.1612;-0.0719;
224.7000;0.1595;-0.0767;
225.0000;0.1612;-0.0815;
225.3000;0.1555;-0.0958;
225.6000;0.1604;-0.0815;
225.9000;0.1579;-0.0934;
226.2000;0.1595;-0.0887;
226.5000;0.1579;-0.0958;
226.8000;0.1604;-0.0887;
227.1000;0.1628;-0.0791;
227.4000;0.1612;-0.0934;
227.7000;0.1644;-0.0791;
228.0000;0.1579;-0.1006;
228.3000;0.1595;-0.1030;
228.6000;0.1587;-0.1054;
228.9000;0.1604;-0.0887;
229.2000;0.1612;-0.0910;
229.5000;0.1522;-0.1078;
229.8000;0.1579;-0.0910;
230.1000;0.1685;-0.0671;
230.4000;0.1579;-0.0887;
230.7000;0.1579;-0.0863;
231.0000;0.1620;-0.0767;
231.3000;0.1587;-0.0887;
231.6000;0.1490;-0.1150;
231.9000;0.1555;-0.1030;
232.2000;0.1612;-0.0887;
232.5000;0.1579;-0.1006;
232.8000;0.1563;-0.1006;
233.1000;0.1620;-0.0958;
233.4000;0.1587;-0.1054;
233.7000;0.1587;-0.1006;
234.0000;0.1571;-0.1006;
234.3000;0.1595;-0.0934;
234.6000;0.1563;-0.0982;
234.9000;0.1555;-0.0958;
235.2000;0.1595;-0.0863;
235.5000;0.1587;-0.0910;
235.8000;0.1612;-0.0887;
236.1000;0.1587;-0.0958;
236.4000;0.1587;-0.0839;
236.7000;0.1587;-0.0887;
237.0000;0.1595;-0.0934;
237.3000;0.1595;-0.1006;
237.6000;0.1579;-0.0934;
237.9000;0.1579;-0.0887;
238.2000;0.1604;-0.0910;
238.5000;0.1563;-0.1030;
238.8000;0.1587;-0.1006;
239.1000;0.1604;-0.0910;
239.4000;0.1661;-0.0815;
239.7000;0.1587;-0.1006;
240.0000;0.1612;-0.0910;
240.3000;0.1587;-0.0934;
240.6000;0.1612;-0.0910;
240.9000;0.1595;-0.0982;
241.2000;0.1595;-0.0958;
241.5000;0.1579;-0.0910;
241.8000;0.1604;-0.0887;
242.1000;0.1587;-0.0910;
242.4000;0.1587;-0.0863;
242.7000;0.1595;-0.0839;
243.0000;0.1636;-0.0719;
243.3000;0.1587;-0.0791;
243.6000;0.1612;-0.0839;
243.9000;0.1579;-0.0887;
244.2000;0.1612;-0.0887;
244.5000;0.1579;-0.1006;
244.8000;0.1579;-0.0958;
245.1000;0.1595;-0.0863;
245.4000;0.1604;-0.0910;
245.7000;0.1530;-0.1054;
246.0000;0.1620;-0.0839;
246.3000;0.1579;-0.1006;
246.6000;0.1620;-0.0982;
246.9000;0.1612;-0.0982;
247.2000;0.1587;-0.1006;
247.5000;0.1612;-0.0934;
247.8000;0.1636;-0.0815;
248.1000;0.1604;-0.1006;
248.4000;0.1514;-0.1198;
248.7000;0.1571;-0.1030;
249.0000;0.1595;-0.0958;
249.3000;0.1595;-0.0958;
249.6000;0.1587;-0.1030;
249.9000;0.1579;-0.1078;
250.2000;0.1612;-0.1006;
250.5000;0.1587;-0.1126;
250.8000;0.1595;-0.1174;
251.1000;0.1628;-0.1102;
251.4000;0.1587;-0.1078;
251.7000;0.1612;-0.1006;
252.0000;0.1595;-0.0982;
252.3000;0.1571;-0.1006;
252.6000;0.1644;-0.0839;
252.9000;0.1514;-0.1270;
253.2000;0.1595;-0.1054;
253.5000;0.1636;-0.0887;
253.8000;0.1579;-0.0958;
254.1000;0.1636;-0.0815;
254.4000;0.1587;-0.0958;
254.7000;0.1579;-0.0934;
255.0000;0.1538;-0.1102;
255.3000;0.1595;-0.0934;
255.6000;0.1620;-0.0958;
255.9000;0.1587;-0.1006;
256.2000;0.1571;-0.0958;
256.5000;0.1620;-0.0839;
256.8000;0.1563;-0.1030;
257.1000;0.1595;-0.0910;
257.4000;0.1571;-0.0910;
257.7000;0.1538;-0.0982;
258.0000;0.1612;-0.0815;
258.3000;0.1620;-0.0815;
258.6000;0.1579;-0.0887;
258.9000;0.1587;-0.0839;
259.2000;0.1595;-0.0863;
259.5000;0.1555;-0.0839;
259.8000;0.1579;-0.0743;
260.1000;0.1604;-0.0719;
260.4000;0.1587;-0.0887;
260.7000;0.1595;-0.0910;
261.0000;0.1587;-0.0910;
261.3000;0.1587;-0.0863;
261.6000;0.1612;-0.0767;
261.9000;0.1465;-0.1126;
262.2000;0.1612;-0.0719;
262.5000;0.1563;-0.0863;
262.8000;0.1595;-0.0767;
263.1000;0.1579;-0.0791;
263.4000;0.1652;-0.0623;
263.7000;0.1579;-0.0839;
264.0000;0.1620;-0.0743;
264.3000;0.1587;-0.0839;
264.6000;0.1547;-0.1006;
264.9000;0.1604;-0.0863;
265.2000;0.1595;-0.0887;
265.5000;0.1579;-0.0887;
265.8000;0.1579;-0.0863;
266.1000;0.1604;-0.0815;
266.4000;0.1587;-0.0791;
266.7000;0.1587;-0.0839;
267.0000;0.1612;-0.0767;
267.3000;0.1604;-0.0791;
267.6000;0.1587;-0.0815;
267.9000;0.1571;-0.0863;
268.2000;0.1595;-0.0815;
268.5000;0.1595;-0.0887;
268.8000;0.1579;-0.0910;
269.1000;0.1571;-0.0887;
269.4000;0.1628;-0.0815;
269.7000;0.1604;-0.0934;
270.0000;0.1595;-0.0887;
270.3000;0.1587;-0.0934;
270.6000;0.1579;-0.0958;
270.9000;0.1644;-0.0815;
271.2000;0.1587;-0.0887;
271.5000;0.1612;-0.0887;
271.8000;0.1604;-0.0982;
272.1000;0.1579;-0.1126;
272.4000;0.1612;-0.1030;
272.7000;0.1595;-0.1054;
273.0000;0.1604;-0.1054;
273.3000;0.1587;-0.1078;
273.6000;0.1563;-0.1030;
273.9000;0.1555;-0.0982;
274.2000;0.1595;-0.0887;
274.5000;0.1555;-0.0982;
274.8000;0.1579;-0.1030;
275.1000;0.1579;-0.1102;
275.4000;0.1595;-0.1030;
275.7000;0.1587;-0.1030;
276.0000;0.1579;-0.0982;
276.3000;0.1595;-0.0934;
276.6000;0.1636;-0.0815;
276.9000;0.1587;-0.0887;
277.2000;0.1587;-0.0791;
277.5000;0.1669;-0.0575;
277.8000;0.1587;-0.0839;
278.1000;0.1620;-0.0767;
278.4000;0.1579;-0.0887;
278.7000;0.1604;-0.0839;
279.0000;0.1579;-0.0887;
279.3000;0.1579;-0.0887;
279.6000;0.1579;-0.0863;
279.9000;0.1595;-0.0767;
280.2000;0.1587;-0.0671;
280.5000;0.1595;-0.0767;
280.8000;0.1579;-0.0839;
281.1000;0.1595;-0.0767;
281.4000;0.1587;-0.0743;
281.7000;0.1587;-0.0695;
282.0000;0.1555;-0.0767;
282.3000;0.1587;-0.0719;
282.6000;0.1595;-0.0791;
282.9000;0.1571;-0.0863;
283.2000;0.1595;-0.0767;
283.5000;0.1595;-0.0743;
283.8000;0.1587;-0.0863;
284.1000;0.1571;-0.0863;
284.4000;0.1555;-0.0910;
284.7000;0.1555;-0.0910;
285.0000;0.1587;-0.0910;
285.3000;0.1587;-0.0887;
285.6000;0.1571;-0.0958;
285.9000;0.1579;-0.0982;
286.2000;0.1579;-0.0934;
286.5000;0.1587;-0.0791;
286.8000;0.1595;-0.0887;
287.1000;0.1579;-0.0958;
287.4000;0.1604;-0.1006;
287.7000;0.1587;-0.1006;
288.0000;0.1636;-0.0958;
288.3000;0.1571;-0.1102;
288.6000;0.1563;-0.1054;
288.9000;0.1612;-0.0791;
289.2000;0.1612;-0.0815;
289.5000;0.1595;-0.0887;
289.8000;0.1579;-0.0910;
290.1000;0.1595;-0.0910;
290.4000;0.1595;-0.0910;
290.7000;0.1604;-0.0887;
291.0000;0.1498;-0.1054;
291.3000;0.1579;-0.0910;
291.6000;0.1595;-0.0863;
291.9000;0.1579;-0.0982;
292.2000;0.1571;-0.1054;
292.5000;0.1579;-0.0982;
292.8000;0.1604;-0.0910;
293.1000;0.1661;-0.0695;
293.4000;0.1579;-0.0815;
293.7000;0.1563;-0.0863;
294.0000;0.1579;-0.0887;
294.3000;0.1506;-0.1150;
294.6000;0.1652;-0.0743;
294.9000;0.1587;-0.0887;
295.2000;0.1595;-0.0934;
295.5000;0.1595;-0.0982;
295.8000;0.1538;-0.1126;
296.1000;0.1522;-0.1198;
296.4000;0.1595;-0.0934;
296.7000;0.1604;-0.0934;
297.0000;0.1587;-0.0982;
297.3000;0.1587;-0.1006;
297.6000;0.1661;-0.0887;
297.9000;0.1595;-0.1078;
298.2000;0.1587;-0.1174;
298.5000;0.1595;-0.1102;
298.8000;0.1620;-0.0910;
299.1000;0.1579;-0.1030;
299.4000;0.1587;-0.1006;
299.7000;0.1579;-0.1030;
300.0000;0.1718;-0.0647;
300.3000;0.1612;-0.0982;
300.6000;0.1579;-0.1126;
300.9000;0.1587;-0.1150;
301.2000;0.1595;-0.1078;
301.5000;0.1628;-0.1030;
301.8000;0.1571;-0.1078;
302.1000;0.1571;-0.1006;
302.4000;0.1595;-0.0887;
302.7000;0.1563;-0.0958;
303.0000;0.1587;-0.0910;
303.3000;0.1595;-0.0887;
303.6000;0.1595;-0.0910;
303.9000;0.1579;-0.0910;
304.2000;0.1595;-0.0863;
304.5000;0.1587;-0.0863;
304.8000;0.1595;-0.0910;
305.1000;0.1579;-0.1006;
305.4000;0.1579;-0.1006;
305.7000;0.1604;-0.0934;
306.0000;0.1612;-0.0910;
306.3000;0.1620;-0.0910;
306.6000;0.1579;-0.0910;
306.9000;0.1579;-0.0958;
307.2000;0.1579;-0.1006;
307.5000;0.1579;-0.1030;
307.8000;0.1579;-0.1054;
308.1000;0.1587;-0.1006;
308.4000;0.1595;-0.1030;
308.7000;0.1555;-0.1054;
309.0000;0.1571;-0.1006;
309.3000;0.1465;-0.1342;
309.6000;0.1595;-0.1030;
309.9000;0.1595;-0.1054;
310.2000;0.1595;-0.1030;
310.5000;0.1620;-0.1054;
310.8000;0.1652;-0.1054;
311.1000;0.1595;-0.1222;
311.4000;0.1604;-0.1246;
311.7000;0.1563;-0.1318;
312.0000;0.1595;-0.1246;
312.3000;0.1587;-0.1222;
312.6000;0.1506;-0.1414;
312.9000;0.1555;-0.1270;
313.2000;0.1571;-0.1270;
313.5000;0.1595;-0.1222;
313.8000;0.1555;-0.1270;
314.1000;0.1612;-0.1126;
314.4000;0.1595;-0.1222;
314.7000;0.1620;-0.1174;
315.0000;0.1595;-0.1174;
315.3000;0.1587;-0.1126;
315.6000;0.1587;-0.1102;
315.9000;0.1604;-0.1030;
316.2000;0.1571;-0.1078;
316.5000;0.1555;-0.1102;
316.8000;0.1604;-0.1102;
317.1000;0.1587;-0.1126;
317.4000;0.1595;-0.1150;
317.7000;0.1579;-0.1246;
318.0000;0.1579;-0.1246;
318.3000;0.1547;-0.1390;
318.6000;0.1595;-0.1294;
318.9000;0.1587;-0.1270;
319.2000;0.1587;-0.1270;
319.5000;0.1604;-0.1222;
319.8000;0.1604;-0.1174;
320.1000;0.1661;-0.0958;
320.4000;0.1579;-0.1102;
320.7000;0.1620;-0.1054;
321.0000;0.1652;-0.0982;
321.3000;0.1628;-0.1054;
321.6000;0.1693;-0.0863;
321.9000;0.1587;-0.1126;
322.2000;0.1604;-0.1102;
322.5000;0.1604;-0.0982;
322.8000;0.1579;-0.1030;
323.1000;0.1563;-0.1030;
323.4000;0.1628;-0.0910;
323.7000;0.1579;-0.1054;
324.0000;0.1595;-0.1054;
324.3000;0.1587;-0.1102;
324.6000;0.1563;-0.1198;
324.9000;0.1620;-0.1030;
325.2000;0.1587;-0.1006;
325.5000;0.1579;-0.0958;
325.8000;0.1587;-0.1006;
326.1000;0.1571;-0.1030;
326.4000;0.1595;-0.1006;
326.7000;0.1587;-0.1030;
327.0000;0.1595;-0.0982;
327.3000;0.1595;-0.1006;
327.6000;0.1579;-0.1102;
327.9000;0.1587;-0.1030;
328.2000;0.1555;-0.1150;
328.5000;0.1587;-0.1126;
328.8000;0.1579;-0.1102;
329.1000;0.1595;-0.1054;
329.4000;0.1628;-0.0910;
329.7000;0.1563;-0.1030;
330.0000;0.1563;-0.1054;
330.3000;0.1563;-0.1054;
330.6000;0.1547;-0.1126;
330.9000;0.1571;-0.1078;
331.2000;0.1571;-0.1054;
331.5000;0.1587;-0.1006;
331.8000;0.1555;-0.1078;
332.1000;0.1563;-0.1102;
332.4000;0.1701;-0.0791;
332.7000;0.1612;-0.1006;
333.0000;0.1587;-0.1078;
333.3000;0.1563;-0.1102;
333.6000;0.1579;-0.1102;
333.9000;0.1587;-0.1078;
334.2000;0.1595;-0.0982;
334.5000;0.1571;-0.1006;
334.8000;0.1571;-0.1006;
335.1000;0.1579;-0.1078;
335.4000;0.1555;-0.1198;
335.7000;0.1595;-0.1102;
336.0000;0.1595;-0.1126;
336.3000;0.1595;-0.1078;
336.6000;0.1595;-0.1030;
336.9000;0.1628;-0.0839;
337.2000;0.1595;-0.1054;
337.5000;0.1604;-0.1054;
337.8000;0.1595;-0.1078;
338.1000;0.1685;-0.0839;
338.4000;0.1595;-0.1126;
338.7000;0.1579;-0.1102;
339.0000;0.1555;-0.1174;
339.3000;0.1587;-0.1102;
339.6000;0.1579;-0.1054;
339.9000;0.1579;-0.1102;
340.2000;0.1587;-0.1030;
340.5000;0.1587;-0.1054;
340.8000;0.1587;-0.1102;
341.1000;0.1571;-0.1126;
341.4000;0.1555;-0.1222;
341.7000;0.1587;-0.1174;
342.0000;0.1571;-0.1150;
342.3000;0.1595;-0.1150;
342.6000;0.1685;-0.0982;
342.9000;0.1604;-0.1150;
343.2000;0.1612;-0.1150;
343.5000;0.1547;-0.1318;
343.8000;0.1587;-0.1270;
344.1000;0.1555;-0.1342;
344.4000;0.1677;-0.0887;
344.7000;0.1595;-0.1054;
345.0000;0.1587;-0.1102;
345.3000;0.1571;-0.1150;
345.6000;0.1563;-0.1198;
345.9000;0.1587;-0.1174;
346.2000;0.1538;-0.1270;
346.5000;0.1628;-0.0958;
346.8000;0.1701;-0.0815;
347.1000;0.1587;-0.1150;
347.4000;0.1571;-0.1246;
347.7000;0.1604;-0.1102;
348.0000;0.1571;-0.1222;
348.3000;0.1595;-0.1222;
348.6000;0.1595;-0.1222;
348.9000;0.1595;-0.1246;
349.2000;0.1579;-0.1246;
349.5000;0.1538;-0.1366;
349.8000;0.1571;-0.1318;
350.1000;0.1563;-0.1366;
350.4000;0.1571;-0.1294;
350.7000;0.1587;-0.1246;
351.0000;0.1595;-0.1150;
351.3000;0.1571;-0.1222;
351.6000;0.1579;-0.1222;
351.9000;0.1595;-0.1198;
352.2000;0.1579;-0.1270;
352.5000;0.1595;-0.1246;
352.8000;0.1587;-0.1246;
353.1000;0.1604;-0.1294;
353.4000;0.1612;-0.1246;
353.7000;0.1644;-0.1102;
354.0000;0.1595;-0.1198;
354.3000;0.1538;-0.1342;
354.6000;0.1595;-0.1150;
354.9000;0.1604;-0.1054;
355.2000;0.1604;-0.1006;
355.5000;0.1612;-0.0934;
355.8000;0.1604;-0.1054;
356.1000;0.1571;-0.1174;
356.4000;0.1620;-0.1006;
356.7000;0.1587;-0.1078;
357.0000;0.1636;-0.1030;
357.3000;0.1604;-0.1198;
357.6000;0.1587;-0.1246;
357.9000;0.1571;-0.1342;
358.2000;0.1595;-0.1198;
358.5000;0.1595;-0.1102;
358.8000;0.1595;-0.1150;
359.1000;0.1595;-0.1222;
359.4000;0.1579;-0.1174;
359.7000;0.1612;-0.1054;
360.0000;0.1547;-0.1198;
360.3000;0.1587;-0.1078;
360.6000;0.1571;-0.1222;
360.9000;0.1595;-0.1150;
361.2000;0.1587;-0.1150;
361.5000;0.1595;-0.1198;
361.8000;0.1677;-0.0934;
362.1000;0.1595;-0.1078;
362.4000;0.1587;-0.1078;
362.7000;0.1579;-0.1054;
363.0000;0.1652;-0.0863;
363.3000;0.1587;-0.0958;
363.6000;0.1595;-0.0934;
363.9000;0.1620;-0.0887;
364.2000;0.1587;-0.0934;
364.5000;0.1669;-0.0719;
364.8000;0.1612;-0.0887;
365.1000;0.1563;-0.0982;
365.4000;0.1579;-0.0910;
365.7000;0.1587;-0.0958;
366.0000;0.1571;-0.0934;
366.3000;0.1587;-0.0982;
366.6000;0.1522;-0.1198;
366.9000;0.1709;-0.0743;
367.2000;0.1595;-0.1006;
367.5000;0.1571;-0.1078;
367.8000;0.1709;-0.0647;
368.1000;0.1604;-0.0887;
368.4000;0.1571;-0.0910;
368.7000;0.1693;-0.0647;
369.0000;0.1604;-0.0982;
369.3000;0.1612;-0.0887;
369.6000;0.1571;-0.0982;
369.9000;0.1604;-0.0958;
370.2000;0.1587;-0.0982;
370.5000;0.1555;-0.1078;
370.8000;0.1571;-0.1030;
371.1000;0.1604;-0.0958;
371.4000;0.1636;-0.0887;
371.7000;0.1579;-0.1030;
372.0000;0.1563;-0.0982;
372.3000;0.1579;-0.0982;
372.6000;0.1595;-0.0958;
372.9000;0.1473;-0.1174;
373.2000;0.1579;-0.0934;
373.5000;0.1620;-0.0839;
373.8000;0.1571;-0.0958;
374.1000;0.1612;-0.0767;
374.4000;0.1604;-0.0791;
374.7000;0.1587;-0.0791;
375.0000;0.1612;-0.0671;
375.3000;0.1612;-0.0647;
375.6000;0.1604;-0.0719;
375.9000;0.1555;-0.0767;
376.2000;0.1579;-0.0767;
376.5000;0.1595;-0.0791;
376.8000;0.1571;-0.0910;
377.1000;0.1579;-0.0910;
377.4000;0.1587;-0.0910;
377.7000;0.1587;-0.0863;
378.0000;0.1612;-0.0910;
378.3000;0.1636;-0.0839;
378.6000;0.1555;-0.1030;
378.9000;0.1579;-0.1054;
379.2000;0.1587;-0.1006;
379.5000;0.1587;-0.0958;
379.8000;0.1571;-0.0934;
380.1000;0.1587;-0.0863;
380.4000;0.1612;-0.0791;
380.7000;0.1587;-0.0767;
381.0000;0.1587;-0.0815;
381.3000;0.1579;-0.0863;
381.6000;0.1587;-0.0910;
381.9000;0.1612;-0.0887;
382.2000;0.1595;-0.1030;
382.5000;0.1595;-0.0982;
382.8000;0.1555;-0.1126;
383.1000;0.1587;-0.0982;
383.4000;0.1587;-0.0934;
383.7000;0.1587;-0.1006;
384.0000;0.1587;-0.1006;
384.3000;0.1604;-0.1054;
384.6000;0.1587;-0.1030;
384.9000;0.1538;-0.1198;
385.2000;0.1612;-0.0958;
385.5000;0.1612;-0.0910;
385.8000;0.1587;-0.0958;
386.1000;0.1636;-0.0743;
386.4000;0.1595;-0.0791;
386.7000;0.1604;-0.0839;
387.0000;0.1595;-0.0934;
387.3000;0.1579;-0.0958;
387.6000;0.1587;-0.0934;
387.9000;0.1604;-0.0887;
388.2000;0.1587;-0.0910;
388.5000;0.1595;-0.0887;
388.8000;0.1563;-0.1006;
389.1000;0.1620;-0.0863;
389.4000;0.1579;-0.1030;
389.7000;0.1571;-0.1006;
390.0000;0.1604;-0.0910;
390.3000;0.1571;-0.1054;
390.6000;0.1587;-0.0982;
390.9000;0.1620;-0.0863;
391.2000;0.1571;-0.0910;
391.5000;0.1587;-0.0863;
391.8000;0.1571;-0.0958;
392.1000;0.1579;-0.0982;
392.4000;0.1587;-0.0934;
392.7000;0.1563;-0.0982;
393.0000;0.1579;-0.0934;
393.3000;0.1579;-0.0910;
393.6000;0.1595;-0.0815;
393.9000;0.1587;-0.0863;
394.2000;0.1571;-0.0958;
394.5000;0.1563;-0.1006;
394.8000;0.1579;-0.0982;
395.1000;0.1595;-0.0982;
395.4000;0.1620;-0.1006;
395.7000;0.1595;-0.1006;
396.0000;0.1587;-0.1006;
396.3000;0.1595;-0.1006;
396.6000;0.1595;-0.0958;
396.9000;0.1563;-0.1054;
397.2000;0.1604;-0.0958;
397.5000;0.1587;-0.1030;
397.8000;0.1587;-0.1006;
398.1000;0.1579;-0.0982;
398.4000;0.1595;-0.1006;
398.7000;0.1604;-0.1054;
399.0000;0.1604;-0.1006;
399.3000;0.1579;-0.1030;
399.6000;0.1587;-0.1030;
399.9000;0.1612;-0.0982;
400.2000;0.1587;-0.1030;
400.5000;0.1669;-0.0767;
400.8000;0.1604;-0.0934;
401.1000;0.1587;-0.0982;
401.4000;0.1563;-0.1126;
401.7000;0.1636;-0.0910;
402.0000;0.1612;-0.1054;
402.3000;0.1677;-0.0815;
402.6000;0.1620;-0.0958;
402.9000;0.1595;-0.1054;
403.2000;0.1595;-0.1126;
403.5000;0.1579;-0.1150;
403.8000;0.1587;-0.1126;
404.1000;0.1595;-0.1174;
404.4000;0.1604;-0.1102;
404.7000;0.1579;-0.1222;
405.0000;0.1587;-0.1126;
405.3000;0.1579;-0.1054;
405.6000;0.1547;-0.1054;
405.9000;0.1604;-0.0934;
406.2000;0.1595;-0.0910;
406.5000;0.1604;-0.0815;
406.8000;0.1579;-0.0887;
407.1000;0.1490;-0.1102;
407.4000;0.1538;-0.0958;
407.7000;0.1595;-0.0839;
408.0000;0.1587;-0.0887;
408.3000;0.1514;-0.1126;
408.6000;0.1595;-0.0839;
408.9000;0.1595;-0.0839;
409.2000;0.1595;-0.0839;
409.5000;0.1563;-0.0839;
409.8000;0.1612;-0.0671;
410.1000;0.1628;-0.0647;
410.4000;0.1563;-0.0887;
410.7000;0.1563;-0.0839;
411.0000;0.1571;-0.0815;
411.3000;0.1579;-0.0839;
411.6000;0.1587;-0.0863;
411.9000;0.1506;-0.1150;
412.2000;0.1587;-0.0934;
412.5000;0.1571;-0.0934;
412.8000;0.1571;-0.0982;
413.1000;0.1571;-0.0958;
413.4000;0.1587;-0.0958;
413.7000;0.1587;-0.0958;
414.0000;0.1604;-0.0863;
414.3000;0.1587;-0.0934;
414.6000;0.1587;-0.0934;
414.9000;0.1563;-0.0934;
415.2000;0.1547;-0.0934;
415.5000;0.1563;-0.0887;
415.8000;0.1579;-0.0815;
416.1000;0.1595;-0.0791;
416.4000;0.1612;-0.0767;
416.7000;0.1514;-0.1078;
417.0000;0.1481;-0.1126;
417.3000;0.1571;-0.0887;
417.6000;0.1595;-0.0863;
417.9000;0.1579;-0.1006;
418.2000;0.1669;-0.0743;
418.5000;0.1571;-0.1054;
418.8000;0.1587;-0.0982;
419.1000;0.1571;-0.0934;
419.4000;0.1571;-0.0934;
419.7000;0.1636;-0.0719;
420.0000;0.1595;-0.0910;
420.3000;0.1579;-0.0934;
420.6000;0.1579;-0.0910;
420.9000;0.1563;-0.0910;
421.2000;0.1595;-0.0863;
421.5000;0.1620;-0.0767;
421.8000;0.1563;-0.0958;
422.1000;0.1587;-0.0934;
422.4000;0.1579;-0.0934;
422.7000;0.1595;-0.0863;
423.0000;0.1595;-0.0791;
423.3000;0.1530;-0.0982;
423.6000;0.1595;-0.0743;
423.9000;0.1604;-0.0743;
424.2000;0.1579;-0.0791;
424.5000;0.1604;-0.0647;
424.8000;0.1587;-0.0719;
425.1000;0.1595;-0.0695;
425.4000;0.1595;-0.0767;
425.7000;0.1579;-0.0934;
426.0000;0.1587;-0.0934;
426.3000;0.1481;-0.1270;
426.6000;0.1587;-0.0958;
426.9000;0.1595;-0.0887;
427.2000;0.1563;-0.0934;
427.5000;0.1579;-0.0887;
427.8000;0.1538;-0.1006;
428.1000;0.1587;-0.0863;
428.4000;0.1587;-0.0839;
428.7000;0.1579;-0.0958;
429.0000;0.1587;-0.0934;
429.3000;0.1604;-0.0863;
429.6000;0.1604;-0.0910;
429.9000;0.1587;-0.1030;
430.2000;0.1522;-0.1222;
430.5000;0.1587;-0.1030;
430.8000;0.1587;-0.1054;
431.1000;0.1571;-0.1078;
431.4000;0.1571;-0.1102;
431.7000;0.1685;-0.0839;
432.0000;0.1628;-0.0958;
432.3000;0.1481;-0.1294;
432.6000;0.1579;-0.1054;
432.9000;0.1628;-0.0863;
433.2000;0.1587;-0.0982;
433.5000;0.1604;-0.0934;
433.8000;0.1587;-0.0958;
434.1000;0.1522;-0.1150;
434.4000;0.1612;-0.0982;
434.7000;0.1661;-0.0743;
435.0000;0.1547;-0.1030;
435.3000;0.1571;-0.0934;
435.6000;0.1604;-0.0934;
435.9000;0.1726;-0.0527;
436.2000;0.1587;-0.0887;
436.5000;0.1555;-0.0910;
436.8000;0.1571;-0.0910;
437.1000;0.1595;-0.0910;
437.4000;0.1595;-0.0910;
437.7000;0.1612;-0.0863;
438.0000;0.1595;-0.0887;
438.3000;0.1587;-0.0910;
438.6000;0.1571;-0.0887;
438.9000;0.1579;-0.0910;
439.2000;0.1595;-0.0934;
439.5000;0.1595;-0.0887;
439.8000;0.1734;-0.0503;
440.1000;0.1595;-0.0910;
440.4000;0.1595;-0.0982;
440.7000;0.1587;-0.0982;
441.0000;0.1685;-0.0815;
441.3000;0.1595;-0.0982;
441.6000;0.1604;-0.0982;
441.9000;0.1530;-0.1174;
442.2000;0.1587;-0.1054;
442.5000;0.1669;-0.0767;
442.8000;0.1563;-0.0934;
443.1000;0.1547;-0.1006;
443.4000;0.1579;-0.0910;
443.7000;0.1595;-0.0887;
444.0000;0.1652;-0.0743;
444.3000;0.1579;-0.0982;
444.6000;0.1579;-0.0934;
444.9000;0.1612;-0.0815;
445.2000;0.1571;-0.0863;
445.5000;0.1604;-0.0791;
445.8000;0.1587;-0.0863;
446.1000;0.1587;-0.0839;
446.4000;0.1587;-0.0743;
446.7000;0.1587;-0.0767;
447.0000;0.1587;-0.0887;
447.3000;0.1587;-0.0863;
447.6000;0.1514;-0.1126;
447.9000;0.1522;-0.1126;
448.2000;0.1587;-0.1054;
448.5000;0.1587;-0.1078;
448.8000;0.1571;-0.1198;
449.1000;0.1587;-0.1126;
449.4000;0.1571;-0.1174;
449.7000;0.1587;-0.1126;
450.0000;0.1604;-0.1150;
450.3000;0.1571;-0.1222;
450.6000;0.1595;-0.1222;
450.9000;0.1587;-0.1198;
451.2000;0.1579;-0.1222;
451.5000;0.1579;-0.1270;
451.8000;0.1571;-0.1222;
452.1000;0.1587;-0.1174;
452.4000;0.1587;-0.1174;
452.7000;0.1579;-0.1150;
453.0000;0.1669;-0.1006;
453.3000;0.1547;-0.1174;
453.6000;0.1571;-0.1102;
453.9000;0.1604;-0.0982;
454.2000;0.1579;-0.1054;
454.5000;0.1571;-0.1054;
454.8000;0.1579;-0.1126;
455.1000;0.1612;-0.1102;
455.4000;0.1579;-0.1078;
455.7000;0.1587;-0.1030;
456.0000;0.1595;-0.0982;
456.3000;0.1620;-0.0910;
456.6000;0.1612;-0.0958;
456.9000;0.1563;-0.1126;
457.2000;0.1595;-0.0958;
457.5000;0.1612;-0.0910;
457.8000;0.1579;-0.0982;
458.1000;0.1669;-0.0719;
458.4000;0.1555;-0.1006;
458.7000;0.1587;-0.1030;
459.0000;0.1530;-0.1174;
459.3000;0.1595;-0.0934;
459.6000;0.1579;-0.0982;
459.9000;0.1685;-0.0671;
460.2000;0.1595;-0.0982;
460.5000;0.1522;-0.1078;
460.8000;0.1579;-0.1006;
461.1000;0.1530;-0.1246;
461.4000;0.1644;-0.0863;
461.7000;0.1587;-0.0982;
462.0000;0.1628;-0.0815;
462.3000;0.1579;-0.0982;
462.6000;0.1579;-0.0934;
462.9000;0.1587;-0.0887;
463.2000;0.1587;-0.0910;
463.5000;0.1555;-0.1054;
463.8000;0.1579;-0.1102;
464.1000;0.1579;-0.1126;
464.4000;0.1579;-0.1030;
464.7000;0.1571;-0.1054;
465.0000;0.1563;-0.1030;
465.3000;0.1587;-0.0910;
465.6000;0.1595;-0.0887;
465.9000;0.1579;-0.0863;
466.2000;0.1587;-0.0934;
466.5000;0.1579;-0.0910;
466.8000;0.1587;-0.0887;
467.1000;0.1587;-0.0910;
467.4000;0.1595;-0.0910;
467.7000;0.1595;-0.0863;
468.0000;0.1604;-0.0791;
468.3000;0.1571;-0.0934;
468.6000;0.1571;-0.0958;
468.9000;0.1587;-0.0982;
469.2000;0.1595;-0.0887;
469.5000;0.1604;-0.0839;
469.8000;0.1612;-0.0839;
470.1000;0.1579;-0.0934;
470.4000;0.1644;-0.0791;
470.7000;0.1587;-0.0958;
471.0000;0.1579;-0.0982;
471.3000;0.1579;-0.1006;
471.6000;0.1595;-0.0958;
471.9000;0.1579;-0.0982;
472.2000;0.1579;-0.0982;
472.5000;0.1595;-0.1054;
472.8000;0.1587;-0.1006;
473.1000;0.1563;-0.1150;
473.4000;0.1506;-0.1294;
473.7000;0.1628;-0.0839;
474.0000;0.1579;-0.0910;
474.3000;0.1636;-0.0815;
474.6000;0.1579;-0.0982;
474.9000;0.1547;-0.1030;
475.2000;0.1571;-0.0910;
475.5000;0.1481;-0.1150;
475.8000;0.1604;-0.0863;
476.1000;0.1595;-0.0839;
476.4000;0.1595;-0.0815;
476.7000;0.1579;-0.0791;
477.0000;0.1587;-0.0815;
477.3000;0.1555;-0.0839;
477.6000;0.1595;-0.0695;
477.9000;0.1587;-0.0839;
478.2000;0.1709;-0.0527;
478.5000;0.1636;-0.0743;
478.8000;0.1547;-0.0982;
479.1000;0.1661;-0.0743;
479.4000;0.1604;-0.0863;
479.7000;0.1595;-0.0887;
480.0000;0.1538;-0.1006;
480.3000;0.1587;-0.0863;
480.6000;0.1612;-0.0767;
480.9000;0.1538;-0.0958;
481.2000;0.1604;-0.0791;
481.5000;0.1604;-0.0791;
481.8000;0.1571;-0.0815;
482.1000;0.1604;-0.0887;
482.4000;0.1490;-0.1222;
482.7000;0.1612;-0.0839;
483.0000;0.1620;-0.0839;
483.3000;0.1628;-0.0743;
483.6000;0.1595;-0.0767;
483.9000;0.1555;-0.0887;
484.2000;0.1587;-0.0863;
484.5000;0.1579;-0.0815;
484.8000;0.1587;-0.0791;
485.1000;0.1579;-0.0863;
485.4000;0.1595;-0.0791;
485.7000;0.1571;-0.0863;
486.0000;0.1547;-0.1054;
486.3000;0.1604;-0.0934;
486.6000;0.1604;-0.0934;
486.9000;0.1571;-0.0958;
487.2000;0.1595;-0.0839;
487.5000;0.1579;-0.0863;
487.8000;0.1595;-0.0815;
488.1000;0.1612;-0.0695;
488.4000;0.1612;-0.0695;
488.7000;0.1547;-0.1006;
489.0000;0.1587;-0.0863;
489.3000;0.1587;-0.0887;
489.6000;0.1587;-0.0887;
489.9000;0.1490;-0.1150;
490.2000;0.1604;-0.0910;
490.5000;0.1587;-0.1006;
490.8000;0.1555;-0.1078;
491.1000;0.1604;-0.0910;
491.4000;0.1587;-0.0982;
491.7000;0.1595;-0.1006;
492.0000;0.1587;-0.1030;
492.3000;0.1595;-0.0982;
492.6000;0.1612;-0.0910;
492.9000;0.1612;-0.0863;
493.2000;0.1587;-0.0958;
493.5000;0.1620;-0.0863;
493.8000;0.1595;-0.0863;
494.1000;0.1604;-0.0910;
494.4000;0.1587;-0.0863;
494.7000;0.1538;-0.0958;
495.0000;0.1620;-0.0791;
495.3000;0.1587;-0.0910;
495.6000;0.1587;-0.0863;
495.9000;0.1555;-0.0982;
496.2000;0.1587;-0.0934;
496.5000;0.1636;-0.0719;
496.8000;0.1571;-0.0839;
497.1000;0.1604;-0.0839;
497.4000;0.1530;-0.1006;
497.7000;0.1636;-0.0623;
498.0000;0.1579;-0.0815;
498.3000;0.1587;-0.0791;
498.6000;0.1563;-0.0791;
498.9000;0.1579;-0.0767;
499.2000;0.1595;-0.0719;
499.5000;0.1579;-0.0767;
499.8000;0.1481;-0.1030;
500.1000;0.1571;-0.0934;
500.4000;0.1587;-0.0934;
500.7000;0.1587;-0.0934;
501.0000;0.1538;-0.1126;
501.3000;0.1587;-0.0910;
501.6000;0.1604;-0.0887;
501.9000;0.1595;-0.0887;
502.2000;0.1587;-0.0815;
502.5000;0.1571;-0.0791;
502.8000;0.1587;-0.0743;
503.1000;0.1457;-0.1102;
503.4000;0.1587;-0.0839;
503.7000;0.1579;-0.0791;
504.0000;0.1604;-0.0695;
504.3000;0.1612;-0.0599;
504.6000;0.1612;-0.0623;
504.9000;0.1579;-0.0695;
505.2000;0.1604;-0.0767;
505.5000;0.1579;-0.0815;
505.8000;0.1579;-0.0934;
506.1000;0.1563;-0.0958;
506.4000;0.1587;-0.0839;
506.7000;0.1652;-0.0623;
507.0000;0.1579;-0.0815;
507.3000;0.1571;-0.0839;
507.6000;0.1579;-0.0887;
507.9000;0.1563;-0.0934;
508.2000;0.1595;-0.0839;
508.5000;0.1571;-0.0839;
508.8000;0.1555;-0.0887;
509.1000;0.1620;-0.0791;
509.4000;0.1604;-0.0815;
509.7000;0.1587;-0.0767;
510.0000;0.1579;-0.0767;
510.3000;0.1579;-0.0719;
510.6000;0.1587;-0.0743;
510.9000;0.1579;-0.0743;
511.2000;0.1571;-0.0791;
511.5000;0.1571;-0.0887;
511.8000;0.1595;-0.0839;
512.1000;0.1620;-0.0743;
512.4000;0.1571;-0.0887;
512.7000;0.1579;-0.0863;
513.0000;0.1563;-0.0839;
513.3000;0.1587;-0.0863;
513.6000;0.1579;-0.0910;
513.9000;0.1587;-0.0934;
514.2000;0.1587;-0.0958;
514.5000;0.1579;-0.0934;
514.8000;0.1604;-0.0910;
515.1000;0.1579;-0.1006;
515.4000;0.1595;-0.0887;
515.7000;0.1595;-0.0863;
516.0000;0.1595;-0.0887;
516.3000;0.1579;-0.0958;
516.6000;0.1579;-0.0910;
516.9000;0.1595;-0.0791;
517.2000;0.1579;-0.0910;
517.5000;0.1595;-0.0815;
517.8000;0.1604;-0.0743;
518.1000;0.1604;-0.0839;
518.4000;0.1579;-0.1006;
518.7000;0.1604;-0.0863;
519.0000;0.1579;-0.0910;
519.3000;0.1587;-0.0839;
519.6000;0.1587;-0.0887;
519.9000;0.1571;-0.0982;
520.2000;0.1579;-0.0934;
520.5000;0.1563;-0.1054;
520.8000;0.1595;-0.0934;
521.1000;0.1604;-0.0910;
521.4000;0.1604;-0.0887;
521.7000;0.1571;-0.1030;
522.0000;0.1604;-0.0982;
522.3000;0.1604;-0.0910;
522.6000;0.1604;-0.0958;
522.9000;0.1571;-0.0982;
523.2000;0.1587;-0.0934;
523.5000;0.1579;-0.0934;
523.8000;0.1473;-0.1270;
524.1000;0.1563;-0.1078;
524.4000;0.1595;-0.0934;
524.7000;0.1571;-0.0982;
525.0000;0.1571;-0.0958;
525.3000;0.1587;-0.0934;
525.6000;0.1579;-0.0887;
525.9000;0.1587;-0.0863;
526.2000;0.1595;-0.0910;
526.5000;0.1595;-0.0887;
526.8000;0.1612;-0.0863;
527.1000;0.1636;-0.0767;
527.4000;0.1595;-0.0910;
527.7000;0.1571;-0.1006;
528.0000;0.1595;-0.0887;
528.3000;0.1587;-0.0910;
528.6000;0.1579;-0.0887;
528.9000;0.1579;-0.0958;
529.2000;0.1579;-0.0934;
529.5000;0.1579;-0.0791;
529.8000;0.1579;-0.0743;
530.1000;0.1571;-0.0719;
530.4000;0.1579;-0.0815;
530.7000;0.1538;-0.0910;
531.0000;0.1579;-0.0839;
531.3000;0.1579;-0.0815;
531.6000;0.1587;-0.0863;
531.9000;0.1604;-0.0839;
532.2000;0.1595;-0.0815;
532.5000;0.1579;-0.0887;
532.8000;0.1604;-0.0743;
533.1000;0.1587;-0.0839;
533.4000;0.1571;-0.0839;
533.7000;0.1587;-0.0839;
534.0000;0.1571;-0.0934;
534.3000;0.1571;-0.0887;
534.6000;0.1481;-0.1102;
534.9000;0.1612;-0.0767;
535.2000;0.1595;-0.0767;
535.5000;0.1579;-0.0839;
535.8000;0.1595;-0.0791;
536.1000;0.1644;-0.0743;
536.4000;0.1595;-0.0934;
536.7000;0.1644;-0.0719;
537.0000;0.1571;-0.0910;
537.3000;0.1587;-0.0863;
537.6000;0.1555;-0.0934;
537.9000;0.1604;-0.0910;
538.2000;0.1595;-0.0934;
538.5000;0.1587;-0.0958;
538.8000;0.1595;-0.0934;
539.1000;0.1604;-0.0958;
539.4000;0.1595;-0.0910;
539.7000;0.1604;-0.0934;
540.0000;0.1595;-0.0910;
540.3000;0.1579;-0.1006;
540.6000;0.1604;-0.1006;
540.9000;0.1677;-0.0815;
541.2000;0.1595;-0.0982;
541.5000;0.1612;-0.0863;
541.8000;0.1685;-0.0623;
542.1000;0.1571;-0.0839;
542.4000;0.1579;-0.0839;
542.7000;0.1481;-0.1102;
543.0000;0.1538;-0.0910;
543.3000;0.1636;-0.0647;
543.6000;0.1587;-0.0863;
543.9000;0.1547;-0.1054;
544.2000;0.1579;-0.0910;
544.5000;0.1530;-0.1030;
544.8000;0.1555;-0.0934;
545.1000;0.1595;-0.0815;
545.4000;0.1587;-0.0839;
545.7000;0.1620;-0.0767;
546.0000;0.1604;-0.0815;
546.3000;0.1612;-0.0767;
546.6000;0.1595;-0.0934;
546.9000;0.1595;-0.0910;
547.2000;0.1530;-0.1078;
547.5000;0.1563;-0.0982;
547.8000;0.1587;-0.0958;
548.1000;0.1587;-0.0934;
548.4000;0.1587;-0.0887;
548.7000;0.1547;-0.1006;
549.0000;0.1612;-0.0791;
549.3000;0.1579;-0.0863;
549.6000;0.1587;-0.0910;
549.9000;0.1571;-0.0910;
550.2000;0.1547;-0.1006;
550.5000;0.1628;-0.0839;
550.8000;0.1604;-0.0982;
551.1000;0.1595;-0.0934;
551.4000;0.1587;-0.0958;
551.7000;0.1612;-0.0934;
552.0000;0.1595;-0.0958;
552.3000;0.1701;-0.0647;
552.6000;0.1579;-0.0958;
552.9000;0.1595;-0.0982;
553.2000;0.1587;-0.1054;
553.5000;0.1644;-0.0934;
553.8000;0.1579;-0.0982;
554.1000;0.1604;-0.0887;
554.4000;0.1530;-0.1150;
554.7000;0.1563;-0.0982;
555.0000;0.1612;-0.0910;
555.3000;0.1571;-0.0958;
555.6000;0.1579;-0.0887;
555.9000;0.1587;-0.0887;
556.2000;0.1563;-0.1006;
556.5000;0.1612;-0.0767;
556.8000;0.1604;-0.0887;
557.1000;0.1587;-0.0910;
557.4000;0.1579;-0.0958;
557.7000;0.1563;-0.0910;
558.0000;0.1522;-0.1054;
558.3000;0.1571;-0.0934;
558.6000;0.1587;-0.0887;
558.9000;0.1587;-0.0815;
559.2000;0.1612;-0.0743;
559.5000;0.1612;-0.0791;
559.8000;0.1604;-0.0863;
560.1000;0.1579;-0.0958;
560.4000;0.1571;-0.1030;
560.7000;0.1604;-0.0982;
561.0000;0.1587;-0.0934;
561.3000;0.1579;-0.0910;
561.6000;0.1587;-0.0815;
561.9000;0.1579;-0.0863;
562.2000;0.1604;-0.0887;
562.5000;0.1547;-0.1006;
562.8000;0.1563;-0.0958;
563.1000;0.1587;-0.0934;
563.4000;0.1612;-0.0791;
563.7000;0.1571;-0.0815;
564.0000;0.1604;-0.0791;
564.3000;0.1636;-0.0695;
564.6000;0.1587;-0.0887;
564.9000;0.1530;-0.1126;
565.2000;0.1604;-0.0887;
565.5000;0.1644;-0.0815;
565.8000;0.1595;-0.1030;
566.1000;0.1612;-0.1030;
566.4000;0.1587;-0.1030;
566.7000;0.1571;-0.1054;
567.0000;0.1652;-0.0791;
567.3000;0.1538;-0.1030;
567.6000;0.1563;-0.1006;
567.9000;0.1490;-0.1294;
568.2000;0.1604;-0.0982;
568.5000;0.1587;-0.0958;
568.8000;0.1587;-0.0982;
569.1000;0.1587;-0.1030;
569.4000;0.1604;-0.1126;
569.7000;0.1595;-0.1078;
570.0000;0.1579;-0.1078;
570.3000;0.1579;-0.1054;
570.6000;0.1547;-0.1054;
570.9000;0.1587;-0.0934;
571.2000;0.1579;-0.0910;
571.5000;0.1677;-0.0695;
571.8000;0.1612;-0.0839;
572.1000;0.1506;-0.1054;
572.4000;0.1587;-0.0910;
572.7000;0.1563;-0.0958;
573.0000;0.1652;-0.0743;
573.3000;0.1571;-0.0958;
573.6000;0.1579;-0.1030;
573.9000;0.1563;-0.1054;
574.2000;0.1652;-0.0815;
574.5000;0.1587;-0.1006;
574.8000;0.1481;-0.1246;
575.1000;0.1595;-0.0910;
575.4000;0.1612;-0.0910;
575.7000;0.1604;-0.0839;
576.0000;0.1538;-0.1006;
576.3000;0.1701;-0.0599;
576.6000;0.1612;-0.0863;
576.9000;0.1563;-0.0958;
577.2000;0.1555;-0.0910;
577.5000;0.1644;-0.0671;
577.8000;0.1547;-0.0982;
578.1000;0.1563;-0.0958;
578.4000;0.1636;-0.0743;
578.7000;0.1579;-0.0815;
579.0000;0.1571;-0.0767;
579.3000;0.1612;-0.0767;
579.6000;0.1571;-0.0839;
579.9000;0.1579;-0.0934;
580.2000;0.1604;-0.0910;
580.5000;0.1587;-0.0934;
580.8000;0.1571;-0.1006;
581.1000;0.1587;-0.0887;
581.4000;0.1579;-0.0863;
581.7000;0.1604;-0.0887;
582.0000;0.1522;-0.1102;
582.3000;0.1547;-0.1006;
582.6000;0.1587;-0.0887;
582.9000;0.1604;-0.0791;
583.2000;0.1661;-0.0599;
583.5000;0.1571;-0.0934;
583.8000;0.1587;-0.0839;
584.1000;0.1595;-0.0815;
584.4000;0.1579;-0.0910;
584.7000;0.1587;-0.0887;
585.0000;0.1612;-0.0863;
585.3000;0.1604;-0.0934;
585.6000;0.1587;-0.0982;
585.9000;0.1579;-0.0958;
586.2000;0.1579;-0.0982;
586.5000;0.1571;-0.0982;
586.8000;0.1555;-0.1078;
587.1000;0.1595;-0.0934;
587.4000;0.1612;-0.0887;
587.7000;0.1652;-0.0815;
588.0000;0.1595;-0.0910;
588.3000;0.1587;-0.0839;
588.6000;0.1587;-0.0839;
588.9000;0.1571;-0.0887;
589.2000;0.1571;-0.0839;
589.5000;0.1579;-0.0839;
589.8000;0.1522;-0.1078;
590.1000;0.1571;-0.0958;
590.4000;0.1612;-0.0910;
590.7000;0.1628;-0.0815;
591.0000;0.1595;-0.0863;
591.3000;0.1563;-0.0910;
591.6000;0.1587;-0.0863;
591.9000;0.1595;-0.0839;
592.2000;0.1538;-0.1006;
592.5000;0.1587;-0.0934;
592.8000;0.1587;-0.0863;
593.1000;0.1579;-0.0863;
593.4000;0.1547;-0.1006;
593.7000;0.1644;-0.0791;
594.0000;0.1579;-0.0934;
594.3000;0.1595;-0.0887;
594.6000;0.1595;-0.0839;
594.9000;0.1555;-0.1054;
595.2000;0.1587;-0.0982;
595.5000;0.1604;-0.0958;
595.8000;0.1579;-0.1030;
596.1000;0.1571;-0.1006;
596.4000;0.1579;-0.0958;
596.7000;0.1587;-0.0982;
597.0000;0.1465;-0.1174;
597.3000;0.1579;-0.0863;
597.6000;0.1563;-0.0958;
597.9000;0.1522;-0.1078;
598.2000;0.1571;-0.0910;
598.5000;0.1587;-0.0815;
598.8000;0.1579;-0.0839;
599.1000;0.1571;-0.0791;
599.4000;0.1538;-0.0887;
599.7000;0.1604;-0.0791;
600.0000;0.1563;-0.0934;
600.3000;0.1579;-0.0887;
600.6000;0.1669;-0.0743;
600.9000;0.1587;-0.0934;
601.2000;0.1547;-0.1126;
601.5000;0.1579;-0.1174;
601.8000;0.1587;-0.1270;
602.1000;0.1571;-0.1414;
602.4000;0.1530;-0.1605;
602.7000;0.1563;-0.1629;
603.0000;0.1538;-0.1797;
603.3000;0.1547;-0.1917;
603.6000;0.1506;-0.2085;
603.9000;0.1498;-0.2228;
604.2000;0.1538;-0.2228;
604.5000;0.1547;-0.2228;
604.8000;0.1481;-0.2396;
605.1000;0.1498;-0.2348;
605.4000;0.1498;-0.2396;
605.7000;0.1547;-0.2348;
606.0000;0.1514;-0.2444;
606.3000;0.1490;-0.2516;
606.6000;0.1498;-0.2540;
606.9000;0.1498;-0.2516;
607.2000;0.1522;-0.2468;
607.5000;0.1530;-0.2540;
607.8000;0.1514;-0.2636;
608.1000;0.1514;-0.2731;
608.4000;0.1522;-0.2755;
608.7000;0.1530;-0.2803;
609.0000;0.1498;-0.2827;
609.3000;0.1522;-0.2755;
609.6000;0.1538;-0.2731;
609.9000;0.1490;-0.2827;
610.2000;0.1498;-0.2803;
610.5000;0.1530;-0.2707;
610.8000;0.1612;-0.2468;
611.1000;0.1514;-0.2803;
611.4000;0.1514;-0.2803;
611.7000;0.1498;-0.2899;
612.0000;0.1473;-0.2947;
612.3000;0.1498;-0.2947;
612.6000;0.1465;-0.3091;
612.9000;0.1522;-0.2923;
613.2000;0.1498;-0.3043;
613.5000;0.1498;-0.3067;
613.8000;0.1481;-0.3091;
614.1000;0.1490;-0.3139;
614.4000;0.1441;-0.3259;
614.7000;0.1506;-0.2995;
615.0000;0.1514;-0.2875;
615.3000;0.1506;-0.2923;
615.6000;0.1506;-0.2827;
615.9000;0.1514;-0.2923;
616.2000;0.1490;-0.3019;
616.5000;0.1506;-0.3043;
616.8000;0.1498;-0.2995;
617.1000;0.1538;-0.2899;
617.4000;0.1498;-0.2995;
617.7000;0.1514;-0.2971;
618.0000;0.1473;-0.3067;
618.3000;0.1441;-0.3211;
618.6000;0.1481;-0.3019;
618.9000;0.1481;-0.2995;
619.2000;0.1490;-0.2899;
619.5000;0.1465;-0.2923;
619.8000;0.1506;-0.2875;
620.1000;0.1498;-0.2923;
620.4000;0.1473;-0.2995;
620.7000;0.1465;-0.3043;
621.0000;0.1506;-0.2875;
621.3000;0.1498;-0.2851;
621.6000;0.1473;-0.2947;
621.9000;0.1506;-0.2995;
622.2000;0.1514;-0.3067;
622.5000;0.1490;-0.3139;
622.8000;0.1498;-0.3187;
623.1000;0.1481;-0.3259;
623.4000;0.1490;-0.3187;
623.7000;0.1490;-0.3235;
624.0000;0.1506;-0.3187;
624.3000;0.1465;-0.3139;
624.6000;0.1465;-0.3187;
624.9000;0.1490;-0.3115;
625.2000;0.1490;-0.3115;
625.5000;0.1490;-0.3139;
625.8000;0.1490;-0.3187;
626.1000;0.1481;-0.3235;
626.4000;0.1506;-0.3115;
626.7000;0.1498;-0.3139;
627.0000;0.1498;-0.3139;
627.3000;0.1481;-0.3187;
627.6000;0.1490;-0.3235;
627.9000;0.1522;-0.3115;
628.2000;0.1506;-0.3211;
628.5000;0.1481;-0.3283;
628.8000;0.1506;-0.3235;
629.1000;0.1473;-0.3378;
629.4000;0.1498;-0.3354;
629.7000;0.1530;-0.3259;
630.0000;0.1506;-0.3330;
630.3000;0.1481;-0.3330;
630.6000;0.1425;-0.3570;
630.9000;0.1490;-0.3354;
631.2000;0.1473;-0.3330;
631.5000;0.1498;-0.3283;
631.8000;0.1441;-0.3402;
632.1000;0.1465;-0.3283;
632.4000;0.1473;-0.3306;
632.7000;0.1514;-0.3259;
633.0000;0.1506;-0.3163;
633.3000;0.1498;-0.3139;
633.6000;0.1498;-0.3115;
633.9000;0.1506;-0.3091;
634.2000;0.1490;-0.3115;
634.5000;0.1457;-0.3259;
634.8000;0.1473;-0.3259;
635.1000;0.1457;-0.3211;
635.4000;0.1490;-0.3187;
635.7000;0.1481;-0.3283;
636.0000;0.1498;-0.3306;
636.3000;0.1522;-0.3283;
636.6000;0.1457;-0.3426;
636.9000;0.1490;-0.3235;
637.2000;0.1498;-0.3211;
637.5000;0.1547;-0.3115;
637.8000;0.1481;-0.3235;
638.1000;0.1506;-0.3235;
638.4000;0.1514;-0.3235;
638.7000;0.1490;-0.3259;
639.0000;0.1490;-0.3163;
639.3000;0.1506;-0.3139;
639.6000;0.1506;-0.3091;
639.9000;0.1457;-0.3211;
640.2000;0.1473;-0.3163;
640.5000;0.1465;-0.3187;
640.8000;0.1465;-0.3139;
641.1000;0.1490;-0.3115;
641.4000;0.1481;-0.3187;
641.7000;0.1490;-0.3187;
642.0000;0.1441;-0.3211;
642.3000;0.1481;-0.3043;
642.6000;0.1473;-0.3139;
642.9000;0.1547;-0.2995;
643.2000;0.1506;-0.3091;
643.5000;0.1433;-0.3211;
643.8000;0.1481;-0.3139;
644.1000;0.1530;-0.3091;
644.4000;0.1498;-0.3115;
644.7000;0.1481;-0.3163;
645.0000;0.1490;-0.3067;
645.3000;0.1498;-0.3019;
645.6000;0.1514;-0.2971;
645.9000;0.1498;-0.3067;
646.2000;0.1473;-0.3115;
646.5000;0.1498;-0.3091;
646.8000;0.1498;-0.3139;
647.1000;0.1506;-0.3187;
647.4000;0.1433;-0.3330;
647.7000;0.1481;-0.3211;
648.0000;0.1425;-0.3330;
648.3000;0.1481;-0.3187;
648.6000;0.1506;-0.3115;
648.9000;0.1490;-0.3283;
649.2000;0.1481;-0.3283;
649.5000;0.1498;-0.3235;
649.8000;0.1473;-0.3211;
650.1000;0.1506;-0.3139;
650.4000;0.1490;-0.3187;
650.7000;0.1473;-0.3235;
651.0000;0.1465;-0.3259;
651.3000;0.1473;-0.3211;
651.6000;0.1481;-0.3235;
651.9000;0.1473;-0.3283;
652.2000;0.1449;-0.3426;
652.5000;0.1481;-0.3259;
652.8000;0.1490;-0.3330;
653.1000;0.1490;-0.3426;
653.4000;0.1498;-0.3522;
653.7000;0.1514;-0.3378;
654.0000;0.1514;-0.3354;
654.3000;0.1490;-0.3402;
654.6000;0.1530;-0.3283;
654.9000;0.1490;-0.3306;
655.2000;0.1481;-0.3283;
655.5000;0.1506;-0.3235;
655.8000;0.1571;-0.3019;
656.1000;0.1522;-0.3091;
656.4000;0.1490;-0.3211;
656.7000;0.1465;-0.3211;
657.0000;0.1490;-0.3163;
657.3000;0.1506;-0.3091;
657.6000;0.1498;-0.3091;
657.9000;0.1384;-0.3378;
658.2000;0.1473;-0.3139;
658.5000;0.1473;-0.3163;
658.8000;0.1473;-0.3235;
659.1000;0.1473;-0.3283;
659.4000;0.1498;-0.3235;
659.7000;0.1506;-0.3211;
660.0000;0.1490;-0.3306;
660.3000;0.1449;-0.3354;
660.6000;0.1473;-0.3306;
660.9000;0.1490;-0.3306;
661.2000;0.1481;-0.3306;
661.5000;0.1490;-0.3306;
661.8000;0.1465;-0.3306;
662.1000;0.1481;-0.3187;
662.4000;0.1481;-0.3187;
662.7000;0.1506;-0.3115;
663.0000;0.1490;-0.3139;
663.3000;0.1473;-0.3139;
663.6000;0.1473;-0.3115;
663.9000;0.1498;-0.3043;
664.2000;0.1481;-0.3115;
664.5000;0.1506;-0.2971;
664.8000;0.1490;-0.3019;
665.1000;0.1457;-0.3115;
665.4000;0.1530;-0.2923;
665.7000;0.1506;-0.2995;
666.0000;0.1457;-0.3019;
666.3000;0.1498;-0.2899;
666.6000;0.1514;-0.2899;
666.9000;0.1514;-0.2875;
667.2000;0.1490;-0.2947;
667.5000;0.1498;-0.3043;
667.8000;0.1490;-0.3163;
668.1000;0.1481;-0.3139;
668.4000;0.1481;-0.3067;
668.7000;0.1506;-0.2971;
669.0000;0.1522;-0.2971;
669.3000;0.1490;-0.3043;
669.6000;0.1481;-0.3019;
669.9000;0.1498;-0.3019;
670.2000;0.1481;-0.2971;
670.5000;0.1522;-0.2803;
670.8000;0.1473;-0.2971;
671.1000;0.1481;-0.3019;
671.4000;0.1473;-0.3139;
671.7000;0.1579;-0.2851;
672.0000;0.1473;-0.3139;
672.3000;0.1465;-0.3187;
672.6000;0.1555;-0.2851;
672.9000;0.1481;-0.3067;
673.2000;0.1490;-0.3043;
673.5000;0.1473;-0.3139;
673.8000;0.1530;-0.2875;
674.1000;0.1457;-0.3115;
674.4000;0.1498;-0.3019;
674.7000;0.1498;-0.2995;
675.0000;0.1457;-0.3043;
675.3000;0.1481;-0.3067;
675.6000;0.1490;-0.3091;
675.9000;0.1498;-0.3091;
676.2000;0.1481;-0.3163;
676.5000;0.1351;-0.3474;
676.8000;0.1498;-0.3115;
677.1000;0.1506;-0.3115;
677.4000;0.1481;-0.3163;
677.7000;0.1473;-0.3187;
678.0000;0.1490;-0.3139;
678.3000;0.1473;-0.3139;
678.6000;0.1498;-0.3067;
678.9000;0.1506;-0.3091;
679.2000;0.1465;-0.3283;
679.5000;0.1481;-0.3211;
679.8000;0.1490;-0.3115;
680.1000;0.1449;-0.3115;
680.4000;0.1514;-0.3019;
680.7000;0.1473;-0.3091;
681.0000;0.1473;-0.3067;
681.3000;0.1481;-0.2947;
681.6000;0.1490;-0.2923;
681.9000;0.1473;-0.2923;
682.2000;0.1473;-0.2899;
682.5000;0.1481;-0.2899;
682.8000;0.1449;-0.3067;
683.1000;0.1490;-0.3043;
683.4000;0.1490;-0.3043;
683.7000;0.1368;-0.3306;
684.0000;0.1465;-0.3067;
684.3000;0.1473;-0.3091;
684.6000;0.1490;-0.3019;
684.9000;0.1490;-0.3043;
685.2000;0.1457;-0.3163;
685.5000;0.1498;-0.3139;
685.8000;0.1498;-0.3139;
686.1000;0.1506;-0.3091;
686.4000;0.1481;-0.3139;
686.7000;0.1514;-0.3043;
687.0000;0.1498;-0.3043;
687.3000;0.1490;-0.3043;
687.6000;0.1490;-0.3091;
687.9000;0.1473;-0.3163;
688.2000;0.1514;-0.3187;
688.5000;0.1473;-0.3306;
688.8000;0.1481;-0.3235;
689.1000;0.1498;-0.3211;
689.4000;0.1481;-0.3163;
689.7000;0.1490;-0.3139;
690.0000;0.1490;-0.3067;
690.3000;0.1457;-0.3211;
690.6000;0.1473;-0.3235;
690.9000;0.1514;-0.3067;
691.2000;0.1449;-0.3235;
691.5000;0.1473;-0.3163;
691.8000;0.1514;-0.3115;
692.1000;0.1612;-0.2875;
692.4000;0.1498;-0.3139;
692.7000;0.1490;-0.3091;
693.0000;0.1498;-0.3067;
693.3000;0.1481;-0.3067;
693.6000;0.1490;-0.3043;
693.9000;0.1498;-0.2947;
694.2000;0.1498;-0.3091;
694.5000;0.1555;-0.2923;
694.8000;0.1522;-0.2995;
695.1000;0.1498;-0.2923;
695.4000;0.1481;-0.3019;
695.7000;0.1473;-0.2995;
696.0000;0.1490;-0.2947;
696.3000;0.1514;-0.2875;
696.6000;0.1604;-0.2540;
696.9000;0.1506;-0.2851;
697.2000;0.1498;-0.2947;
697.5000;0.1514;-0.2923;
697.8000;0.1506;-0.2971;
698.1000;0.1498;-0.2947;
698.4000;0.1490;-0.2971;
698.7000;0.1473;-0.2995;
699.0000;0.1465;-0.3043;
699.3000;0.1498;-0.3067;
699.6000;0.1506;-0.3163;
699.9000;0.1514;-0.3067;
700.2000;0.1481;-0.3115;
700.5000;0.1490;-0.3043;
700.8000;0.1514;-0.2899;
701.1000;0.1473;-0.3091;
701.4000;0.1498;-0.3043;
701.7000;0.1490;-0.3091;
702.0000;0.1522;-0.3043;
702.3000;0.1457;-0.3187;
702.6000;0.1506;-0.3139;
702.9000;0.1498;-0.3091;
703.2000;0.1490;-0.3115;
703.5000;0.1587;-0.2875;
703.8000;0.1498;-0.3211;
704.1000;0.1514;-0.3163;
704.4000;0.1457;-0.3235;
704.7000;0.1481;-0.3139;
705.0000;0.1498;-0.3139;
705.3000;0.1368;-0.3522;
705.6000;0.1441;-0.3354;
705.9000;0.1359;-0.3498;
706.2000;0.1490;-0.3211;
706.5000;0.1441;-0.3354;
706.8000;0.1457;-0.3330;
707.1000;0.1490;-0.3187;
707.4000;0.1481;-0.3115;
707.7000;0.1498;-0.3091;
708.0000;0.1490;-0.3067;
708.3000;0.1457;-0.3163;
708.6000;0.1473;-0.3115;
708.9000;0.1490;-0.2995;
709.2000;0.1490;-0.3043;
709.5000;0.1457;-0.3091;
709.8000;0.1481;-0.2995;
710.1000;0.1465;-0.3067;
710.4000;0.1498;-0.2923;
710.7000;0.1457;-0.3043;
711.0000;0.1465;-0.3067;
711.3000;0.1465;-0.3163;
711.6000;0.1490;-0.3091;
711.9000;0.1457;-0.3115;
712.2000;0.1457;-0.3163;
712.5000;0.1481;-0.3139;
712.8000;0.1498;-0.3091;
713.1000;0.1481;-0.3115;
713.4000;0.1481;-0.3091;
713.7000;0.1506;-0.3043;
714.0000;0.1490;-0.3091;
714.3000;0.1498;-0.3043;
714.6000;0.1506;-0.2971;
714.9000;0.1433;-0.3115;
715.2000;0.1506;-0.3019;
715.5000;0.1506;-0.3043;
715.8000;0.1473;-0.3115;
716.1000;0.1595;-0.2755;
716.4000;0.1498;-0.2995;
716.7000;0.1481;-0.3091;
717.0000;0.1498;-0.3043;
717.3000;0.1481;-0.3187;
717.6000;0.1473;-0.3187;
717.9000;0.1498;-0.3211;
718.2000;0.1490;-0.3187;
718.5000;0.1449;-0.3330;
718.8000;0.1498;-0.3163;
719.1000;0.1481;-0.3163;
719.4000;0.1498;-0.3091;
719.7000;0.1481;-0.3091;
720.0000;0.1481;-0.3211;
720.3000;0.1498;-0.3187;
720.6000;0.1490;-0.3235;
720.9000;0.1481;-0.3187;
721.2000;0.1481;-0.3163;
721.5000;0.1473;-0.3259;
721.8000;0.1481;-0.3259;
722.1000;0.1473;-0.3187;
722.4000;0.1490;-0.3115;
722.7000;0.1522;-0.3043;
723.0000;0.1498;-0.3139;
723.3000;0.1490;-0.3187;
723.6000;0.1465;-0.3235;
723.9000;0.1473;-0.3163;
724.2000;0.1490;-0.3115;
724.5000;0.1506;-0.3091;
724.8000;0.1490;-0.3139;
725.1000;0.1473;-0.3163;
725.4000;0.1473;-0.3139;
725.7000;0.1498;-0.3139;
726.0000;0.1473;-0.3235;
726.3000;0.1490;-0.3139;
726.6000;0.1473;-0.3067;
726.9000;0.1441;-0.3139;
727.2000;0.1481;-0.2995;
727.5000;0.1473;-0.3043;
727.8000;0.1530;-0.3019;
728.1000;0.1481;-0.3115;
728.4000;0.1579;-0.2851;
728.7000;0.1481;-0.3067;
729.0000;0.1490;-0.3019;
729.3000;0.1571;-0.2851;
729.6000;0.1473;-0.3115;
729.9000;0.1595;-0.2779;
730.2000;0.1490;-0.3091;
730.5000;0.1514;-0.2995;
730.8000;0.1481;-0.3139;
731.1000;0.1481;-0.3139;
731.4000;0.1498;-0.3163;
731.7000;0.1473;-0.3163;
732.0000;0.1490;-0.3211;
732.3000;0.1538;-0.3019;
732.6000;0.1449;-0.3235;
732.9000;0.1538;-0.2899;
733.2000;0.1481;-0.3043;
733.5000;0.1490;-0.3019;
733.8000;0.1441;-0.3163;
734.1000;0.1481;-0.3091;
734.4000;0.1490;-0.3067;
734.7000;0.1473;-0.3067;
735.0000;0.1490;-0.2995;
735.3000;0.1473;-0.3043;
735.6000;0.1481;-0.2923;
735.9000;0.1506;-0.2923;
736.2000;0.1490;-0.3019;
736.5000;0.1506;-0.2923;
736.8000;0.1481;-0.2947;
737.1000;0.1555;-0.2731;
737.4000;0.1473;-0.2995;
737.7000;0.1490;-0.2971;
738.0000;0.1481;-0.2995;
738.3000;0.1433;-0.3115;
738.6000;0.1481;-0.3019;
738.9000;0.1465;-0.2923;
739.2000;0.1473;-0.2851;
739.5000;0.1490;-0.2899;
739.8000;0.1498;-0.2971;
740.1000;0.1530;-0.2779;
740.4000;0.1481;-0.3019;
740.7000;0.1481;-0.3019;
741.0000;0.1514;-0.3067;
741.3000;0.1481;-0.3139;
741.6000;0.1490;-0.3091;
741.9000;0.1481;-0.3139;
742.2000;0.1490;-0.3139;
742.5000;0.1498;-0.3115;
742.8000;0.1490;-0.3163;
743.1000;0.1473;-0.3163;
743.4000;0.1498;-0.3139;
743.7000;0.1490;-0.3019;
744.0000;0.1473;-0.3019;
744.3000;0.1481;-0.2947;
744.6000;0.1465;-0.3043;
744.9000;0.1465;-0.3043;
745.2000;0.1490;-0.3043;
745.5000;0.1473;-0.3139;
745.8000;0.1473;-0.3211;
746.1000;0.1481;-0.3283;
746.4000;0.1490;-0.3259;
746.7000;0.1481;-0.3211;
747.0000;0.1506;-0.3187;
747.3000;0.1465;-0.3211;
747.6000;0.1538;-0.2947;
747.9000;0.1490;-0.3115;
748.2000;0.1457;-0.3235;
748.5000;0.1473;-0.3235;
748.8000;0.1473;-0.3259;
749.1000;0.1498;-0.3187;
749.4000;0.1490;-0.3187;
749.7000;0.1490;-0.3115;
750.0000;0.1465;-0.3187;
750.3000;0.1506;-0.3043;
750.6000;0.1490;-0.3115;
750.9000;0.1481;-0.3139;
751.2000;0.1473;-0.3235;
751.5000;0.1449;-0.3115;
751.8000;0.1481;-0.3043;
752.1000;0.1490;-0.3043;
752.4000;0.1506;-0.3091;
752.7000;0.1457;-0.3235;
753.0000;0.1473;-0.3187;
753.3000;0.1473;-0.3211;
753.6000;0.1490;-0.3211;
753.9000;0.1506;-0.3163;
754.2000;0.1481;-0.3187;
754.5000;0.1490;-0.3211;
754.8000;0.1612;-0.2851;
755.1000;0.1481;-0.3139;
755.4000;0.1498;-0.3115;
755.7000;0.1490;-0.3187;
756.0000;0.1473;-0.3235;
756.3000;0.1465;-0.3306;
756.6000;0.1481;-0.3259;
756.9000;0.1490;-0.3115;
757.2000;0.1481;-0.3115;
757.5000;0.1490;-0.3067;
757.8000;0.1506;-0.3043;
758.1000;0.1490;-0.3043;
758.4000;0.1498;-0.2923;
758.7000;0.1490;-0.2971;
759.0000;0.1481;-0.2947;
759.3000;0.1392;-0.3139;
759.6000;0.1481;-0.2899;
759.9000;0.1457;-0.2971;
760.2000;0.1473;-0.2971;
760.5000;0.1481;-0.2923;
760.8000;0.1514;-0.2971;
761.1000;0.1392;-0.3330;
761.4000;0.1490;-0.3019;
761.7000;0.1490;-0.3019;
762.0000;0.1563;-0.2755;
762.3000;0.1490;-0.3019;
762.6000;0.1481;-0.3115;
762.9000;0.1490;-0.3091;
763.2000;0.1481;-0.3067;
763.5000;0.1441;-0.3211;
763.8000;0.1449;-0.3211;
764.1000;0.1481;-0.3139;
764.4000;0.1490;-0.3067;
764.7000;0.1490;-0.3163;
765.0000;0.1481;-0.3115;
765.3000;0.1473;-0.3211;
765.6000;0.1425;-0.3330;
765.9000;0.1481;-0.3091;
766.2000;0.1490;-0.3091;
766.5000;0.1441;-0.3235;
766.8000;0.1506;-0.3139;
767.1000;0.1490;-0.3091;
767.4000;0.1514;-0.3019;
767.7000;0.1481;-0.3043;
768.0000;0.1481;-0.3043;
768.3000;0.1490;-0.2995;
768.6000;0.1473;-0.3043;
768.9000;0.1465;-0.3091;
769.2000;0.1473;-0.3019;
769.5000;0.1506;-0.2947;
769.8000;0.1490;-0.2971;
770.1000;0.1457;-0.3091;
770.4000;0.1433;-0.3163;
770.7000;0.1498;-0.3019;
771.0000;0.1490;-0.3115;
771.3000;0.1506;-0.3091;
771.6000;0.1359;-0.3474;
771.9000;0.1481;-0.3043;
772.2000;0.1473;-0.2995;
772.5000;0.1473;-0.3043;
772.8000;0.1490;-0.3091;
773.1000;0.1481;-0.3163;
773.4000;0.1506;-0.3139;
773.7000;0.1490;-0.3211;
774.0000;0.1563;-0.3043;
774.3000;0.1498;-0.3163;
774.6000;0.1490;-0.3211;
774.9000;0.1538;-0.3067;
775.2000;0.1425;-0.3354;
775.5000;0.1530;-0.3019;
775.8000;0.1481;-0.3235;
776.1000;0.1473;-0.3211;
776.4000;0.1506;-0.3091;
776.7000;0.1481;-0.3139;
777.0000;0.1392;-0.3450;
777.3000;0.1490;-0.3235;
777.6000;0.1473;-0.3235;
777.9000;0.1490;-0.3306;
778.2000;0.1490;-0.3378;
778.5000;0.1498;-0.3354;
778.8000;0.1465;-0.3306;
779.1000;0.1481;-0.3115;
779.4000;0.1490;-0.3115;
779.7000;0.1522;-0.3091;
780.0000;0.1400;-0.3235;
780.3000;0.1490;-0.3019;
780.6000;0.1473;-0.3115;
780.9000;0.1498;-0.3091;
781.2000;0.1457;-0.3259;
781.5000;0.1473;-0.3235;
781.8000;0.1465;-0.3306;
782.1000;0.1457;-0.3283;
782.4000;0.1490;-0.3163;
782.7000;0.1473;-0.3163;
783.0000;0.1449;-0.3283;
783.3000;0.1498;-0.3139;
783.6000;0.1481;-0.3163;
783.9000;0.1530;-0.3115;
784.2000;0.1490;-0.3163;
784.5000;0.1514;-0.3115;
784.8000;0.1522;-0.3067;
785.1000;0.1547;-0.2971;
785.4000;0.1514;-0.3043;
785.7000;0.1465;-0.3139;
786.0000;0.1490;-0.3091;
786.3000;0.1522;-0.2971;
786.6000;0.1425;-0.3259;
786.9000;0.1481;-0.3187;
787.2000;0.1490;-0.3187;
787.5000;0.1490;-0.3211;
787.8000;0.1498;-0.3235;
788.1000;0.1514;-0.3139;
788.4000;0.1473;-0.3259;
788.7000;0.1514;-0.3163;
789.0000;0.1506;-0.3139;
789.3000;0.1481;-0.3187;
789.6000;0.1490;-0.3163;
789.9000;0.1481;-0.3163;
790.2000;0.1498;-0.3115;
790.5000;0.1506;-0.3067;
790.8000;0.1530;-0.2995;
791.1000;0.1481;-0.3115;
791.4000;0.1490;-0.3115;
791.7000;0.1490;-0.3115;
792.0000;0.1498;-0.3163;
792.3000;0.1481;-0.3139;
792.6000;0.1612;-0.2851;
792.9000;0.1506;-0.3067;
793.2000;0.1473;-0.3115;
793.5000;0.1481;-0.3091;
793.8000;0.1490;-0.3067;
794.1000;0.1530;-0.2923;
794.4000;0.1481;-0.3043;
794.7000;0.1481;-0.3043;
795.0000;0.1481;-0.3115;
795.3000;0.1481;-0.3163;
795.6000;0.1457;-0.3235;
795.9000;0.1473;-0.3163;
796.2000;0.1481;-0.3115;
796.5000;0.1506;-0.3139;
796.8000;0.1514;-0.3211;
797.1000;0.1473;-0.3259;
797.4000;0.1384;-0.3426;
797.7000;0.1481;-0.3139;
798.0000;0.1481;-0.3115;
798.3000;0.1465;-0.3091;
798.6000;0.1490;-0.2995;
798.9000;0.1555;-0.2827;
799.2000;0.1425;-0.3163;
799.5000;0.1490;-0.3067;
799.8000;0.1465;-0.3163;
800.1000;0.1490;-0.3067;
800.4000;0.1481;-0.3115;
800.7000;0.1481;-0.3067;
801.0000;0.1481;-0.3019;
801.3000;0.1433;-0.3091;
801.6000;0.1498;-0.2947;
801.9000;0.1473;-0.3019;
802.2000;0.1473;-0.3115;
802.5000;0.1416;-0.3259;
802.8000;0.1473;-0.3163;
803.1000;0.1473;-0.3067;
803.4000;0.1473;-0.3019;
803.7000;0.1514;-0.2923;
804.0000;0.1547;-0.2827;
804.3000;0.1473;-0.3043;
804.6000;0.1481;-0.2971;
804.9000;0.1498;-0.2875;
805.2000;0.1368;-0.3115;
805.5000;0.1506;-0.2707;
805.8000;0.1498;-0.2779;
806.1000;0.1416;-0.3115;
806.4000;0.1473;-0.2995;
806.7000;0.1457;-0.3067;
807.0000;0.1571;-0.2851;
807.3000;0.1490;-0.3115;
807.6000;0.1595;-0.2827;
807.9000;0.1490;-0.3067;
808.2000;0.1359;-0.3378;
808.5000;0.1481;-0.3115;
808.8000;0.1498;-0.3211;
809.1000;0.1449;-0.3402;
809.4000;0.1506;-0.3330;
809.7000;0.1547;-0.3259;
810.0000;0.1481;-0.3426;
810.3000;0.1473;-0.3402;
810.6000;0.1481;-0.3283;
810.9000;0.1457;-0.3283;
811.2000;0.1498;-0.3163;
811.5000;0.1490;-0.3139;
811.8000;0.1498;-0.3043;
812.1000;0.1522;-0.2971;
812.4000;0.1490;-0.3019;
812.7000;0.1522;-0.2971;
813.0000;0.1457;-0.3235;
813.3000;0.1465;-0.3235;
813.6000;0.1555;-0.2995;
813.9000;0.1490;-0.3163;
814.2000;0.1457;-0.3283;
814.5000;0.1498;-0.3283;
814.8000;0.1490;-0.3259;
815.1000;0.1465;-0.3306;
815.4000;0.1498;-0.3139;
815.7000;0.1579;-0.2923;
816.0000;0.1514;-0.3163;
816.3000;0.1473;-0.3306;
816.6000;0.1490;-0.3235;
816.9000;0.1506;-0.3211;
817.2000;0.1490;-0.3163;
817.5000;0.1473;-0.3139;
817.8000;0.1538;-0.3067;
818.1000;0.1473;-0.3211;
818.4000;0.1490;-0.3187;
818.7000;0.1465;-0.3163;
819.0000;0.1514;-0.2995;
819.3000;0.1457;-0.3115;
819.6000;0.1441;-0.3187;
819.9000;0.1498;-0.2971;
820.2000;0.1481;-0.2995;
820.5000;0.1506;-0.3067;
820.8000;0.1547;-0.2947;
821.1000;0.1498;-0.3043;
821.4000;0.1587;-0.2851;
821.7000;0.1416;-0.3187;
822.0000;0.1693;-0.2420;
822.3000;0.1433;-0.3211;
822.6000;0.1530;-0.2971;
822.9000;0.1490;-0.3019;
823.2000;0.1449;-0.3115;
823.5000;0.1473;-0.3067;
823.8000;0.1490;-0.3091;
824.1000;0.1498;-0.3115;
824.4000;0.1481;-0.3211;
824.7000;0.1490;-0.3306;
825.0000;0.1449;-0.3354;
825.3000;0.1498;-0.3211;
825.6000;0.1547;-0.2971;
825.9000;0.1490;-0.3091;
826.2000;0.1522;-0.2971;
826.5000;0.1498;-0.3019;
826.8000;0.1514;-0.2995;
827.1000;0.1449;-0.3235;
827.4000;0.1490;-0.3187;
827.7000;0.1473;-0.3235;
828.0000;0.1490;-0.3235;
828.3000;0.1506;-0.3187;
828.6000;0.1498;-0.3139;
828.9000;0.1498;-0.3187;
829.2000;0.1481;-0.3211;
829.5000;0.1481;-0.3235;
829.8000;0.1481;-0.3235;
830.1000;0.1514;-0.3211;
830.4000;0.1514;-0.3211;
830.7000;0.1490;-0.3211;
831.0000;0.1481;-0.3163;
831.3000;0.1481;-0.3139;
831.6000;0.1473;-0.3139;
831.9000;0.1465;-0.3235;
832.2000;0.1490;-0.3139;
832.5000;0.1441;-0.3139;
832.8000;0.1473;-0.3091;
833.1000;0.1498;-0.2995;
833.4000;0.1473;-0.2971;
833.7000;0.1465;-0.2923;
834.0000;0.1465;-0.2827;
834.3000;0.1506;-0.2731;
834.6000;0.1457;-0.2803;
834.9000;0.1490;-0.2731;
835.2000;0.1473;-0.2827;
835.5000;0.1473;-0.2875;
835.8000;0.1473;-0.2899;
836.1000;0.1490;-0.2803;
836.4000;0.1457;-0.2971;
836.7000;0.1481;-0.2995;
837.0000;0.1481;-0.2995;
837.3000;0.1481;-0.3067;
837.6000;0.1547;-0.2899;
837.9000;0.1473;-0.3043;
838.2000;0.1490;-0.3067;
838.5000;0.1498;-0.3139;
838.8000;0.1473;-0.3211;
839.1000;0.1481;-0.3043;
839.4000;0.1498;-0.3043;
839.7000;0.1449;-0.3187;
840.0000;0.1473;-0.3091;
840.3000;0.1506;-0.3067;
840.6000;0.1465;-0.3187;
840.9000;0.1506;-0.3091;
841.2000;0.1473;-0.3187;
841.5000;0.1490;-0.3067;
841.8000;0.1473;-0.2971;
842.1000;0.1506;-0.2947;
842.4000;0.1457;-0.3091;
842.7000;0.1408;-0.3235;
843.0000;0.1481;-0.2923;
843.3000;0.1465;-0.2947;
843.6000;0.1465;-0.2899;
843.9000;0.1555;-0.2684;
844.2000;0.1481;-0.2803;
844.5000;0.1457;-0.2899;
844.8000;0.1433;-0.2971;
845.1000;0.1514;-0.2707;
845.4000;0.1400;-0.3043;
845.7000;0.1465;-0.2971;
846.0000;0.1473;-0.2971;
846.3000;0.1481;-0.2995;
846.6000;0.1465;-0.3043;
846.9000;0.1465;-0.3043;
847.2000;0.1490;-0.3115;
847.5000;0.1514;-0.3019;
847.8000;0.1465;-0.3043;
848.1000;0.1481;-0.3019;
848.4000;0.1425;-0.3283;
848.7000;0.1498;-0.3067;
849.0000;0.1425;-0.3211;
849.3000;0.1465;-0.3043;
849.6000;0.1449;-0.3067;
849.9000;0.1465;-0.2971;
850.2000;0.1490;-0.2923;
850.5000;0.1457;-0.3067;
850.8000;0.1498;-0.2995;
851.1000;0.1457;-0.3091;
851.4000;0.1473;-0.3019;
851.7000;0.1490;-0.3019;
852.0000;0.1506;-0.2947;
852.3000;0.1473;-0.2947;
852.6000;0.1473;-0.2923;
852.9000;0.1481;-0.2971;
853.2000;0.1368;-0.3330;
853.5000;0.1490;-0.2995;
853.8000;0.1490;-0.2947;
854.1000;0.1368;-0.3283;
854.4000;0.1498;-0.2923;
854.7000;0.1465;-0.3019;
855.0000;0.1449;-0.3019;
855.3000;0.1490;-0.2947;
855.6000;0.1506;-0.2923;
855.9000;0.1473;-0.3019;
856.2000;0.1490;-0.3019;
856.5000;0.1465;-0.3091;
856.8000;0.1498;-0.2995;
857.1000;0.1490;-0.2971;
857.4000;0.1473;-0.3067;
857.7000;0.1490;-0.3091;
858.0000;0.1498;-0.3067;
858.3000;0.1481;-0.3115;
858.6000;0.1490;-0.3067;
858.9000;0.1490;-0.3163;
859.2000;0.1481;-0.3163;
859.5000;0.1408;-0.3354;
859.8000;0.1490;-0.3187;
860.1000;0.1498;-0.3235;
860.4000;0.1490;-0.3187;
860.7000;0.1473;-0.3115;
861.0000;0.1481;-0.3091;
861.3000;0.1449;-0.3187;
861.6000;0.1465;-0.3091;
861.9000;0.1400;-0.3235;
862.2000;0.1490;-0.3067;
862.5000;0.1498;-0.3043;
862.8000;0.1416;-0.3306;
863.1000;0.1481;-0.3115;
863.4000;0.1490;-0.3115;
863.7000;0.1335;-0.3522;
864.0000;0.1441;-0.3235;
864.3000;0.1473;-0.3211;
864.6000;0.1498;-0.3091;
864.9000;0.1530;-0.3043;
865.2000;0.1490;-0.3187;
865.5000;0.1498;-0.3211;
865.8000;0.1465;-0.3235;
866.1000;0.1579;-0.2851;
866.4000;0.1481;-0.3091;
866.7000;0.1416;-0.3330;
867.0000;0.1473;-0.3139;
867.3000;0.1481;-0.3139;
867.6000;0.1612;-0.2827;
867.9000;0.1490;-0.3235;
868.2000;0.1465;-0.3235;
868.5000;0.1498;-0.3187;
868.8000;0.1498;-0.3115;
869.1000;0.1506;-0.3187;
869.4000;0.1498;-0.3115;
869.7000;0.1498;-0.3067;
870.0000;0.1506;-0.2923;
870.3000;0.1481;-0.3091;
870.6000;0.1473;-0.3067;
870.9000;0.1473;-0.3187;
871.2000;0.1449;-0.3115;
871.5000;0.1392;-0.3283;
871.8000;0.1506;-0.2971;
872.1000;0.1481;-0.3091;
872.4000;0.1506;-0.3115;
872.7000;0.1506;-0.3043;
873.0000;0.1481;-0.3139;
873.3000;0.1481;-0.3115;
873.6000;0.1506;-0.2995;
873.9000;0.1506;-0.2947;
874.2000;0.1498;-0.2947;
874.5000;0.1490;-0.2947;
874.8000;0.1465;-0.2923;
875.1000;0.1465;-0.2923;
875.4000;0.1490;-0.2899;
875.7000;0.1481;-0.2995;
876.0000;0.1498;-0.2947;
876.3000;0.1490;-0.2947;
876.6000;0.1498;-0.2923;
876.9000;0.1514;-0.2827;
877.2000;0.1579;-0.2707;
877.5000;0.1498;-0.2971;
877.8000;0.1490;-0.3067;
878.1000;0.1481;-0.3067;
878.4000;0.1490;-0.3091;
878.7000;0.1473;-0.3187;
879.0000;0.1514;-0.3115;
879.3000;0.1490;-0.3187;
879.6000;0.1498;-0.3139;
879.9000;0.1441;-0.3259;
880.2000;0.1498;-0.3067;
880.5000;0.1498;-0.3115;
880.8000;0.1490;-0.3187;
881.1000;0.1490;-0.3187;
881.4000;0.1481;-0.3235;
881.7000;0.1498;-0.3163;
882.0000;0.1465;-0.3211;
882.3000;0.1481;-0.3211;
882.6000;0.1481;-0.3187;
882.9000;0.1473;-0.3306;
883.2000;0.1465;-0.3283;
883.5000;0.1473;-0.3235;
883.8000;0.1481;-0.3139;
884.1000;0.1490;-0.2995;
884.4000;0.1498;-0.2947;
884.7000;0.1538;-0.2875;
885.0000;0.1481;-0.3043;
885.3000;0.1473;-0.3115;
885.6000;0.1481;-0.3115;
885.9000;0.1465;-0.3091;
886.2000;0.1490;-0.3043;
886.5000;0.1498;-0.2947;
886.8000;0.1530;-0.2779;
887.1000;0.1506;-0.2947;
887.4000;0.1498;-0.2851;
887.7000;0.1465;-0.2851;
888.0000;0.1498;-0.2731;
888.3000;0.1490;-0.2707;
888.6000;0.1465;-0.2827;
888.9000;0.1473;-0.2923;
889.2000;0.1498;-0.2875;
889.5000;0.1473;-0.2947;
889.8000;0.1465;-0.2947;
890.1000;0.1473;-0.2875;
890.4000;0.1498;-0.2851;
890.7000;0.1498;-0.2851;
891.0000;0.1490;-0.2851;
891.3000;0.1514;-0.2827;
891.6000;0.1465;-0.2971;
891.9000;0.1498;-0.2947;
892.2000;0.1473;-0.3067;
892.5000;0.1473;-0.3115;
892.8000;0.1441;-0.3211;
893.1000;0.1473;-0.3091;
893.4000;0.1498;-0.2947;
893.7000;0.1392;-0.3211;
894.0000;0.1555;-0.2851;
894.3000;0.1473;-0.3067;
894.6000;0.1506;-0.2971;
894.9000;0.1481;-0.2971;
895.2000;0.1457;-0.2995;
895.5000;0.1490;-0.2947;
895.8000;0.1408;-0.3187;
896.1000;0.1506;-0.2899;
896.4000;0.1490;-0.2947;
896.7000;0.1465;-0.3019;
897.0000;0.1498;-0.2947;
897.3000;0.1473;-0.3115;
897.6000;0.1473;-0.3187;
897.9000;0.1514;-0.3091;
898.2000;0.1498;-0.3067;
898.5000;0.1514;-0.3043;
898.8000;0.1498;-0.3043;
899.1000;0.1506;-0.2971;
899.4000;0.1490;-0.3091;
899.7000;0.1490;-0.3091;
900.0000;0.1481;-0.3091;
900.3000;0.1498;-0.2971;
900.6000;0.1498;-0.2947;
900.9000;0.1368;-0.3259;
901.2000;0.1522;-0.2995;
901.5000;0.1514;-0.3067;
901.8000;0.1481;-0.3139;
902.1000;0.1595;-0.2755;
902.4000;0.1465;-0.3091;
902.7000;0.1473;-0.3115;
903.0000;0.1481;-0.3067;
903.3000;0.1506;-0.2947;
903.6000;0.1498;-0.2947;
903.9000;0.1547;-0.2851;
904.2000;0.1481;-0.3115;
904.5000;0.1498;-0.3115;
904.8000;0.1481;-0.3187;
905.1000;0.1490;-0.3139;
905.4000;0.1416;-0.3283;
905.7000;0.1481;-0.3043;
906.0000;0.1481;-0.3067;
906.3000;0.1481;-0.3043;
906.6000;0.1490;-0.3043;
906.9000;0.1490;-0.3067;
907.2000;0.1473;-0.3235;
907.5000;0.1506;-0.3139;
907.8000;0.1514;-0.3067;
908.1000;0.1490;-0.3139;
908.4000;0.1473;-0.3187;
908.7000;0.1425;-0.3259;
909.0000;0.1490;-0.3139;
909.3000;0.1481;-0.3211;
909.6000;0.1506;-0.3091;
909.9000;0.1490;-0.3163;
910.2000;0.1498;-0.3115;
910.5000;0.1449;-0.3187;
910.8000;0.1473;-0.3019;
911.1000;0.1473;-0.3067;
911.4000;0.1490;-0.2995;
911.7000;0.1563;-0.2875;
912.0000;0.1498;-0.3067;
912.3000;0.1457;-0.3187;
912.6000;0.1490;-0.3067;
912.9000;0.1498;-0.2947;
913.2000;0.1498;-0.2971;
913.5000;0.1465;-0.3067;
913.8000;0.1498;-0.2995;
914.1000;0.1481;-0.3067;
914.4000;0.1473;-0.2971;
914.7000;0.1490;-0.3019;
915.0000;0.1351;-0.3402;
915.3000;0.1473;-0.3019;
915.6000;0.1481;-0.3043;
915.9000;0.1481;-0.3091;
916.2000;0.1498;-0.3091;
916.5000;0.1498;-0.3115;
916.8000;0.1579;-0.2995;
917.1000;0.1555;-0.2947;
917.4000;0.1498;-0.3115;
917.7000;0.1481;-0.3115;
918.0000;0.1490;-0.3115;
918.3000;0.1408;-0.3306;
918.6000;0.1457;-0.3115;
918.9000;0.1563;-0.2731;
919.2000;0.1498;-0.2923;
919.5000;0.1473;-0.2971;
919.8000;0.1449;-0.2971;
920.1000;0.1555;-0.2707;
920.4000;0.1473;-0.2947;
920.7000;0.1473;-0.2971;
921.0000;0.1481;-0.2947;
921.3000;0.1514;-0.2827;
921.6000;0.1506;-0.2827;
921.9000;0.1473;-0.2923;
922.2000;0.1522;-0.2731;
922.5000;0.1481;-0.2803;
922.8000;0.1506;-0.2779;
923.1000;0.1481;-0.2803;
923.4000;0.1465;-0.2827;
923.7000;0.1490;-0.2803;
924.0000;0.1514;-0.2779;
924.3000;0.1498;-0.2875;
924.6000;0.1490;-0.2971;
924.9000;0.1408;-0.3115;
925.2000;0.1481;-0.3019;
925.5000;0.1473;-0.3043;
925.8000;0.1490;-0.2923;
926.1000;0.1473;-0.2923;
926.4000;0.1481;-0.2875;
926.7000;0.1490;-0.2875;
927.0000;0.1465;-0.2947;
927.3000;0.1449;-0.2947;
927.6000;0.1498;-0.2899;
927.9000;0.1481;-0.2899;
928.2000;0.1473;-0.2875;
928.5000;0.1416;-0.3067;
928.8000;0.1490;-0.2851;
929.1000;0.1473;-0.2923;
929.4000;0.1473;-0.2899;
929.7000;0.1465;-0.2923;
930.0000;0.1473;-0.2851;
930.3000;0.1473;-0.2827;
930.6000;0.1538;-0.2684;
930.9000;0.1498;-0.2875;
931.2000;0.1498;-0.2899;
931.5000;0.1465;-0.3019;
931.8000;0.1425;-0.3115;
932.1000;0.1506;-0.2947;
932.4000;0.1473;-0.3043;
932.7000;0.1481;-0.2995;
933.0000;0.1473;-0.2971;
933.3000;0.1498;-0.2827;
933.6000;0.1490;-0.2827;
933.9000;0.1457;-0.2971;
934.2000;0.1498;-0.2923;
934.5000;0.1498;-0.2851;
934.8000;0.1481;-0.2947;
935.1000;0.1481;-0.2875;
935.4000;0.1481;-0.2971;
935.7000;0.1481;-0.2899;
936.0000;0.1425;-0.2995;
936.3000;0.1490;-0.2851;
936.6000;0.1465;-0.2899;
936.9000;0.1530;-0.2875;
937.2000;0.1481;-0.2923;
937.5000;0.1498;-0.2851;
937.8000;0.1416;-0.3091;
938.1000;0.1408;-0.3163;
938.4000;0.1555;-0.2827;
938.7000;0.1465;-0.3043;
939.0000;0.1473;-0.3043;
939.3000;0.1473;-0.2995;
939.6000;0.1498;-0.2875;
939.9000;0.1481;-0.2827;
940.2000;0.1490;-0.2899;
940.5000;0.1481;-0.2995;
940.8000;0.1433;-0.3091;
941.1000;0.1465;-0.3091;
941.4000;0.1490;-0.3115;
941.7000;0.1498;-0.3115;
942.0000;0.1498;-0.3067;
942.3000;0.1498;-0.3043;
942.6000;0.1490;-0.2995;
942.9000;0.1473;-0.3019;
943.2000;0.1498;-0.2875;
943.5000;0.1563;-0.2707;
943.8000;0.1490;-0.2803;
944.1000;0.1490;-0.2731;
944.4000;0.1490;-0.2779;
944.7000;0.1498;-0.2803;
945.0000;0.1506;-0.2899;
945.3000;0.1481;-0.3019;
945.6000;0.1506;-0.2923;
945.9000;0.1473;-0.2971;
946.2000;0.1490;-0.2947;
946.5000;0.1514;-0.2827;
946.8000;0.1498;-0.2947;
947.1000;0.1433;-0.3139;
947.4000;0.1490;-0.2947;
947.7000;0.1481;-0.2947;
948.0000;0.1498;-0.2779;
948.3000;0.1514;-0.2803;
948.6000;0.1538;-0.2707;
948.9000;0.1473;-0.2755;
949.2000;0.1416;-0.2851;
949.5000;0.1514;-0.2564;
949.8000;0.1490;-0.2684;
950.1000;0.1514;-0.2707;
950.4000;0.1481;-0.2851;
950.7000;0.1506;-0.2899;
951.0000;0.1498;-0.2947;
951.3000;0.1490;-0.2875;
951.6000;0.1433;-0.2995;
951.9000;0.1449;-0.2923;
952.2000;0.1465;-0.2923;
952.5000;0.1506;-0.2923;
952.8000;0.1506;-0.2971;
953.1000;0.1473;-0.2947;
953.4000;0.1506;-0.2947;
953.7000;0.1498;-0.2971;
954.0000;0.1490;-0.2995;
954.3000;0.1481;-0.3043;
954.6000;0.1408;-0.3306;
954.9000;0.1490;-0.3043;
955.2000;0.1498;-0.3019;
955.5000;0.1473;-0.3067;
955.8000;0.1449;-0.3163;
956.1000;0.1490;-0.3091;
956.4000;0.1473;-0.3091;
956.7000;0.1522;-0.3043;
957.0000;0.1465;-0.3235;
957.3000;0.1490;-0.3163;
957.6000;0.1408;-0.3330;
957.9000;0.1522;-0.3115;
958.2000;0.1490;-0.3091;
958.5000;0.1473;-0.3139;
958.8000;0.1473;-0.3139;
959.1000;0.1449;-0.3259;
959.4000;0.1473;-0.3211;
959.7000;0.1408;-0.3378;
960.0000;0.1490;-0.3139;
960.3000;0.1465;-0.3115;
960.6000;0.1457;-0.3115;
960.9000;0.1457;-0.3091;
961.2000;0.1490;-0.3139;
961.5000;0.1449;-0.3139;
961.8000;0.1490;-0.3043;
962.1000;0.1481;-0.3091;
962.4000;0.1490;-0.3019;
962.7000;0.1498;-0.2899;
963.0000;0.1433;-0.3115;
963.3000;0.1473;-0.2971;
963.6000;0.1490;-0.2923;
963.9000;0.1490;-0.2971;
964.2000;0.1498;-0.2923;
964.5000;0.1498;-0.2971;
964.8000;0.1490;-0.3019;
965.1000;0.1498;-0.2971;
965.4000;0.1547;-0.2875;
965.7000;0.1490;-0.3043;
966.0000;0.1473;-0.2947;
966.3000;0.1473;-0.2875;
966.6000;0.1490;-0.2851;
966.9000;0.1465;-0.2995;
967.2000;0.1579;-0.2755;
967.5000;0.1473;-0.2995;
967.8000;0.1449;-0.2995;
968.1000;0.1498;-0.2875;
968.4000;0.1530;-0.2684;
968.7000;0.1457;-0.2899;
969.0000;0.1481;-0.2971;
969.3000;0.1490;-0.2923;
969.6000;0.1579;-0.2684;
969.9000;0.1490;-0.2923;
970.2000;0.1473;-0.2971;
970.5000;0.1490;-0.2947;
970.8000;0.1498;-0.2923;
971.1000;0.1481;-0.2899;
971.4000;0.1481;-0.2899;
971.7000;0.1555;-0.2684;
972.0000;0.1481;-0.2779;
972.3000;0.1449;-0.2899;
972.6000;0.1514;-0.2731;
972.9000;0.1473;-0.2803;
973.2000;0.1490;-0.2827;
973.5000;0.1498;-0.2851;
973.8000;0.1465;-0.2851;
974.1000;0.1490;-0.2875;
974.4000;0.1473;-0.2947;
974.7000;0.1506;-0.2947;
975.0000;0.1449;-0.2971;
975.3000;0.1473;-0.2899;
975.6000;0.1498;-0.2803;
975.9000;0.1392;-0.3019;
976.2000;0.1481;-0.2875;
976.5000;0.1498;-0.2779;
976.8000;0.1425;-0.3019;
977.1000;0.1481;-0.2923;
977.4000;0.1457;-0.2971;
977.7000;0.1481;-0.2899;
978.0000;0.1490;-0.2875;
978.3000;0.1481;-0.2899;
978.6000;0.1481;-0.2947;
978.9000;0.1490;-0.3019;
979.2000;0.1547;-0.2827;
979.5000;0.1498;-0.2971;
979.8000;0.1473;-0.2923;
980.1000;0.1465;-0.2899;
980.4000;0.1498;-0.2899;
980.7000;0.1490;-0.2851;
981.0000;0.1490;-0.2899;
981.3000;0.1490;-0.2875;
981.6000;0.1473;-0.2899;
981.9000;0.1498;-0.2875;
982.2000;0.1481;-0.2971;
982.5000;0.1498;-0.2947;
982.8000;0.1481;-0.3067;
983.1000;0.1490;-0.3043;
983.4000;0.1506;-0.2995;
983.7000;0.1473;-0.3091;
984.0000;0.1514;-0.3019;
984.3000;0.1465;-0.3139;
984.6000;0.1538;-0.2995;
984.9000;0.1481;-0.3115;
985.2000;0.1457;-0.3163;
985.5000;0.1498;-0.3019;
985.8000;0.1473;-0.3091;
986.1000;0.1481;-0.3139;
986.4000;0.1473;-0.3139;
986.7000;0.1481;-0.3139;
987.0000;0.1481;-0.2995;
987.3000;0.1490;-0.2947;
987.6000;0.1465;-0.3067;
987.9000;0.1408;-0.3354;
988.2000;0.1481;-0.3163;
988.5000;0.1481;-0.3211;
988.8000;0.1473;-0.3187;
989.1000;0.1481;-0.3139;
989.4000;0.1498;-0.3211;
989.7000;0.1498;-0.3163;
990.0000;0.1473;-0.3139;
990.3000;0.1498;-0.3043;
990.6000;0.1465;-0.3115;
990.9000;0.1481;-0.3091;
991.2000;0.1465;-0.3187;
991.5000;0.1473;-0.3091;
991.8000;0.1481;-0.3139;
992.1000;0.1490;-0.3235;
992.4000;0.1506;-0.3259;
992.7000;0.1514;-0.3306;
993.0000;0.1595;-0.2923;
993.3000;0.1530;-0.3115;
993.6000;0.1481;-0.3354;
993.9000;0.1481;-0.3378;
994.2000;0.1449;-0.3498;
994.5000;0.1473;-0.3474;
994.8000;0.1481;-0.3474;
995.1000;0.1628;-0.3091;
995.4000;0.1498;-0.3450;
995.7000;0.1481;-0.3474;
996.0000;0.1514;-0.3283;
996.3000;0.1351;-0.3690;
996.6000;0.1490;-0.3354;
996.9000;0.1457;-0.3378;
997.2000;0.1498;-0.3354;
997.5000;0.1571;-0.3067;
997.8000;0.1481;-0.3235;
998.1000;0.1457;-0.3259;
998.4000;0.1481;-0.3163;
998.7000;0.1530;-0.3067;
999.0000;0.1481;-0.3211;
999.3000;0.1465;-0.3163;
999.6000;0.1490;-0.3139;
999.9000;0.1433;-0.3306;
1000.2000;0.1473;-0.3139;
1000.5000;0.1490;-0.3067;
1000.8000;0.1457;-0.3235;
1001.1000;0.1457;-0.3187;
1001.4000;0.1481;-0.3139;
1001.7000;0.1457;-0.3163;
1002.0000;0.1465;-0.3091;
1002.3000;0.1506;-0.3019;
1002.6000;0.1490;-0.3019;
1002.9000;0.1384;-0.3330;
1003.2000;0.1473;-0.3091;
1003.5000;0.1465;-0.3091;
1003.8000;0.1522;-0.2899;
1004.1000;0.1481;-0.3019;
1004.4000;0.1481;-0.2971;
1004.7000;0.1506;-0.2899;
1005.0000;0.1514;-0.2899;
1005.3000;0.1498;-0.2899;
1005.6000;0.1506;-0.2899;
1005.9000;0.1498;-0.2875;
1006.2000;0.1465;-0.2923;
1006.5000;0.1481;-0.2923;
1006.8000;0.1473;-0.2947;
1007.1000;0.1433;-0.3091;
1007.4000;0.1481;-0.2923;
1007.7000;0.1498;-0.2875;
1008.0000;0.1506;-0.2947;
1008.3000;0.1506;-0.2971;
1008.6000;0.1473;-0.3067;
1008.9000;0.1490;-0.2995;
1009.2000;0.1514;-0.2899;
1009.5000;0.1490;-0.2995;
1009.8000;0.1425;-0.3211;
1010.1000;0.1490;-0.3067;
1010.4000;0.1498;-0.3091;
1010.7000;0.1490;-0.3163;
1011.0000;0.1498;-0.3139;
1011.3000;0.1506;-0.3091;
1011.6000;0.1506;-0.3115;
1011.9000;0.1490;-0.3091;
1012.2000;0.1481;-0.3091;
1012.5000;0.1481;-0.3139;
1012.8000;0.1465;-0.3187;
1013.1000;0.1473;-0.3139;
1013.4000;0.1530;-0.3019;
1013.7000;0.1473;-0.3259;
1014.0000;0.1473;-0.3091;
1014.3000;0.1506;-0.3067;
1014.6000;0.1473;-0.3187;
1014.9000;0.1490;-0.3067;
1015.2000;0.1465;-0.2995;
1015.5000;0.1473;-0.3043;
1015.8000;0.1490;-0.3043;
1016.1000;0.1514;-0.2827;
1016.4000;0.1481;-0.3019;
1016.7000;0.1506;-0.2947;
1017.0000;0.1490;-0.2947;
1017.3000;0.1473;-0.2995;
1017.6000;0.1473;-0.3043;
1017.9000;0.1465;-0.3139;
1018.2000;0.1425;-0.3211;
1018.5000;0.1473;-0.3163;
1018.8000;0.1473;-0.3211;
1019.1000;0.1522;-0.3187;
1019.4000;0.1498;-0.3283;
1019.7000;0.1506;-0.3235;
1020.0000;0.1481;-0.3259;
1020.3000;0.1481;-0.3283;
1020.6000;0.1498;-0.3259;
1020.9000;0.1490;-0.3283;
1021.2000;0.1481;-0.3330;
1021.5000;0.1530;-0.3115;
1021.8000;0.1465;-0.3283;
1022.1000;0.1473;-0.3187;
1022.4000;0.1481;-0.3187;
1022.7000;0.1481;-0.3211;
1023.0000;0.1481;-0.3235;
1023.3000;0.1498;-0.3187;
1023.6000;0.1498;-0.3259;
1023.9000;0.1538;-0.3139;
1024.2000;0.1465;-0.3354;
1024.5000;0.1416;-0.3474;
1024.8000;0.1457;-0.3378;
1025.1000;0.1490;-0.3330;
1025.4000;0.1498;-0.3235;
1025.7000;0.1490;-0.3163;
1026.0000;0.1481;-0.3115;
1026.3000;0.1473;-0.3139;
1026.6000;0.1490;-0.2971;
1026.9000;0.1465;-0.2971;
1027.2000;0.1481;-0.2971;
1027.5000;0.1481;-0.3043;
1027.8000;0.1473;-0.3067;
1028.1000;0.1481;-0.3019;
1028.4000;0.1481;-0.2923;
1028.7000;0.1465;-0.3067;
1029.0000;0.1481;-0.3019;
1029.3000;0.1481;-0.3019;
1029.6000;0.1490;-0.2947;
1029.9000;0.1506;-0.2995;
1030.2000;0.1465;-0.3091;
1030.5000;0.1506;-0.3091;
1030.8000;0.1555;-0.2899;
1031.1000;0.1506;-0.3019;
1031.4000;0.1490;-0.3019;
1031.7000;0.1481;-0.3043;
1032.0000;0.1457;-0.3043;
1032.3000;0.1473;-0.3043;
1032.6000;0.1547;-0.2923;
1032.9000;0.1473;-0.3091;
1033.2000;0.1465;-0.3043;
1033.5000;0.1465;-0.3115;
1033.8000;0.1481;-0.3139;
1034.1000;0.1376;-0.3474;
1034.4000;0.1449;-0.3283;
1034.7000;0.1425;-0.3354;
1035.0000;0.1441;-0.3259;
1035.3000;0.1481;-0.3139;
1035.6000;0.1481;-0.3163;
1035.9000;0.1433;-0.3283;
1036.2000;0.1563;-0.2947;
1036.5000;0.1433;-0.3306;
1036.8000;0.1506;-0.3019;
1037.1000;0.1506;-0.3067;
1037.4000;0.1408;-0.3259;
1037.7000;0.1473;-0.3139;
1038.0000;0.1514;-0.3043;
1038.3000;0.1481;-0.3211;
1038.6000;0.1473;-0.3211;
1038.9000;0.1465;-0.3259;
1039.2000;0.1481;-0.3187;
1039.5000;0.1481;-0.3091;
1039.8000;0.1457;-0.3091;
1040.1000;0.1425;-0.3187;
1040.4000;0.1514;-0.3091;
1040.7000;0.1481;-0.3115;
1041.0000;0.1498;-0.3067;
1041.3000;0.1498;-0.3067;
1041.6000;0.1481;-0.3139;
1041.9000;0.1490;-0.3163;
1042.2000;0.1490;-0.3163;
1042.5000;0.1481;-0.3139;
1042.8000;0.1498;-0.3187;
1043.1000;0.1449;-0.3306;
1043.4000;0.1481;-0.3259;
1043.7000;0.1425;-0.3354;
1044.0000;0.1498;-0.3187;
1044.3000;0.1465;-0.3259;
1044.6000;0.1490;-0.3235;
1044.9000;0.1506;-0.3187;
1045.2000;0.1473;-0.3235;
1045.5000;0.1498;-0.3163;
1045.8000;0.1490;-0.3235;
1046.1000;0.1481;-0.3330;
1046.4000;0.1490;-0.3306;
1046.7000;0.1490;-0.3283;
1047.0000;0.1481;-0.3235;
1047.3000;0.1473;-0.3354;
1047.6000;0.1490;-0.3259;
1047.9000;0.1465;-0.3283;
1048.2000;0.1473;-0.3378;
1048.5000;0.1506;-0.3378;
1048.8000;0.1538;-0.3330;
1049.1000;0.1481;-0.3522;
1049.4000;0.1473;-0.3570;
1049.7000;0.1481;-0.3522;
1050.0000;0.1490;-0.3426;
1050.3000;0.1498;-0.3426;
1050.6000;0.1481;-0.3402;
1050.9000;0.1481;-0.3426;
1051.2000;0.1490;-0.3283;
1051.5000;0.1473;-0.3211;
1051.8000;0.1547;-0.2971;
1052.1000;0.1465;-0.3187;
1052.4000;0.1376;-0.3378;
1052.7000;0.1498;-0.3115;
1053.0000;0.1481;-0.3115;
1053.3000;0.1473;-0.3067;
1053.6000;0.1498;-0.3091;
1053.9000;0.1473;-0.3163;
1054.2000;0.1473;-0.3187;
1054.5000;0.1506;-0.3091;
1054.8000;0.1506;-0.3115;
1055.1000;0.1425;-0.3378;
1055.4000;0.1498;-0.3187;
1055.7000;0.1473;-0.3235;
1056.0000;0.1490;-0.3306;
1056.3000;0.1506;-0.3235;
1056.6000;0.1490;-0.3354;
1056.9000;0.1481;-0.3450;
1057.2000;0.1506;-0.3378;
1057.5000;0.1490;-0.3354;
1057.8000;0.1481;-0.3330;
1058.1000;0.1514;-0.3211;
1058.4000;0.1522;-0.3187;
1058.7000;0.1465;-0.3235;
1059.0000;0.1481;-0.3139;
1059.3000;0.1498;-0.3163;
1059.6000;0.1473;-0.3211;
1059.9000;0.1538;-0.3043;
1060.2000;0.1481;-0.3211;
1060.5000;0.1538;-0.3019;
1060.8000;0.1457;-0.3259;
1061.1000;0.1457;-0.3235;
1061.4000;0.1555;-0.3019;
1061.7000;0.1490;-0.3115;
1062.0000;0.1473;-0.3139;
1062.3000;0.1473;-0.3139;
1062.6000;0.1498;-0.3091;
1062.9000;0.1498;-0.3115;
1063.2000;0.1490;-0.3139;
1063.5000;0.1481;-0.3091;
1063.8000;0.1481;-0.3067;
1064.1000;0.1506;-0.3115;
1064.4000;0.1473;-0.3163;
1064.7000;0.1490;-0.3067;
1065.0000;0.1473;-0.3139;
1065.3000;0.1490;-0.3091;
1065.6000;0.1498;-0.3043;
1065.9000;0.1490;-0.3043;
1066.2000;0.1465;-0.3163;
1066.5000;0.1368;-0.3498;
1066.8000;0.1506;-0.3115;
1067.1000;0.1498;-0.3163;
1067.4000;0.1506;-0.3139;
1067.7000;0.1465;-0.3283;
1068.0000;0.1506;-0.3283;
1068.3000;0.1498;-0.3211;
1068.6000;0.1498;-0.3091;
1068.9000;0.1506;-0.2971;
1069.2000;0.1473;-0.2971;
1069.5000;0.1473;-0.3019;
1069.8000;0.1498;-0.2971;
1070.1000;0.1473;-0.3019;
1070.4000;0.1473;-0.3019;
1070.7000;0.1425;-0.3235;
1071.0000;0.1473;-0.2995;
1071.3000;0.1498;-0.2971;
1071.6000;0.1473;-0.3067;
1071.9000;0.1465;-0.3163;
1072.2000;0.1490;-0.3067;
1072.5000;0.1481;-0.3091;
1072.8000;0.1514;-0.2995;
1073.1000;0.1465;-0.3043;
1073.4000;0.1490;-0.2995;
1073.7000;0.1530;-0.2851;
1074.0000;0.1481;-0.2899;
1074.3000;0.1465;-0.2995;
1074.6000;0.1490;-0.2995;
1074.9000;0.1555;-0.2803;
1075.2000;0.1498;-0.2923;
1075.5000;0.1473;-0.3019;
1075.8000;0.1514;-0.2923;
1076.1000;0.1498;-0.2995;
1076.4000;0.1490;-0.2995;
1076.7000;0.1481;-0.3019;
1077.0000;0.1449;-0.3019;
1077.3000;0.1457;-0.3067;
1077.6000;0.1490;-0.3019;
1077.9000;0.1481;-0.3115;
1078.2000;0.1514;-0.3067;
1078.5000;0.1490;-0.3043;
1078.8000;0.1498;-0.3043;
1079.1000;0.1481;-0.3067;
1079.4000;0.1490;-0.3091;
1079.7000;0.1490;-0.3091;
1080.0000;0.1498;-0.3043;
1080.3000;0.1481;-0.3091;
1080.6000;0.1481;-0.3067;
1080.9000;0.1473;-0.3067;
1081.2000;0.1376;-0.3306;
1081.5000;0.1449;-0.3115;
1081.8000;0.1490;-0.2971;
1082.1000;0.1465;-0.2995;
1082.4000;0.1473;-0.2971;
1082.7000;0.1473;-0.2947;
1083.0000;0.1481;-0.2899;
1083.3000;0.1359;-0.3187;
1083.6000;0.1481;-0.2875;
1083.9000;0.1465;-0.3019;
1084.2000;0.1441;-0.3067;
1084.5000;0.1473;-0.2995;
1084.8000;0.1457;-0.3043;
1085.1000;0.1490;-0.3019;
1085.4000;0.1498;-0.3043;
1085.7000;0.1449;-0.3235;
1086.0000;0.1498;-0.3091;
1086.3000;0.1408;-0.3235;
1086.6000;0.1400;-0.3259;
1086.9000;0.1481;-0.3067;
1087.2000;0.1506;-0.3067;
1087.5000;0.1481;-0.3091;
1087.8000;0.1481;-0.3067;
1088.1000;0.1579;-0.2899;
1088.4000;0.1490;-0.3139;
1088.7000;0.1490;-0.3139;
1089.0000;0.1498;-0.3163;
1089.3000;0.1481;-0.3211;
1089.6000;0.1506;-0.3187;
1089.9000;0.1490;-0.3115;
1090.2000;0.1506;-0.3019;
1090.5000;0.1481;-0.2971;
1090.8000;0.1473;-0.2995;
1091.1000;0.1473;-0.3043;
1091.4000;0.1490;-0.2899;
1091.7000;0.1490;-0.2779;
1092.0000;0.1465;-0.2851;
1092.3000;0.1465;-0.2875;
1092.6000;0.1490;-0.2875;
1092.9000;0.1498;-0.2779;
1093.2000;0.1473;-0.2827;
1093.5000;0.1538;-0.2660;
1093.8000;0.1449;-0.2875;
1094.1000;0.1481;-0.2995;
1094.4000;0.1498;-0.2923;
1094.7000;0.1465;-0.3019;
1095.0000;0.1473;-0.3043;
1095.3000;0.1506;-0.2971;
1095.6000;0.1490;-0.3019;
1095.9000;0.1490;-0.3043;
1096.2000;0.1465;-0.3043;
1096.5000;0.1490;-0.3043;
1096.8000;0.1465;-0.3067;
1097.1000;0.1473;-0.2947;
1097.4000;0.1449;-0.2995;
1097.7000;0.1490;-0.2971;
1098.0000;0.1490;-0.2947;
1098.3000;0.1498;-0.2923;
1098.6000;0.1473;-0.3067;
1098.9000;0.1449;-0.3091;
1099.2000;0.1498;-0.3067;
1099.5000;0.1481;-0.3115;
1099.8000;0.1473;-0.3139;
1100.1000;0.1481;-0.3139;
1100.4000;0.1481;-0.3187;
1100.7000;0.1506;-0.3067;
1101.0000;0.1473;-0.3043;
1101.3000;0.1490;-0.2947;
1101.6000;0.1506;-0.2899;
1101.9000;0.1506;-0.2971;
1102.2000;0.1538;-0.2947;
1102.5000;0.1506;-0.3091;
1102.8000;0.1416;-0.3426;
1103.1000;0.1433;-0.3378;
1103.4000;0.1465;-0.3259;
1103.7000;0.1498;-0.3163;
1104.0000;0.1506;-0.3235;
1104.3000;0.1498;-0.3115;
1104.6000;0.1571;-0.3019;
1104.9000;0.1506;-0.3259;
1105.2000;0.1490;-0.3354;
1105.5000;0.1498;-0.3402;
1105.8000;0.1506;-0.3450;
1106.1000;0.1506;-0.3402;
1106.4000;0.1498;-0.3402;
1106.7000;0.1490;-0.3402;
1107.0000;0.1498;-0.3354;
1107.3000;0.1473;-0.3426;
1107.6000;0.1433;-0.3498;
1107.9000;0.1457;-0.3450;
1108.2000;0.1530;-0.3139;
1108.5000;0.1481;-0.3235;
1108.8000;0.1481;-0.3187;
1109.1000;0.1481;-0.3187;
1109.4000;0.1481;-0.3091;
1109.7000;0.1465;-0.3067;
1110.0000;0.1514;-0.2923;
1110.3000;0.1498;-0.2995;
1110.6000;0.1498;-0.3019;
1110.9000;0.1522;-0.2947;
1111.2000;0.1473;-0.3067;
1111.5000;0.1473;-0.3067;
1111.8000;0.1465;-0.3043;
1112.1000;0.1522;-0.2923;
1112.4000;0.1490;-0.3091;
1112.7000;0.1425;-0.3187;
1113.0000;0.1481;-0.2995;
1113.3000;0.1490;-0.3019;
1113.6000;0.1473;-0.3091;
1113.9000;0.1481;-0.3091;
1114.2000;0.1481;-0.3139;
1114.5000;0.1490;-0.3211;
1114.8000;0.1473;-0.3283;
1115.1000;0.1473;-0.3283;
1115.4000;0.1481;-0.3330;
1115.7000;0.1481;-0.3378;
1116.0000;0.1498;-0.3235;
1116.3000;0.1490;-0.3283;
1116.6000;0.1490;-0.3330;
1116.9000;0.1571;-0.3139;
1117.2000;0.1481;-0.3378;
1117.5000;0.1490;-0.3306;
1117.8000;0.1481;-0.3330;
1118.1000;0.1490;-0.3259;
1118.4000;0.1506;-0.3235;
1118.7000;0.1604;-0.2923;
1119.0000;0.1481;-0.3163;
1119.3000;0.1490;-0.3163;
1119.6000;0.1408;-0.3426;
1119.9000;0.1481;-0.3283;
1120.2000;0.1457;-0.3426;
1120.5000;0.1538;-0.3115;
1120.8000;0.1481;-0.3306;
1121.1000;0.1498;-0.3330;
1121.4000;0.1490;-0.3354;
1121.7000;0.1490;-0.3378;
1122.0000;0.1465;-0.3378;
1122.3000;0.1473;-0.3402;
1122.6000;0.1481;-0.3354;
1122.9000;0.1563;-0.3187;
1123.2000;0.1490;-0.3378;
1123.5000;0.1481;-0.3426;
1123.8000;0.1457;-0.3402;
1124.1000;0.1498;-0.3283;
1124.4000;0.1490;-0.3330;
1124.7000;0.1571;-0.3115;
1125.0000;0.1522;-0.3283;
1125.3000;0.1457;-0.3402;
1125.6000;0.1490;-0.3354;
1125.9000;0.1481;-0.3354;
1126.2000;0.1498;-0.3259;
1126.5000;0.1644;-0.2875;
1126.8000;0.1563;-0.3091;
1127.1000;0.1465;-0.3259;
1127.4000;0.1530;-0.3043;
1127.7000;0.1498;-0.3139;
1128.0000;0.1563;-0.2899;
1128.3000;0.1571;-0.2707;
1128.6000;0.1481;-0.2995;
1128.9000;0.1465;-0.3067;
1129.2000;0.1490;-0.3043;
1129.5000;0.1473;-0.3067;
1129.8000;0.1481;-0.3091;
1130.1000;0.1490;-0.2995;
1130.4000;0.1522;-0.2899;
1130.7000;0.1547;-0.2875;
1131.0000;0.1473;-0.3235;
1131.3000;0.1514;-0.3163;
1131.6000;0.1433;-0.3330;
1131.9000;0.1441;-0.3211;
1132.2000;0.1481;-0.3187;
1132.5000;0.1506;-0.2995;
1132.8000;0.1498;-0.2971;
1133.1000;0.1498;-0.2971;
1133.4000;0.1490;-0.2995;
1133.7000;0.1481;-0.3067;
1134.0000;0.1481;-0.3163;
1134.3000;0.1481;-0.3211;
1134.6000;0.1498;-0.3259;
1134.9000;0.1481;-0.3283;
1135.2000;0.1465;-0.3211;
1135.5000;0.1538;-0.3019;
1135.8000;0.1473;-0.3115;
1136.1000;0.1506;-0.3067;
1136.4000;0.1490;-0.3139;
1136.7000;0.1490;-0.3139;
1137.0000;0.1498;-0.3091;
1137.3000;0.1506;-0.3115;
1137.6000;0.1514;-0.3139;
1137.9000;0.1473;-0.3235;
1138.2000;0.1514;-0.3115;
1138.5000;0.1506;-0.3139;
1138.8000;0.1490;-0.3187;
1139.1000;0.1490;-0.3187;
1139.4000;0.1465;-0.3330;
1139.7000;0.1490;-0.3283;
1140.0000;0.1449;-0.3426;
1140.3000;0.1498;-0.3259;
1140.6000;0.1563;-0.3115;
1140.9000;0.1522;-0.3115;
1141.2000;0.1457;-0.3306;
1141.5000;0.1490;-0.3187;
1141.8000;0.1449;-0.3235;
1142.1000;0.1490;-0.3115;
1142.4000;0.1481;-0.3091;
1142.7000;0.1498;-0.3019;
1143.0000;0.1457;-0.3091;
1143.3000;0.1465;-0.3091;
1143.6000;0.1473;-0.3115;
1143.9000;0.1498;-0.3091;
1144.2000;0.1481;-0.3139;
1144.5000;0.1490;-0.3067;
1144.8000;0.1498;-0.3091;
1145.1000;0.1433;-0.3330;
1145.4000;0.1473;-0.3163;
1145.7000;0.1514;-0.3043;
1146.0000;0.1506;-0.3067;
1146.3000;0.1481;-0.3067;
1146.6000;0.1465;-0.3139;
1146.9000;0.1457;-0.3067;
1147.2000;0.1449;-0.3115;
1147.5000;0.1473;-0.3139;
1147.8000;0.1498;-0.3091;
1148.1000;0.1481;-0.3139;
1148.4000;0.1490;-0.3211;
1148.7000;0.1481;-0.3211;
1149.0000;0.1441;-0.3235;
1149.3000;0.1514;-0.3043;
1149.6000;0.1498;-0.3211;
1149.9000;0.1506;-0.3259;
1150.2000;0.1457;-0.3426;
1150.5000;0.1498;-0.3235;
1150.8000;0.1506;-0.3163;
1151.1000;0.1481;-0.3139;
1151.4000;0.1473;-0.3139;
1151.7000;0.1490;-0.3115;
1152.0000;0.1449;-0.3235;
1152.3000;0.1628;-0.2731;
1152.6000;0.1522;-0.2971;
1152.9000;0.1457;-0.3187;
1153.2000;0.1433;-0.3211;
1153.5000;0.1498;-0.3067;
1153.8000;0.1490;-0.3091;
1154.1000;0.1473;-0.3115;
1154.4000;0.1449;-0.3211;
1154.7000;0.1490;-0.3043;
1155.0000;0.1473;-0.3067;
1155.3000;0.1465;-0.3163;
1155.6000;0.1498;-0.3139;
1155.9000;0.1473;-0.3091;
1156.2000;0.1457;-0.3163;
1156.5000;0.1457;-0.3115;
1156.8000;0.1465;-0.3091;
1157.1000;0.1481;-0.2971;
1157.4000;0.1481;-0.2995;
1157.7000;0.1416;-0.3187;
1158.0000;0.1465;-0.3043;
1158.3000;0.1490;-0.3043;
1158.6000;0.1522;-0.2923;
1158.9000;0.1498;-0.2971;
1159.2000;0.1376;-0.3211;
1159.5000;0.1481;-0.2971;
1159.8000;0.1465;-0.3043;
1160.1000;0.1538;-0.2851;
1160.4000;0.1481;-0.3091;
1160.7000;0.1506;-0.3019;
1161.0000;0.1481;-0.3067;
1161.3000;0.1490;-0.3091;
1161.6000;0.1473;-0.3067;
1161.9000;0.1555;-0.2875;
1162.2000;0.1506;-0.3019;
1162.5000;0.1490;-0.3091;
1162.8000;0.1473;-0.3163;
1163.1000;0.1481;-0.3187;
1163.4000;0.1481;-0.3139;
1163.7000;0.1498;-0.3211;
1164.0000;0.1465;-0.3187;
1164.3000;0.1490;-0.3235;
1164.6000;0.1465;-0.3259;
1164.9000;0.1473;-0.3187;
1165.2000;0.1481;-0.3187;
1165.5000;0.1481;-0.3211;
1165.8000;0.1498;-0.3115;
1166.1000;0.1376;-0.3330;
1166.4000;0.1490;-0.3019;
1166.7000;0.1620;-0.2684;
1167.0000;0.1481;-0.2971;
1167.3000;0.1481;-0.2923;
1167.6000;0.1490;-0.2851;
1167.9000;0.1547;-0.2731;
1168.2000;0.1514;-0.2851;
1168.5000;0.1498;-0.2851;
1168.8000;0.1490;-0.2851;
1169.1000;0.1481;-0.2803;
1169.4000;0.1490;-0.2803;
1169.7000;0.1490;-0.2636;
1170.0000;0.1408;-0.2875;
1170.3000;0.1514;-0.2731;
1170.6000;0.1473;-0.2947;
1170.9000;0.1465;-0.3091;
1171.2000;0.1587;-0.2731;
1171.5000;0.1498;-0.2971;
1171.8000;0.1465;-0.3091;
1172.1000;0.1481;-0.3115;
1172.4000;0.1498;-0.3043;
1172.7000;0.1481;-0.3115;
1173.0000;0.1538;-0.2899;
1173.3000;0.1506;-0.2947;
1173.6000;0.1514;-0.2947;
1173.9000;0.1522;-0.2875;
1174.2000;0.1481;-0.3067;
1174.5000;0.1481;-0.3139;
1174.8000;0.1514;-0.2971;
1175.1000;0.1490;-0.3115;
1175.4000;0.1473;-0.3163;
1175.7000;0.1473;-0.3211;
1176.0000;0.1473;-0.3235;
1176.3000;0.1481;-0.3187;
1176.6000;0.1506;-0.3091;
1176.9000;0.1473;-0.3139;
1177.2000;0.1506;-0.2995;
1177.5000;0.1376;-0.3426;
1177.8000;0.1514;-0.3043;
1178.1000;0.1473;-0.3211;
1178.4000;0.1530;-0.2923;
1178.7000;0.1498;-0.2899;
1179.0000;0.1498;-0.2947;
1179.3000;0.1481;-0.2971;
1179.6000;0.1473;-0.3043;
1179.9000;0.1481;-0.2971;
1180.2000;0.1481;-0.2875;
1180.5000;0.1481;-0.2971;
1180.8000;0.1506;-0.2899;
1181.1000;0.1473;-0.2995;
1181.4000;0.1433;-0.3139;
1181.7000;0.1457;-0.3067;
1182.0000;0.1490;-0.3091;
1182.3000;0.1473;-0.3259;
1182.6000;0.1490;-0.3163;
1182.9000;0.1506;-0.2995;
1183.2000;0.1498;-0.2923;
1183.5000;0.1490;-0.3043;
1183.8000;0.1481;-0.3043;
1184.1000;0.1547;-0.2875;
1184.4000;0.1473;-0.3067;
1184.7000;0.1449;-0.3115;
1185.0000;0.1481;-0.3091;
1185.3000;0.1465;-0.3187;
1185.6000;0.1481;-0.3139;
1185.9000;0.1490;-0.3139;
1186.2000;0.1473;-0.3139;
1186.5000;0.1490;-0.3067;
1186.8000;0.1481;-0.3091;
1187.1000;0.1433;-0.3115;
1187.4000;0.1490;-0.2995;
1187.7000;0.1490;-0.3019;
1188.0000;0.1490;-0.2995;
1188.3000;0.1498;-0.2923;
1188.6000;0.1449;-0.3115;
1188.9000;0.1473;-0.3067;
1189.2000;0.1490;-0.3067;
1189.5000;0.1425;-0.3211;
1189.8000;0.1595;-0.2755;
1190.1000;0.1547;-0.2875;
1190.4000;0.1457;-0.2971;
1190.7000;0.1481;-0.2899;
1191.0000;0.1481;-0.2899;
1191.3000;0.1490;-0.2971;
1191.6000;0.1473;-0.2995;
1191.9000;0.1481;-0.3043;
1192.2000;0.1506;-0.3043;
1192.5000;0.1490;-0.3067;
1192.8000;0.1473;-0.3043;
1193.1000;0.1506;-0.2995;
1193.4000;0.1506;-0.3019;
1193.7000;0.1481;-0.3019;
1194.0000;0.1457;-0.3139;
1194.3000;0.1481;-0.3091;
1194.6000;0.1481;-0.3163;
1194.9000;0.1465;-0.3211;
1195.2000;0.1538;-0.2995;
1195.5000;0.1481;-0.3115;
1195.8000;0.1498;-0.3115;
1196.1000;0.1490;-0.3115;
1196.4000;0.1506;-0.3043;
1196.7000;0.1490;-0.3019;
1197.0000;0.1481;-0.3067;
1197.3000;0.1400;-0.3306;
1197.6000;0.1384;-0.3306;
1197.9000;0.1465;-0.3163;
1198.2000;0.1481;-0.3091;
1198.5000;0.1481;-0.3067;
1198.8000;0.1481;-0.3163;
1199.1000;0.1359;-0.3474;
1199.4000;0.1530;-0.2923;
1199.7000;0.1441;-0.3115;
1200.0000;0.1490;-0.2995;
1200.3000;0.1433;-0.3139;
1200.6000;0.1490;-0.2971;
1200.9000;0.1449;-0.3115;
1201.2000;0.1506;-0.2995;
1201.5000;0.1473;-0.3091;
1201.8000;0.1481;-0.3115;
1202.1000;0.1547;-0.2947;
1202.4000;0.1481;-0.3115;
1202.7000;0.1465;-0.3163;
1203.0000;0.1490;-0.3139;
1203.3000;0.1408;-0.3354;
1203.6000;0.1473;-0.3091;
1203.9000;0.1506;-0.3067;
1204.2000;0.1473;-0.3211;
1204.5000;0.1498;-0.3115;
1204.8000;0.1481;-0.3139;
1205.1000;0.1579;-0.2851;
1205.4000;0.1457;-0.3235;
1205.7000;0.1473;-0.3187;
1206.0000;0.1506;-0.3187;
1206.3000;0.1473;-0.3211;
1206.6000;0.1473;-0.3091;
1206.9000;0.1481;-0.3187;
1207.2000;0.1555;-0.3019;
1207.5000;0.1538;-0.3115;
1207.8000;0.1449;-0.3378;
1208.1000;0.1481;-0.3211;
1208.4000;0.1490;-0.3235;
1208.7000;0.1473;-0.3211;
1209.0000;0.1481;-0.3043;
1209.3000;0.1481;-0.3067;
1209.6000;0.1538;-0.2971;
1209.9000;0.1481;-0.3187;
1210.2000;0.1490;-0.3163;
1210.5000;0.1465;-0.3235;
1210.8000;0.1457;-0.3235;
1211.1000;0.1465;-0.3187;
1211.4000;0.1359;-0.3450;
1211.7000;0.1465;-0.3115;
1212.0000;0.1481;-0.3115;
1212.3000;0.1449;-0.3211;
1212.6000;0.1498;-0.3115;
1212.9000;0.1514;-0.3091;
1213.2000;0.1473;-0.3163;
1213.5000;0.1498;-0.3043;
1213.8000;0.1522;-0.2947;
1214.1000;0.1506;-0.2971;
1214.4000;0.1555;-0.2875;
1214.7000;0.1506;-0.3067;
1215.0000;0.1498;-0.3139;
1215.3000;0.1481;-0.3187;
1215.6000;0.1481;-0.3187;
1215.9000;0.1457;-0.3283;
1216.2000;0.1457;-0.3330;
1216.5000;0.1465;-0.3211;
1216.8000;0.1465;-0.3283;
1217.1000;0.1441;-0.3426;
1217.4000;0.1481;-0.3402;
1217.7000;0.1473;-0.3426;
1218.0000;0.1449;-0.3450;
1218.3000;0.1490;-0.3283;
1218.6000;0.1538;-0.3163;
1218.9000;0.1490;-0.3354;
1219.2000;0.1473;-0.3354;
1219.5000;0.1490;-0.3259;
1219.8000;0.1473;-0.3306;
1220.1000;0.1563;-0.3043;
1220.4000;0.1490;-0.3235;
1220.7000;0.1498;-0.3163;
1221.0000;0.1481;-0.3163;
1221.3000;0.1481;-0.3091;
1221.6000;0.1490;-0.2947;
1221.9000;0.1465;-0.3043;
1222.2000;0.1490;-0.3019;
1222.5000;0.1465;-0.3043;
1222.8000;0.1481;-0.3019;
1223.1000;0.1498;-0.2971;
1223.4000;0.1579;-0.2731;
1223.7000;0.1457;-0.3043;
1224.0000;0.1449;-0.3091;
1224.3000;0.1498;-0.3067;
1224.6000;0.1498;-0.3115;
1224.9000;0.1498;-0.3139;
1225.2000;0.1498;-0.3067;
1225.5000;0.1498;-0.3043;
1225.8000;0.1481;-0.3067;
1226.1000;0.1449;-0.3139;
1226.4000;0.1473;-0.3067;
1226.7000;0.1457;-0.3115;
1227.0000;0.1465;-0.3091;
1227.3000;0.1538;-0.2923;
1227.6000;0.1506;-0.2995;
1227.9000;0.1473;-0.3067;
1228.2000;0.1457;-0.3067;
1228.5000;0.1498;-0.2995;
1228.8000;0.1498;-0.2995;
1229.1000;0.1498;-0.3043;
1229.4000;0.1481;-0.3019;
1229.7000;0.1506;-0.2947;
1230.0000;0.1498;-0.2923;
1230.3000;0.1547;-0.2899;
1230.6000;0.1514;-0.2995;
1230.9000;0.1490;-0.3163;
1231.2000;0.1465;-0.3163;
1231.5000;0.1481;-0.3115;
1231.8000;0.1587;-0.2851;
1232.1000;0.1481;-0.3211;
1232.4000;0.1465;-0.3306;
1232.7000;0.1457;-0.3354;
1233.0000;0.1490;-0.3330;
1233.3000;0.1490;-0.3330;
1233.6000;0.1490;-0.3283;
1233.9000;0.1547;-0.2995;
1234.2000;0.1490;-0.3091;
1234.5000;0.1490;-0.3019;
1234.8000;0.1498;-0.3019;
1235.1000;0.1490;-0.3067;
1235.4000;0.1457;-0.3139;
1235.7000;0.1514;-0.3043;
1236.0000;0.1498;-0.3043;
1236.3000;0.1506;-0.3043;
1236.6000;0.1506;-0.3043;
1236.9000;0.1368;-0.3402;
1237.2000;0.1498;-0.2971;
1237.5000;0.1481;-0.3043;
1237.8000;0.1473;-0.3043;
1238.1000;0.1473;-0.3115;
1238.4000;0.1506;-0.3043;
1238.7000;0.1473;-0.3043;
1239.0000;0.1473;-0.3067;
1239.3000;0.1481;-0.3043;
1239.6000;0.1465;-0.3019;
1239.9000;0.1425;-0.3211;
1240.2000;0.1506;-0.3043;
1240.5000;0.1457;-0.3139;
1240.8000;0.1490;-0.3067;
1241.1000;0.1481;-0.3043;
1241.4000;0.1506;-0.3043;
1241.7000;0.1473;-0.3043;
1242.0000;0.1506;-0.2923;
1242.3000;0.1563;-0.2731;
1242.6000;0.1514;-0.2851;
1242.9000;0.1408;-0.3235;
1243.2000;0.1538;-0.2827;
1243.5000;0.1481;-0.3091;
1243.8000;0.1506;-0.2923;
1244.1000;0.1506;-0.2947;
1244.4000;0.1481;-0.3091;
1244.7000;0.1465;-0.3091;
1245.0000;0.1457;-0.3235;
1245.3000;0.1498;-0.3139;
1245.6000;0.1506;-0.2971;
1245.9000;0.1490;-0.2899;
1246.2000;0.1498;-0.2899;
1246.5000;0.1490;-0.2947;
1246.8000;0.1506;-0.2851;
1247.1000;0.1473;-0.2923;
1247.4000;0.1408;-0.3115;
1247.7000;0.1481;-0.2947;
1248.0000;0.1481;-0.2947;
1248.3000;0.1473;-0.2923;
1248.6000;0.1441;-0.2971;
1248.9000;0.1506;-0.2923;
1249.2000;0.1457;-0.3091;
1249.5000;0.1465;-0.3115;
1249.8000;0.1465;-0.3067;
1250.1000;0.1481;-0.2971;
1250.4000;0.1498;-0.2995;
1250.7000;0.1481;-0.3043;
1251.0000;0.1490;-0.3019;
1251.3000;0.1449;-0.3043;
1251.6000;0.1498;-0.2971;
1251.9000;0.1465;-0.3019;
1252.2000;0.1481;-0.2899;
1252.5000;0.1473;-0.2851;
1252.8000;0.1490;-0.2707;
1253.1000;0.1498;-0.2803;
1253.4000;0.1473;-0.2971;
1253.7000;0.1490;-0.2947;
1254.0000;0.1473;-0.2971;
1254.3000;0.1490;-0.2971;
1254.6000;0.1481;-0.3019;
1254.9000;0.1473;-0.3115;
1255.2000;0.1481;-0.3067;
1255.5000;0.1490;-0.3043;
1255.8000;0.1490;-0.2971;
1256.1000;0.1481;-0.2923;
1256.4000;0.1481;-0.2995;
1256.7000;0.1498;-0.2995;
1257.0000;0.1481;-0.2899;
1257.3000;0.1481;-0.3019;
1257.6000;0.1481;-0.3019;
1257.9000;0.1343;-0.3354;
1258.2000;0.1473;-0.3043;
1258.5000;0.1473;-0.3067;
1258.8000;0.1490;-0.3091;
1259.1000;0.1425;-0.3187;
1259.4000;0.1473;-0.2947;
1259.7000;0.1441;-0.2995;
1260.0000;0.1490;-0.2923;
1260.3000;0.1473;-0.2995;
1260.6000;0.1498;-0.2947;
1260.9000;0.1604;-0.2707;
1261.2000;0.1490;-0.2971;
1261.5000;0.1498;-0.2971;
1261.8000;0.1490;-0.2995;
1262.1000;0.1481;-0.3091;
1262.4000;0.1473;-0.3115;
1262.7000;0.1490;-0.3139;
1263.0000;0.1490;-0.3067;
1263.3000;0.1481;-0.3139;
1263.6000;0.1490;-0.3187;
1263.9000;0.1465;-0.3115;
1264.2000;0.1498;-0.3019;
1264.5000;0.1547;-0.2899;
1264.8000;0.1473;-0.2947;
1265.1000;0.1498;-0.2827;
1265.4000;0.1538;-0.2779;
1265.7000;0.1490;-0.3019;
1266.0000;0.1530;-0.2899;
1266.3000;0.1506;-0.3019;
1266.6000;0.1449;-0.2971;
1266.9000;0.1481;-0.2899;
1267.2000;0.1473;-0.2971;
1267.5000;0.1490;-0.3043;
1267.8000;0.1490;-0.3067;
1268.1000;0.1473;-0.3067;
1268.4000;0.1441;-0.3139;
1268.7000;0.1433;-0.3259;
1269.0000;0.1481;-0.3139;
1269.3000;0.1473;-0.3115;
1269.6000;0.1465;-0.3115;
1269.9000;0.1465;-0.3067;
1270.2000;0.1433;-0.3163;
1270.5000;0.1522;-0.2899;
1270.8000;0.1473;-0.2947;
1271.1000;0.1498;-0.2899;
1271.4000;0.1457;-0.2923;
1271.7000;0.1425;-0.2971;
1272.0000;0.1579;-0.2636;
1272.3000;0.1498;-0.2851;
1272.6000;0.1425;-0.3091;
1272.9000;0.1490;-0.3019;
1273.2000;0.1481;-0.3067;
1273.5000;0.1498;-0.3019;
1273.8000;0.1473;-0.3043;
1274.1000;0.1498;-0.3043;
1274.4000;0.1498;-0.3019;
1274.7000;0.1473;-0.3091;
1275.0000;0.1473;-0.3043;
1275.3000;0.1473;-0.3091;
1275.6000;0.1481;-0.3019;
1275.9000;0.1481;-0.3019;
1276.2000;0.1547;-0.2851;
1276.5000;0.1498;-0.3043;
1276.8000;0.1481;-0.3019;
1277.1000;0.1498;-0.2971;
1277.4000;0.1481;-0.2947;
1277.7000;0.1490;-0.2899;
1278.0000;0.1473;-0.2923;
1278.3000;0.1490;-0.2971;
1278.6000;0.1481;-0.2923;
1278.9000;0.1490;-0.2995;
1279.2000;0.1473;-0.2947;
1279.5000;0.1490;-0.2899;
1279.8000;0.1465;-0.3043;
1280.1000;0.1490;-0.3019;
1280.4000;0.1457;-0.3163;
1280.7000;0.1555;-0.2947;
1281.0000;0.1555;-0.2779;
1281.3000;0.1465;-0.3067;
1281.6000;0.1473;-0.3043;
1281.9000;0.1538;-0.2899;
1282.2000;0.1481;-0.3067;
1282.5000;0.1506;-0.2995;
1282.8000;0.1481;-0.3043;
1283.1000;0.1425;-0.3187;
1283.4000;0.1498;-0.3019;
1283.7000;0.1522;-0.3043;
1284.0000;0.1425;-0.3354;
1284.3000;0.1490;-0.3091;
1284.6000;0.1490;-0.3019;
1284.9000;0.1473;-0.3043;
1285.2000;0.1465;-0.3067;
1285.5000;0.1498;-0.3019;
1285.8000;0.1514;-0.2995;
1286.1000;0.1490;-0.2995;
1286.4000;0.1473;-0.3139;
1286.7000;0.1514;-0.3043;
1287.0000;0.1473;-0.3139;
1287.3000;0.1490;-0.3115;
1287.6000;0.1490;-0.3139;
1287.9000;0.1425;-0.3354;
1288.2000;0.1481;-0.3211;
1288.5000;0.1481;-0.3187;
1288.8000;0.1481;-0.3187;
1289.1000;0.1490;-0.3067;
1289.4000;0.1473;-0.3043;
1289.7000;0.1473;-0.2995;
1290.0000;0.1490;-0.2947;
1290.3000;0.1481;-0.3043;
1290.6000;0.1400;-0.3139;
1290.9000;0.1473;-0.2995;
1291.2000;0.1481;-0.3067;
1291.5000;0.1514;-0.3043;
1291.8000;0.1490;-0.3067;
1292.1000;0.1465;-0.3163;
1292.4000;0.1473;-0.3043;
1292.7000;0.1506;-0.3043;
1293.0000;0.1498;-0.3067;
1293.3000;0.1506;-0.2995;
1293.6000;0.1498;-0.2971;
1293.9000;0.1498;-0.2971;
1294.2000;0.1457;-0.3187;
1294.5000;0.1481;-0.3187;
1294.8000;0.1481;-0.3163;
1295.1000;0.1490;-0.3139;
1295.4000;0.1498;-0.3091;
1295.7000;0.1498;-0.3043;
1296.0000;0.1530;-0.3043;
1296.3000;0.1506;-0.3019;
1296.6000;0.1547;-0.2899;
1296.9000;0.1498;-0.3043;
1297.2000;0.1498;-0.3067;
1297.5000;0.1473;-0.3187;
1297.8000;0.1498;-0.3187;
1298.1000;0.1604;-0.2971;
1298.4000;0.1465;-0.3283;
1298.7000;0.1498;-0.3139;
1299.0000;0.1498;-0.3139;
1299.3000;0.1465;-0.3163;
1299.6000;0.1400;-0.3306;
1299.9000;0.1506;-0.3115;
1300.2000;0.1359;-0.3498;
1300.5000;0.1506;-0.3067;
1300.8000;0.1465;-0.3330;
1301.1000;0.1490;-0.3283;
1301.4000;0.1498;-0.3306;
1301.7000;0.1490;-0.3283;
1302.0000;0.1490;-0.3259;
1302.3000;0.1481;-0.3235;
1302.6000;0.1498;-0.3139;
1302.9000;0.1473;-0.3139;
1303.2000;0.1498;-0.3043;
1303.5000;0.1481;-0.3115;
1303.8000;0.1522;-0.3115;
1304.1000;0.1490;-0.3091;
1304.4000;0.1506;-0.3043;
1304.7000;0.1457;-0.3139;
1305.0000;0.1498;-0.3115;
1305.3000;0.1490;-0.3091;
1305.6000;0.1490;-0.2995;
1305.9000;0.1498;-0.3067;
1306.2000;0.1490;-0.3163;
1306.5000;0.1506;-0.3139;
1306.8000;0.1522;-0.3139;
1307.1000;0.1522;-0.3211;
1307.4000;0.1490;-0.3402;
1307.7000;0.1498;-0.3450;
1308.0000;0.1555;-0.3306;
1308.3000;0.1457;-0.3498;
1308.6000;0.1498;-0.3283;
1308.9000;0.1473;-0.3378;
1309.2000;0.1498;-0.3283;
1309.5000;0.1498;-0.3163;
1309.8000;0.1498;-0.3211;
1310.1000;0.1465;-0.3283;
1310.4000;0.1514;-0.3211;
1310.7000;0.1481;-0.3211;
1311.0000;0.1490;-0.3235;
1311.3000;0.1506;-0.3139;
1311.6000;0.1490;-0.3091;
1311.9000;0.1506;-0.3091;
1312.2000;0.1490;-0.3163;
1312.5000;0.1481;-0.3235;
1312.8000;0.1473;-0.3211;
1313.1000;0.1522;-0.3067;
1313.4000;0.1425;-0.3283;
1313.7000;0.1490;-0.3115;
1314.0000;0.1490;-0.3067;
1314.3000;0.1481;-0.3043;
1314.6000;0.1498;-0.3019;
1314.9000;0.1506;-0.3067;
1315.2000;0.1514;-0.2947;
1315.5000;0.1490;-0.2971;
1315.8000;0.1449;-0.3139;
1316.1000;0.1498;-0.2995;
1316.4000;0.1457;-0.3067;
1316.7000;0.1490;-0.3067;
1317.0000;0.1490;-0.3067;
1317.3000;0.1481;-0.3067;
1317.6000;0.1490;-0.3019;
1317.9000;0.1490;-0.3043;
1318.2000;0.1473;-0.3115;
1318.5000;0.1490;-0.2995;
1318.8000;0.1481;-0.3019;
1319.1000;0.1547;-0.2899;
1319.4000;0.1490;-0.3067;
1319.7000;0.1498;-0.3019;
1320.0000;0.1490;-0.3067;
1320.3000;0.1490;-0.3067;
1320.6000;0.1498;-0.3091;
1320.9000;0.1490;-0.3091;
1321.2000;0.1473;-0.3139;
1321.5000;0.1473;-0.3091;
1321.8000;0.1481;-0.3019;
1322.1000;0.1473;-0.3091;
1322.4000;0.1449;-0.3091;
1322.7000;0.1595;-0.2707;
1323.0000;0.1490;-0.2995;
1323.3000;0.1604;-0.2755;
1323.6000;0.1555;-0.2875;
1323.9000;0.1465;-0.3091;
1324.2000;0.1538;-0.2971;
1324.5000;0.1490;-0.2995;
1324.8000;0.1490;-0.3019;
1325.1000;0.1490;-0.3043;
1325.4000;0.1490;-0.2995;
1325.7000;0.1506;-0.2995;
1326.0000;0.1522;-0.2947;
1326.3000;0.1473;-0.3019;
1326.6000;0.1465;-0.3067;
1326.9000;0.1433;-0.3211;
1327.2000;0.1490;-0.3091;
1327.5000;0.1498;-0.3139;
1327.8000;0.1490;-0.3115;
1328.1000;0.1473;-0.3115;
1328.4000;0.1457;-0.3091;
1328.7000;0.1498;-0.3043;
1329.0000;0.1481;-0.3115;
1329.3000;0.1457;-0.3235;
1329.6000;0.1490;-0.3163;
1329.9000;0.1555;-0.3067;
1330.2000;0.1490;-0.3139;
1330.5000;0.1514;-0.3067;
1330.8000;0.1490;-0.3139;
1331.1000;0.1481;-0.3091;
1331.4000;0.1498;-0.3067;
1331.7000;0.1620;-0.2755;
1332.0000;0.1547;-0.2971;
1332.3000;0.1595;-0.2875;
1332.6000;0.1473;-0.3091;
1332.9000;0.1473;-0.3091;
1333.2000;0.1490;-0.3019;
1333.5000;0.1481;-0.2971;
1333.8000;0.1490;-0.2923;
1334.1000;0.1506;-0.2947;
1334.4000;0.1457;-0.3067;
1334.7000;0.1457;-0.3043;
1335.0000;0.1530;-0.2827;
1335.3000;0.1498;-0.2995;
1335.6000;0.1473;-0.3043;
1335.9000;0.1498;-0.2995;
1336.2000;0.1514;-0.2923;
1336.5000;0.1490;-0.2899;
1336.8000;0.1400;-0.3163;
1337.1000;0.1490;-0.2899;
1337.4000;0.1490;-0.2899;
1337.7000;0.1498;-0.2851;
1338.0000;0.1433;-0.3043;
1338.3000;0.1441;-0.2995;
1338.6000;0.1481;-0.2971;
1338.9000;0.1351;-0.3306;
1339.2000;0.1579;-0.2707;
1339.5000;0.1473;-0.2995;
1339.8000;0.1457;-0.3091;
1340.1000;0.1498;-0.2995;
1340.4000;0.1465;-0.3043;
1340.7000;0.1490;-0.3043;
1341.0000;0.1465;-0.3091;
1341.3000;0.1595;-0.2803;
1341.6000;0.1465;-0.3115;
1341.9000;0.1490;-0.3043;
1342.2000;0.1490;-0.3043;
1342.5000;0.1498;-0.3019;
1342.8000;0.1522;-0.2899;
1343.1000;0.1481;-0.2971;
1343.4000;0.1506;-0.2995;
1343.7000;0.1473;-0.3067;
1344.0000;0.1481;-0.3139;
1344.3000;0.1481;-0.3091;
1344.6000;0.1433;-0.3139;
1344.9000;0.1457;-0.3067;
1345.2000;0.1490;-0.3067;
1345.5000;0.1481;-0.3019;
1345.8000;0.1457;-0.3115;
1346.1000;0.1498;-0.2995;
1346.4000;0.1457;-0.3067;
1346.7000;0.1498;-0.2923;
1347.0000;0.1490;-0.2971;
1347.3000;0.1481;-0.3019;
1347.6000;0.1498;-0.2899;
1347.9000;0.1473;-0.2971;
1348.2000;0.1473;-0.2947;
1348.5000;0.1514;-0.2875;
1348.8000;0.1481;-0.2851;
1349.1000;0.1490;-0.2851;
1349.4000;0.1547;-0.2707;
1349.7000;0.1481;-0.2995;
1350.0000;0.1457;-0.3163;
1350.3000;0.1481;-0.3211;
1350.6000;0.1473;-0.3259;
1350.9000;0.1481;-0.3163;
1351.2000;0.1465;-0.3211;
1351.5000;0.1490;-0.3115;
1351.8000;0.1481;-0.3091;
1352.1000;0.1490;-0.3139;
1352.4000;0.1522;-0.3067;
1352.7000;0.1359;-0.3498;
1353.0000;0.1465;-0.3187;
1353.3000;0.1490;-0.3067;
1353.6000;0.1498;-0.2995;
1353.9000;0.1498;-0.2971;
1354.2000;0.1530;-0.2899;
1354.5000;0.1449;-0.3115;
1354.8000;0.1473;-0.3139;
1355.1000;0.1473;-0.3115;
1355.4000;0.1490;-0.3067;
1355.7000;0.1465;-0.3163;
1356.0000;0.1514;-0.3139;
1356.3000;0.1522;-0.3139;
1356.6000;0.1473;-0.3259;
1356.9000;0.1481;-0.3163;
1357.2000;0.1490;-0.3091;
1357.5000;0.1351;-0.3474;
1357.8000;0.1473;-0.3019;
1358.1000;0.1490;-0.3043;
1358.4000;0.1522;-0.2995;
1358.7000;0.1465;-0.2971;
1359.0000;0.1620;-0.2564;
1359.3000;0.1490;-0.2875;
1359.6000;0.1490;-0.2899;
1359.9000;0.1506;-0.2923;
1360.2000;0.1473;-0.3043;
1360.5000;0.1457;-0.3067;
1360.8000;0.1530;-0.2947;
1361.1000;0.1457;-0.3067;
1361.4000;0.1514;-0.2971;
1361.7000;0.1473;-0.3139;
1362.0000;0.1408;-0.3306;
1362.3000;0.1481;-0.3043;
1362.6000;0.1481;-0.3115;
1362.9000;0.1547;-0.2971;
1363.2000;0.1490;-0.3211;
1363.5000;0.1490;-0.3163;
1363.8000;0.1547;-0.3043;
1364.1000;0.1481;-0.3283;
1364.4000;0.1530;-0.3139;
1364.7000;0.1506;-0.3139;
1365.0000;0.1498;-0.3187;
1365.3000;0.1506;-0.3163;
1365.6000;0.1506;-0.3187;
1365.9000;0.1481;-0.3259;
1366.2000;0.1506;-0.3163;
1366.5000;0.1514;-0.3091;
1366.8000;0.1433;-0.3235;
1367.1000;0.1481;-0.3163;
1367.4000;0.1490;-0.3067;
1367.7000;0.1457;-0.3067;
1368.0000;0.1457;-0.3187;
1368.3000;0.1384;-0.3450;
1368.6000;0.1490;-0.3139;
1368.9000;0.1506;-0.3091;
1369.2000;0.1408;-0.3402;
1369.5000;0.1481;-0.3163;
1369.8000;0.1481;-0.3187;
1370.1000;0.1465;-0.3139;
1370.4000;0.1457;-0.3163;
1370.7000;0.1490;-0.3115;
1371.0000;0.1481;-0.3043;
1371.3000;0.1490;-0.2995;
1371.6000;0.1506;-0.2971;
1371.9000;0.1457;-0.2995;
1372.2000;0.1481;-0.2899;
1372.5000;0.1498;-0.2827;
1372.8000;0.1506;-0.2899;
1373.1000;0.1490;-0.2923;
1373.4000;0.1481;-0.2851;
1373.7000;0.1457;-0.2995;
1374.0000;0.1473;-0.3019;
1374.3000;0.1490;-0.3019;
1374.6000;0.1506;-0.3043;
1374.9000;0.1490;-0.3163;
1375.2000;0.1506;-0.3139;
1375.5000;0.1490;-0.3163;
1375.8000;0.1498;-0.3139;
1376.1000;0.1481;-0.3163;
1376.4000;0.1506;-0.3067;
1376.7000;0.1498;-0.3067;
1377.0000;0.1506;-0.3043;
1377.3000;0.1490;-0.3067;
1377.6000;0.1498;-0.3043;
1377.9000;0.1465;-0.3067;
1378.2000;0.1457;-0.3091;
1378.5000;0.1481;-0.3019;
1378.8000;0.1408;-0.3235;
1379.1000;0.1490;-0.2995;
1379.4000;0.1514;-0.2875;
1379.7000;0.1400;-0.3235;
1380.0000;0.1481;-0.2947;
1380.3000;0.1481;-0.2923;
1380.6000;0.1490;-0.2851;
1380.9000;0.1506;-0.2827;
1381.2000;0.1481;-0.2971;
1381.5000;0.1506;-0.2947;
1381.8000;0.1498;-0.3067;
1382.1000;0.1481;-0.3163;
1382.4000;0.1473;-0.3187;
1382.7000;0.1473;-0.3235;
1383.0000;0.1481;-0.3235;
1383.3000;0.1473;-0.3259;
1383.6000;0.1457;-0.3306;
1383.9000;0.1481;-0.3259;
1384.2000;0.1498;-0.3235;
1384.5000;0.1481;-0.3235;
1384.8000;0.1473;-0.3187;
1385.1000;0.1490;-0.3091;
1385.4000;0.1473;-0.3187;
1385.7000;0.1490;-0.3187;
1386.0000;0.1481;-0.3211;
1386.3000;0.1481;-0.3211;
1386.6000;0.1547;-0.3019;
1386.9000;0.1490;-0.3187;
1387.2000;0.1481;-0.3139;
1387.5000;0.1465;-0.3187;
1387.8000;0.1490;-0.3163;
1388.1000;0.1481;-0.3187;
1388.4000;0.1481;-0.3163;
1388.7000;0.1481;-0.3163;
1389.0000;0.1490;-0.3187;
1389.3000;0.1490;-0.3163;
1389.6000;0.1498;-0.3091;
1389.9000;0.1498;-0.3115;
1390.2000;0.1490;-0.3163;
1390.5000;0.1498;-0.3115;
1390.8000;0.1498;-0.3091;
1391.1000;0.1498;-0.3115;
1391.4000;0.1457;-0.3354;
1391.7000;0.1498;-0.3259;
1392.0000;0.1481;-0.3330;
1392.3000;0.1465;-0.3378;
1392.6000;0.1481;-0.3330;
1392.9000;0.1498;-0.3259;
1393.2000;0.1490;-0.3306;
1393.5000;0.1506;-0.3211;
1393.8000;0.1473;-0.3283;
1394.1000;0.1481;-0.3283;
1394.4000;0.1408;-0.3378;
1394.7000;0.1498;-0.3163;
1395.0000;0.1465;-0.3259;
1395.3000;0.1481;-0.3211;
1395.6000;0.1433;-0.3211;
1395.9000;0.1481;-0.3211;
1396.2000;0.1465;-0.3259;
1396.5000;0.1433;-0.3330;
1396.8000;0.1481;-0.3259;
1397.1000;0.1481;-0.3283;
1397.4000;0.1490;-0.3187;
1397.7000;0.1473;-0.3235;
1398.0000;0.1473;-0.3259;
1398.3000;0.1433;-0.3354;
1398.6000;0.1481;-0.3259;
1398.9000;0.1481;-0.3283;
1399.2000;0.1457;-0.3306;
1399.5000;0.1538;-0.3067;
1399.8000;0.1498;-0.3163;
