time/ms;Fluo/V;P700 deltaI/I x10³;
-199.8000;0.1498;-0.3043;
-199.5000;0.1392;-0.3306;
-199.2000;0.1547;-0.2899;
-198.9000;0.1498;-0.3019;
-198.6000;0.1498;-0.2971;
-198.3000;0.1498;-0.3019;
-198.0000;0.1522;-0.2947;
-197.7000;0.1506;-0.3019;
-197.4000;0.1498;-0.3067;
-197.1000;0.1514;-0.3091;
-196.8000;0.1514;-0.3091;
-196.5000;0.1530;-0.3043;
-196.2000;0.1490;-0.3139;
-195.9000;0.1506;-0.3019;
-195.6000;0.1506;-0.3043;
-195.3000;0.1514;-0.3067;
-195.0000;0.1579;-0.2971;
-194.7000;0.1506;-0.3187;
-194.4000;0.1514;-0.3139;
-194.1000;0.1530;-0.3067;
-193.8000;0.1498;-0.3067;
-193.5000;0.1522;-0.3043;
-193.2000;0.1522;-0.3091;
-192.9000;0.1498;-0.3187;
-192.6000;0.1522;-0.3163;
-192.3000;0.1506;-0.3187;
-192.0000;0.1522;-0.3115;
-191.7000;0.1538;-0.3187;
-191.4000;0.1538;-0.3187;
-191.1000;0.1522;-0.3115;
-190.8000;0.1506;-0.3019;
-190.5000;0.1530;-0.2995;
-190.2000;0.1506;-0.3043;
-189.9000;0.1522;-0.3091;
-189.6000;0.1506;-0.3139;
-189.3000;0.1530;-0.3115;
-189.0000;0.1506;-0.3139;
-188.7000;0.1514;-0.3115;
-188.4000;0.1514;-0.3139;
-188.1000;0.1547;-0.3019;
-187.8000;0.1522;-0.3067;
-187.5000;0.1530;-0.3067;
-187.2000;0.1530;-0.3019;
-186.9000;0.1514;-0.3163;
-186.6000;0.1522;-0.3187;
-186.3000;0.1522;-0.3187;
-186.0000;0.1514;-0.3139;
-185.7000;0.1514;-0.3139;
-185.4000;0.1530;-0.3091;
-185.1000;0.1563;-0.3043;
-184.8000;0.1538;-0.3139;
-184.5000;0.1384;-0.3474;
-184.2000;0.1498;-0.3043;
-183.9000;0.1506;-0.3019;
-183.6000;0.1563;-0.2899;
-183.3000;0.1506;-0.3091;
-183.0000;0.1498;-0.3091;
-182.7000;0.1522;-0.2971;
-182.4000;0.1522;-0.2923;
-182.1000;0.1522;-0.2923;
-181.8000;0.1506;-0.2971;
-181.5000;0.1514;-0.3019;
-181.2000;0.1522;-0.3019;
-180.9000;0.1522;-0.3019;
-180.6000;0.1498;-0.3019;
-180.3000;0.1506;-0.2947;
-180.0000;0.1522;-0.2779;
-179.7000;0.1522;-0.2851;
-179.4000;0.1522;-0.2899;
-179.1000;0.1522;-0.2851;
-178.8000;0.1506;-0.2851;
-178.5000;0.1465;-0.2899;
-178.2000;0.1490;-0.2947;
-177.9000;0.1498;-0.2923;
-177.6000;0.1514;-0.2875;
-177.3000;0.1530;-0.2995;
-177.0000;0.1506;-0.2995;
-176.7000;0.1522;-0.2947;
-176.4000;0.1506;-0.2875;
-176.1000;0.1506;-0.2875;
-175.8000;0.1530;-0.2851;
-175.5000;0.1514;-0.2875;
-175.2000;0.1506;-0.2803;
-174.9000;0.1514;-0.2827;
-174.6000;0.1522;-0.2947;
-174.3000;0.1522;-0.2947;
-174.0000;0.1555;-0.2875;
-173.7000;0.1514;-0.3043;
-173.4000;0.1506;-0.3115;
-173.1000;0.1620;-0.2779;
-172.8000;0.1514;-0.3019;
-172.5000;0.1498;-0.3019;
-172.2000;0.1530;-0.2971;
-171.9000;0.1433;-0.3259;
-171.6000;0.1530;-0.2947;
-171.3000;0.1498;-0.3067;
-171.0000;0.1612;-0.2803;
-170.7000;0.1530;-0.2995;
-170.4000;0.1514;-0.3067;
-170.1000;0.1522;-0.3043;
-169.8000;0.1522;-0.2995;
-169.5000;0.1514;-0.2875;
-169.2000;0.1514;-0.2875;
-168.9000;0.1506;-0.2851;
-168.6000;0.1522;-0.2827;
-168.3000;0.1506;-0.2899;
-168.0000;0.1506;-0.2971;
-167.7000;0.1522;-0.2947;
-167.4000;0.1506;-0.2995;
-167.1000;0.1530;-0.2875;
-166.8000;0.1620;-0.2588;
-166.5000;0.1514;-0.2899;
-166.2000;0.1514;-0.2875;
-165.9000;0.1547;-0.2875;
-165.6000;0.1498;-0.2851;
-165.3000;0.1522;-0.2899;
-165.0000;0.1408;-0.3211;
-164.7000;0.1530;-0.2875;
-164.4000;0.1514;-0.2899;
-164.1000;0.1514;-0.2947;
-163.8000;0.1547;-0.2827;
-163.5000;0.1506;-0.2899;
-163.2000;0.1522;-0.2923;
-162.9000;0.1522;-0.2851;
-162.6000;0.1514;-0.2875;
-162.3000;0.1473;-0.3019;
-162.0000;0.1579;-0.2684;
-161.7000;0.1514;-0.2827;
-161.4000;0.1457;-0.2875;
-161.1000;0.1514;-0.2731;
-160.8000;0.1514;-0.2875;
-160.5000;0.1522;-0.2803;
-160.2000;0.1522;-0.2779;
-159.9000;0.1457;-0.2995;
-159.6000;0.1530;-0.2779;
-159.3000;0.1522;-0.2707;
-159.0000;0.1530;-0.2636;
-158.7000;0.1514;-0.2779;
-158.4000;0.1465;-0.3091;
-158.1000;0.1530;-0.2995;
-157.8000;0.1530;-0.2899;
-157.5000;0.1506;-0.2899;
-157.2000;0.1514;-0.2875;
-156.9000;0.1530;-0.2803;
-156.6000;0.1522;-0.2803;
-156.3000;0.1514;-0.2851;
-156.0000;0.1514;-0.2899;
-155.7000;0.1506;-0.2923;
-155.4000;0.1514;-0.2971;
-155.1000;0.1457;-0.3235;
-154.8000;0.1506;-0.3091;
-154.5000;0.1498;-0.3043;
-154.2000;0.1506;-0.3091;
-153.9000;0.1538;-0.3019;
-153.6000;0.1416;-0.3450;
-153.3000;0.1506;-0.3139;
-153.0000;0.1465;-0.3235;
-152.7000;0.1514;-0.3091;
-152.4000;0.1490;-0.3139;
-152.1000;0.1506;-0.3043;
-151.8000;0.1538;-0.2923;
-151.5000;0.1571;-0.2851;
-151.2000;0.1368;-0.3426;
-150.9000;0.1465;-0.3163;
-150.6000;0.1498;-0.3043;
-150.3000;0.1506;-0.2923;
-150.0000;0.1514;-0.2899;
-149.7000;0.1571;-0.2707;
-149.4000;0.1490;-0.2923;
-149.1000;0.1547;-0.2779;
-148.8000;0.1514;-0.2851;
-148.5000;0.1538;-0.2851;
-148.2000;0.1498;-0.2971;
-147.9000;0.1506;-0.2995;
-147.6000;0.1530;-0.2971;
-147.3000;0.1506;-0.3139;
-147.0000;0.1498;-0.3043;
-146.7000;0.1522;-0.2947;
-146.4000;0.1522;-0.2923;
-146.1000;0.1514;-0.2995;
-145.8000;0.1514;-0.2971;
-145.5000;0.1506;-0.2947;
-145.2000;0.1506;-0.2947;
-144.9000;0.1555;-0.2755;
-144.6000;0.1555;-0.2684;
-144.3000;0.1514;-0.2947;
-144.0000;0.1514;-0.2947;
-143.7000;0.1514;-0.3019;
-143.4000;0.1506;-0.2971;
-143.1000;0.1498;-0.3067;
-142.8000;0.1433;-0.3259;
-142.5000;0.1514;-0.2995;
-142.2000;0.1506;-0.2899;
-141.9000;0.1506;-0.2995;
-141.6000;0.1449;-0.3115;
-141.3000;0.1457;-0.3187;
-141.0000;0.1514;-0.3043;
-140.7000;0.1555;-0.2899;
-140.4000;0.1498;-0.3043;
-140.1000;0.1522;-0.2947;
-139.8000;0.1522;-0.2971;
-139.5000;0.1481;-0.2947;
-139.2000;0.1506;-0.2923;
-138.9000;0.1522;-0.2923;
-138.6000;0.1522;-0.2947;
-138.3000;0.1457;-0.3091;
-138.0000;0.1514;-0.2995;
-137.7000;0.1514;-0.2995;
-137.4000;0.1571;-0.2851;
-137.1000;0.1530;-0.2947;
-136.8000;0.1506;-0.2995;
-136.5000;0.1506;-0.2947;
-136.2000;0.1522;-0.2947;
-135.9000;0.1587;-0.2803;
-135.6000;0.1530;-0.3043;
-135.3000;0.1506;-0.3139;
-135.0000;0.1506;-0.3067;
-134.7000;0.1481;-0.3043;
-134.4000;0.1522;-0.2995;
-134.1000;0.1538;-0.2875;
-133.8000;0.1547;-0.2899;
-133.5000;0.1522;-0.2947;
-133.2000;0.1441;-0.3187;
-132.9000;0.1522;-0.2923;
-132.6000;0.1506;-0.2923;
-132.3000;0.1498;-0.2851;
-132.0000;0.1465;-0.2947;
-131.7000;0.1506;-0.2827;
-131.4000;0.1498;-0.2779;
-131.1000;0.1514;-0.2779;
-130.8000;0.1571;-0.2684;
-130.5000;0.1514;-0.2947;
-130.2000;0.1457;-0.3211;
-129.9000;0.1514;-0.3019;
-129.6000;0.1506;-0.2971;
-129.3000;0.1612;-0.2731;
-129.0000;0.1490;-0.2995;
-128.7000;0.1506;-0.2899;
-128.4000;0.1433;-0.3187;
-128.1000;0.1693;-0.2468;
-127.8000;0.1530;-0.2947;
-127.5000;0.1514;-0.2971;
-127.2000;0.1506;-0.2947;
-126.9000;0.1530;-0.2803;
-126.6000;0.1538;-0.2755;
-126.3000;0.1498;-0.2875;
-126.0000;0.1498;-0.2875;
-125.7000;0.1522;-0.2875;
-125.4000;0.1514;-0.2971;
-125.1000;0.1530;-0.2995;
-124.8000;0.1490;-0.3067;
-124.5000;0.1530;-0.3019;
-124.2000;0.1490;-0.3115;
-123.9000;0.1530;-0.3019;
-123.6000;0.1506;-0.3091;
-123.3000;0.1498;-0.3019;
-123.0000;0.1498;-0.2947;
-122.7000;0.1530;-0.2875;
-122.4000;0.1514;-0.2899;
-122.1000;0.1547;-0.2851;
-121.8000;0.1481;-0.2995;
-121.5000;0.1506;-0.2875;
-121.2000;0.1514;-0.2851;
-120.9000;0.1530;-0.2779;
-120.6000;0.1547;-0.2779;
-120.3000;0.1514;-0.2899;
-120.0000;0.1522;-0.2923;
-119.7000;0.1514;-0.2995;
-119.4000;0.1506;-0.2995;
-119.1000;0.1522;-0.2923;
-118.8000;0.1457;-0.3115;
-118.5000;0.1481;-0.3043;
-118.2000;0.1522;-0.2971;
-117.9000;0.1522;-0.3019;
-117.6000;0.1433;-0.3211;
-117.3000;0.1538;-0.2947;
-117.0000;0.1547;-0.3091;
-116.7000;0.1530;-0.3043;
-116.4000;0.1514;-0.3163;
-116.1000;0.1506;-0.3163;
-115.8000;0.1506;-0.3091;
-115.5000;0.1522;-0.2995;
-115.2000;0.1498;-0.2947;
-114.9000;0.1612;-0.2755;
-114.6000;0.1506;-0.2971;
-114.3000;0.1555;-0.2899;
-114.0000;0.1506;-0.3043;
-113.7000;0.1490;-0.3115;
-113.4000;0.1514;-0.3067;
-113.1000;0.1490;-0.3139;
-112.8000;0.1514;-0.3091;
-112.5000;0.1514;-0.3019;
-112.2000;0.1514;-0.3091;
-111.9000;0.1514;-0.3091;
-111.6000;0.1530;-0.3091;
-111.3000;0.1571;-0.2947;
-111.0000;0.1522;-0.3163;
-110.7000;0.1530;-0.3115;
-110.4000;0.1530;-0.2995;
-110.1000;0.1538;-0.2875;
-109.8000;0.1530;-0.2875;
-109.5000;0.1514;-0.2971;
-109.2000;0.1538;-0.2947;
-108.9000;0.1530;-0.2995;
-108.6000;0.1522;-0.2947;
-108.3000;0.1481;-0.2995;
-108.0000;0.1506;-0.2971;
-107.7000;0.1506;-0.2923;
-107.4000;0.1506;-0.2899;
-107.1000;0.1522;-0.2899;
-106.8000;0.1547;-0.2803;
-106.5000;0.1514;-0.2899;
-106.2000;0.1587;-0.2755;
-105.9000;0.1506;-0.3091;
-105.6000;0.1514;-0.3067;
-105.3000;0.1571;-0.2947;
-105.0000;0.1530;-0.2971;
-104.7000;0.1498;-0.3019;
-104.4000;0.1506;-0.2971;
-104.1000;0.1563;-0.2899;
-103.8000;0.1506;-0.3043;
-103.5000;0.1538;-0.2899;
-103.2000;0.1490;-0.2851;
-102.9000;0.1538;-0.2755;
-102.6000;0.1522;-0.2875;
-102.3000;0.1498;-0.2923;
-102.0000;0.1506;-0.2947;
-101.7000;0.1506;-0.2923;
-101.4000;0.1506;-0.2971;
-101.1000;0.1506;-0.2947;
-100.8000;0.1457;-0.3043;
-100.5000;0.1522;-0.2875;
-100.2000;0.1506;-0.2971;
-99.9000;0.1530;-0.2827;
-99.6000;0.1465;-0.2995;
-99.3000;0.1522;-0.2851;
-99.0000;0.1506;-0.2899;
-98.7000;0.1530;-0.2875;
-98.4000;0.1506;-0.2947;
-98.1000;0.1538;-0.2827;
-97.8000;0.1506;-0.2947;
-97.5000;0.1498;-0.2971;
-97.2000;0.1522;-0.2947;
-96.9000;0.1514;-0.2995;
-96.6000;0.1498;-0.3019;
-96.3000;0.1522;-0.2875;
-96.0000;0.1506;-0.2899;
-95.7000;0.1514;-0.2923;
-95.4000;0.1473;-0.3067;
-95.1000;0.1490;-0.2971;
-94.8000;0.1522;-0.2851;
-94.5000;0.1506;-0.2923;
-94.2000;0.1506;-0.2995;
-93.9000;0.1514;-0.3067;
-93.6000;0.1514;-0.3067;
-93.3000;0.1473;-0.3043;
-93.0000;0.1376;-0.3259;
-92.7000;0.1441;-0.3067;
-92.4000;0.1514;-0.2947;
-92.1000;0.1538;-0.2851;
-91.8000;0.1620;-0.2636;
-91.5000;0.1522;-0.2971;
-91.2000;0.1490;-0.3043;
-90.9000;0.1522;-0.2947;
-90.6000;0.1530;-0.2923;
-90.3000;0.1457;-0.3115;
-90.0000;0.1530;-0.2971;
-89.7000;0.1522;-0.2947;
-89.4000;0.1530;-0.2995;
-89.1000;0.1498;-0.3019;
-88.8000;0.1522;-0.2923;
-88.5000;0.1522;-0.2947;
-88.2000;0.1514;-0.2995;
-87.9000;0.1522;-0.3043;
-87.6000;0.1514;-0.3091;
-87.3000;0.1514;-0.2995;
-87.0000;0.1514;-0.2971;
-86.7000;0.1506;-0.2947;
-86.4000;0.1490;-0.2995;
-86.1000;0.1465;-0.3139;
-85.8000;0.1498;-0.3067;
-85.5000;0.1490;-0.3019;
-85.2000;0.1506;-0.2971;
-84.9000;0.1490;-0.2923;
-84.6000;0.1530;-0.2875;
-84.3000;0.1530;-0.2755;
-84.0000;0.1514;-0.2851;
-83.7000;0.1522;-0.2875;
-83.4000;0.1514;-0.2899;
-83.1000;0.1522;-0.2731;
-82.8000;0.1506;-0.2755;
-82.5000;0.1514;-0.2731;
-82.2000;0.1530;-0.2731;
-81.9000;0.1498;-0.2875;
-81.6000;0.1514;-0.2851;
-81.3000;0.1530;-0.2779;
-81.0000;0.1506;-0.2827;
-80.7000;0.1506;-0.2803;
-80.4000;0.1506;-0.2803;
-80.1000;0.1498;-0.2827;
-79.8000;0.1506;-0.2803;
-79.5000;0.1522;-0.2803;
-79.2000;0.1530;-0.2827;
-78.9000;0.1514;-0.2899;
-78.6000;0.1522;-0.2827;
-78.3000;0.1514;-0.2851;
-78.0000;0.1538;-0.2875;
-77.7000;0.1506;-0.3019;
-77.4000;0.1506;-0.2971;
-77.1000;0.1514;-0.2971;
-76.8000;0.1514;-0.2971;
-76.5000;0.1530;-0.2899;
-76.2000;0.1498;-0.2923;
-75.9000;0.1514;-0.2827;
-75.6000;0.1514;-0.2875;
-75.3000;0.1555;-0.2851;
-75.0000;0.1392;-0.3235;
-74.7000;0.1514;-0.2947;
-74.4000;0.1522;-0.2899;
-74.1000;0.1490;-0.2971;
-73.8000;0.1530;-0.2875;
-73.5000;0.1506;-0.2923;
-73.2000;0.1514;-0.2947;
-72.9000;0.1530;-0.2947;
-72.6000;0.1490;-0.2923;
-72.3000;0.1490;-0.2971;
-72.0000;0.1514;-0.2947;
-71.7000;0.1506;-0.3043;
-71.4000;0.1644;-0.2612;
-71.1000;0.1514;-0.2875;
-70.8000;0.1506;-0.2947;
-70.5000;0.1490;-0.3019;
-70.2000;0.1506;-0.2995;
-69.9000;0.1490;-0.3019;
-69.6000;0.1498;-0.2971;
-69.3000;0.1547;-0.2851;
-69.0000;0.1490;-0.3019;
-68.7000;0.1457;-0.3067;
-68.4000;0.1652;-0.2588;
-68.1000;0.1547;-0.2947;
-67.8000;0.1506;-0.3091;
-67.5000;0.1506;-0.3139;
-67.2000;0.1530;-0.3067;
-66.9000;0.1522;-0.3187;
-66.6000;0.1514;-0.3211;
-66.3000;0.1595;-0.2923;
-66.0000;0.1465;-0.3235;
-65.7000;0.1506;-0.3211;
-65.4000;0.1579;-0.3043;
-65.1000;0.1522;-0.3163;
-64.8000;0.1457;-0.3306;
-64.5000;0.1514;-0.3139;
-64.2000;0.1514;-0.3067;
-63.9000;0.1514;-0.3067;
-63.6000;0.1498;-0.3067;
-63.3000;0.1514;-0.3115;
-63.0000;0.1636;-0.2827;
-62.7000;0.1530;-0.3067;
-62.4000;0.1514;-0.3139;
-62.1000;0.1506;-0.3043;
-61.8000;0.1498;-0.3139;
-61.5000;0.1522;-0.3019;
-61.2000;0.1522;-0.3019;
-60.9000;0.1498;-0.3163;
-60.6000;0.1506;-0.3139;
-60.3000;0.1522;-0.3067;
-60.0000;0.1506;-0.3115;
-59.7000;0.1506;-0.3091;
-59.4000;0.1506;-0.3067;
-59.1000;0.1506;-0.3019;
-58.8000;0.1506;-0.2995;
-58.5000;0.1514;-0.2995;
-58.2000;0.1530;-0.2899;
-57.9000;0.1522;-0.2851;
-57.6000;0.1530;-0.3019;
-57.3000;0.1530;-0.3043;
-57.0000;0.1522;-0.3091;
-56.7000;0.1514;-0.3163;
-56.4000;0.1441;-0.3378;
-56.1000;0.1522;-0.3139;
-55.8000;0.1481;-0.3187;
-55.5000;0.1506;-0.3139;
-55.2000;0.1473;-0.3115;
-54.9000;0.1547;-0.2971;
-54.6000;0.1514;-0.3067;
-54.3000;0.1481;-0.3115;
-54.0000;0.1506;-0.3091;
-53.7000;0.1498;-0.3091;
-53.4000;0.1490;-0.3091;
-53.1000;0.1506;-0.3043;
-52.8000;0.1555;-0.2803;
-52.5000;0.1506;-0.2971;
-52.2000;0.1514;-0.2899;
-51.9000;0.1522;-0.2875;
-51.6000;0.1514;-0.2923;
-51.3000;0.1498;-0.2875;
-51.0000;0.1538;-0.2947;
-50.7000;0.1514;-0.3067;
-50.4000;0.1530;-0.3043;
-50.1000;0.1465;-0.3163;
-49.8000;0.1514;-0.3043;
-49.5000;0.1457;-0.3163;
-49.2000;0.1506;-0.3115;
-48.9000;0.1473;-0.3115;
-48.6000;0.1514;-0.3019;
-48.3000;0.1571;-0.2779;
-48.0000;0.1506;-0.2875;
-47.7000;0.1522;-0.2875;
-47.4000;0.1522;-0.2827;
-47.1000;0.1506;-0.2995;
-46.8000;0.1506;-0.2971;
-46.5000;0.1571;-0.2803;
-46.2000;0.1555;-0.2851;
-45.9000;0.1522;-0.2971;
-45.6000;0.1514;-0.3019;
-45.3000;0.1595;-0.2684;
-45.0000;0.1514;-0.2803;
-44.7000;0.1514;-0.2779;
-44.4000;0.1514;-0.2827;
-44.1000;0.1555;-0.2755;
-43.8000;0.1530;-0.2875;
-43.5000;0.1547;-0.2851;
-43.2000;0.1457;-0.3139;
-42.9000;0.1498;-0.2995;
-42.6000;0.1506;-0.2995;
-42.3000;0.1514;-0.2971;
-42.0000;0.1506;-0.2875;
-41.7000;0.1522;-0.2827;
-41.4000;0.1563;-0.2731;
-41.1000;0.1538;-0.2827;
-40.8000;0.1538;-0.2827;
-40.5000;0.1530;-0.2851;
-40.2000;0.1522;-0.2947;
-39.9000;0.1514;-0.2851;
-39.6000;0.1522;-0.2779;
-39.3000;0.1506;-0.2875;
-39.0000;0.1522;-0.2899;
-38.7000;0.1506;-0.3043;
-38.4000;0.1506;-0.3091;
-38.1000;0.1514;-0.3091;
-37.8000;0.1514;-0.3043;
-37.5000;0.1506;-0.3067;
-37.2000;0.1514;-0.3043;
-36.9000;0.1481;-0.3091;
-36.6000;0.1514;-0.3019;
-36.3000;0.1506;-0.3067;
-36.0000;0.1481;-0.3115;
-35.7000;0.1522;-0.3043;
-35.4000;0.1522;-0.3043;
-35.1000;0.1506;-0.3091;
-34.8000;0.1498;-0.3115;
-34.5000;0.1514;-0.3091;
-34.2000;0.1506;-0.3115;
-33.9000;0.1530;-0.3139;
-33.6000;0.1506;-0.3187;
-33.3000;0.1530;-0.3043;
-33.0000;0.1506;-0.3115;
-32.7000;0.1506;-0.3067;
-32.4000;0.1473;-0.3187;
-32.1000;0.1506;-0.3163;
-31.8000;0.1490;-0.3067;
-31.5000;0.1506;-0.3091;
-31.2000;0.1514;-0.3091;
-30.9000;0.1498;-0.3067;
-30.6000;0.1514;-0.3019;
-30.3000;0.1514;-0.3091;
-30.0000;0.1522;-0.3067;
-29.7000;0.1506;-0.3139;
-29.4000;0.1547;-0.3043;
-29.1000;0.1514;-0.3019;
-28.8000;0.1490;-0.3115;
-28.5000;0.1498;-0.3235;
-28.2000;0.1522;-0.3211;
-27.9000;0.1506;-0.3259;
-27.6000;0.1514;-0.3187;
-27.3000;0.1506;-0.3139;
-27.0000;0.1449;-0.3330;
-26.7000;0.1514;-0.3115;
-26.4000;0.1547;-0.2947;
-26.1000;0.1506;-0.3019;
-25.8000;0.1506;-0.2971;
-25.5000;0.1547;-0.2851;
-25.2000;0.1506;-0.2947;
-24.9000;0.1514;-0.2947;
-24.6000;0.1514;-0.2995;
-24.3000;0.1522;-0.3019;
-24.0000;0.1530;-0.3091;
-23.7000;0.1498;-0.3163;
-23.4000;0.1563;-0.3139;
-23.1000;0.1514;-0.3235;
-22.8000;0.1522;-0.3187;
-22.5000;0.1571;-0.3019;
-22.2000;0.1514;-0.3187;
-21.9000;0.1522;-0.3163;
-21.6000;0.1490;-0.3211;
-21.3000;0.1530;-0.3115;
-21.0000;0.1506;-0.3139;
-20.7000;0.1514;-0.3091;
-20.4000;0.1490;-0.3067;
-20.1000;0.1498;-0.2971;
-19.8000;0.1547;-0.2947;
-19.5000;0.1506;-0.3043;
-19.2000;0.1514;-0.3067;
-18.9000;0.1563;-0.3019;
-18.6000;0.1522;-0.3139;
-18.3000;0.1506;-0.3211;
-18.0000;0.1522;-0.3163;
-17.7000;0.1481;-0.3211;
-17.4000;0.1522;-0.3139;
-17.1000;0.1547;-0.3091;
-16.8000;0.1506;-0.3139;
-16.5000;0.1514;-0.3163;
-16.2000;0.1498;-0.3235;
-15.9000;0.1498;-0.3283;
-15.6000;0.1514;-0.3283;
-15.3000;0.1522;-0.3235;
-15.0000;0.1506;-0.3306;
-14.7000;0.1522;-0.3259;
-14.4000;0.1465;-0.3354;
-14.1000;0.1522;-0.3187;
-13.8000;0.1522;-0.3115;
-13.5000;0.1522;-0.3019;
-13.2000;0.1506;-0.2995;
-12.9000;0.1514;-0.2947;
-12.6000;0.1514;-0.2923;
-12.3000;0.1522;-0.2875;
-12.0000;0.1514;-0.2851;
-11.7000;0.1514;-0.2875;
-11.4000;0.1522;-0.2851;
-11.1000;0.1563;-0.2923;
-10.8000;0.1498;-0.3115;
-10.5000;0.1457;-0.3283;
-10.2000;0.1530;-0.3115;
-9.9000;0.1522;-0.2995;
-9.6000;0.1506;-0.2995;
-9.3000;0.1506;-0.2971;
-9.0000;0.1514;-0.2995;
-8.7000;0.1514;-0.3019;
-8.4000;0.1506;-0.3091;
-8.1000;0.1522;-0.3019;
-7.8000;0.1514;-0.3043;
-7.5000;0.1498;-0.2995;
-7.2000;0.1547;-0.2947;
-6.9000;0.1538;-0.2947;
-6.6000;0.1506;-0.2995;
-6.3000;0.1522;-0.2995;
-6.0000;0.1522;-0.2947;
-5.7000;0.1514;-0.2851;
-5.4000;0.1538;-0.2731;
-5.1000;0.1490;-0.2755;
-4.8000;0.1506;-0.2684;
-4.5000;0.1514;-0.2707;
-4.2000;0.1530;-0.2779;
-3.9000;0.1514;-0.2827;
-3.6000;0.1514;-0.2803;
-3.3000;0.1522;-0.2755;
-3.0000;0.1473;-0.2875;
-2.7000;0.1587;-0.2588;
-2.4000;0.1522;-0.2731;
-2.1000;0.1604;-0.2684;
-1.8000;0.1522;-0.2947;
-1.5000;0.1481;-0.3019;
-1.2000;0.1498;-0.3115;
-0.9000;0.1530;-0.3115;
-0.6000;0.1506;-0.3187;
-0.3000;0.1514;-0.3235;
0.0000;0.1514;-0.3235;
0.3000;0.1538;-0.3330;
0.6000;0.1530;-0.3115;
0.9000;0.1473;-0.3067;
1.2000;0.1522;-0.2707;
1.5000;0.1538;-0.2348;
1.8000;0.1563;-0.2132;
2.1000;0.1579;-0.1917;
2.4000;0.1587;-0.1821;
2.7000;0.1612;-0.1653;
3.0000;0.1595;-0.1533;
3.3000;0.1620;-0.1294;
3.6000;0.1604;-0.1366;
3.9000;0.1636;-0.1222;
4.2000;0.1498;-0.1438;
4.5000;0.1587;-0.1198;
4.8000;0.1530;-0.1366;
5.1000;0.1579;-0.1198;
5.4000;0.1612;-0.1078;
5.7000;0.1595;-0.0982;
6.0000;0.1555;-0.1078;
6.3000;0.1604;-0.0958;
6.6000;0.1595;-0.0910;
6.9000;0.1579;-0.0839;
7.2000;0.1595;-0.0791;
7.5000;0.1595;-0.0815;
7.8000;0.1604;-0.0743;
8.1000;0.1620;-0.0791;
8.4000;0.1612;-0.0815;
8.7000;0.1604;-0.0863;
9.0000;0.1604;-0.0839;
9.3000;0.1620;-0.0815;
9.6000;0.1595;-0.0934;
9.9000;0.1595;-0.0958;
10.2000;0.1587;-0.1030;
10.5000;0.1661;-0.0887;
10.8000;0.1620;-0.0934;
11.1000;0.1595;-0.1030;
11.4000;0.1595;-0.1054;
11.7000;0.1563;-0.1150;
12.0000;0.1587;-0.1006;
12.3000;0.1604;-0.0934;
12.6000;0.1587;-0.1006;
12.9000;0.1612;-0.0958;
13.2000;0.1604;-0.1030;
13.5000;0.1595;-0.0982;
13.8000;0.1612;-0.1030;
14.1000;0.1595;-0.1078;
14.4000;0.1587;-0.1150;
14.7000;0.1595;-0.1150;
15.0000;0.1579;-0.1222;
15.3000;0.1579;-0.1198;
15.6000;0.1587;-0.1174;
15.9000;0.1604;-0.1102;
16.2000;0.1604;-0.1174;
16.5000;0.1595;-0.1102;
16.8000;0.1587;-0.1102;
17.1000;0.1587;-0.1054;
17.4000;0.1612;-0.1054;
17.7000;0.1612;-0.1006;
18.0000;0.1563;-0.1174;
18.3000;0.1595;-0.0958;
18.6000;0.1620;-0.0910;
18.9000;0.1595;-0.0910;
19.2000;0.1644;-0.0743;
19.5000;0.1604;-0.0815;
19.8000;0.1595;-0.0887;
20.1000;0.1587;-0.0958;
20.4000;0.1612;-0.0958;
20.7000;0.1571;-0.1030;
21.0000;0.1628;-0.0958;
21.3000;0.1604;-0.0934;
21.6000;0.1604;-0.0982;
21.9000;0.1604;-0.1102;
22.2000;0.1587;-0.1246;
22.5000;0.1595;-0.1126;
22.8000;0.1604;-0.1078;
23.1000;0.1628;-0.1006;
23.4000;0.1604;-0.1006;
23.7000;0.1620;-0.0910;
24.0000;0.1604;-0.0958;
24.3000;0.1636;-0.0839;
24.6000;0.1612;-0.0887;
24.9000;0.1604;-0.0910;
25.2000;0.1555;-0.1078;
25.5000;0.1522;-0.1102;
25.8000;0.1604;-0.0839;
26.1000;0.1555;-0.0958;
26.4000;0.1604;-0.0863;
26.7000;0.1555;-0.1054;
27.0000;0.1604;-0.1006;
27.3000;0.1595;-0.0982;
27.6000;0.1571;-0.1006;
27.9000;0.1587;-0.0934;
28.2000;0.1718;-0.0671;
28.5000;0.1595;-0.0910;
28.8000;0.1677;-0.0671;
29.1000;0.1669;-0.0671;
29.4000;0.1612;-0.0791;
29.7000;0.1595;-0.0863;
30.0000;0.1604;-0.0887;
30.3000;0.1612;-0.0934;
30.6000;0.1587;-0.1054;
30.9000;0.1612;-0.0934;
31.2000;0.1636;-0.0863;
31.5000;0.1587;-0.1030;
31.8000;0.1612;-0.0958;
32.1000;0.1612;-0.0958;
32.4000;0.1530;-0.1150;
32.7000;0.1620;-0.0934;
33.0000;0.1628;-0.0887;
33.3000;0.1612;-0.0934;
33.6000;0.1595;-0.0982;
33.9000;0.1612;-0.1126;
34.2000;0.1604;-0.1102;
34.5000;0.1612;-0.1030;
34.8000;0.1595;-0.1102;
35.1000;0.1612;-0.1078;
35.4000;0.1604;-0.1102;
35.7000;0.1628;-0.0982;
36.0000;0.1595;-0.1078;
36.3000;0.1604;-0.1102;
36.6000;0.1612;-0.1030;
36.9000;0.1595;-0.1078;
37.2000;0.1620;-0.1006;
37.5000;0.1612;-0.1078;
37.8000;0.1620;-0.1078;
38.1000;0.1661;-0.0934;
38.4000;0.1612;-0.1006;
38.7000;0.1612;-0.0958;
39.0000;0.1587;-0.0982;
39.3000;0.1604;-0.0791;
39.6000;0.1587;-0.0839;
39.9000;0.1595;-0.0839;
40.2000;0.1709;-0.0455;
40.5000;0.1628;-0.0647;
40.8000;0.1595;-0.0719;
41.1000;0.1620;-0.0695;
41.4000;0.1612;-0.0719;
41.7000;0.1604;-0.0719;
42.0000;0.1620;-0.0719;
42.3000;0.1538;-0.0934;
42.6000;0.1604;-0.0767;
42.9000;0.1595;-0.0839;
43.2000;0.1604;-0.0910;
43.5000;0.1579;-0.1030;
43.8000;0.1571;-0.1030;
44.1000;0.1587;-0.0982;
44.4000;0.1595;-0.0958;
44.7000;0.1587;-0.1054;
45.0000;0.1644;-0.0815;
45.3000;0.1612;-0.0934;
45.6000;0.1555;-0.1078;
45.9000;0.1604;-0.0910;
46.2000;0.1604;-0.0934;
46.5000;0.1538;-0.0982;
46.8000;0.1628;-0.0767;
47.1000;0.1587;-0.0958;
47.4000;0.1595;-0.0958;
47.7000;0.1587;-0.1030;
48.0000;0.1604;-0.1030;
48.3000;0.1604;-0.0958;
48.6000;0.1595;-0.0982;
48.9000;0.1579;-0.1078;
49.2000;0.1587;-0.1078;
49.5000;0.1612;-0.1102;
49.8000;0.1628;-0.1030;
50.1000;0.1669;-0.0934;
50.4000;0.1612;-0.1174;
50.7000;0.1612;-0.1150;
51.0000;0.1612;-0.1030;
51.3000;0.1587;-0.1030;
51.6000;0.1555;-0.1078;
51.9000;0.1604;-0.1030;
52.2000;0.1612;-0.1006;
52.5000;0.1595;-0.1030;
52.8000;0.1604;-0.0934;
53.1000;0.1530;-0.1222;
53.4000;0.1612;-0.1054;
53.7000;0.1604;-0.1126;
54.0000;0.1604;-0.1126;
54.3000;0.1612;-0.1078;
54.6000;0.1612;-0.1006;
54.9000;0.1587;-0.0958;
55.2000;0.1595;-0.0863;
55.5000;0.1677;-0.0695;
55.8000;0.1644;-0.0839;
56.1000;0.1555;-0.1054;
56.4000;0.1644;-0.0767;
56.7000;0.1595;-0.0887;
57.0000;0.1595;-0.0863;
57.3000;0.1612;-0.0863;
57.6000;0.1636;-0.0839;
57.9000;0.1514;-0.1174;
58.2000;0.1587;-0.0982;
58.5000;0.1661;-0.0719;
58.8000;0.1587;-0.0887;
59.1000;0.1579;-0.0910;
59.4000;0.1620;-0.0815;
59.7000;0.1644;-0.0743;
60.0000;0.1620;-0.0815;
60.3000;0.1571;-0.0982;
60.6000;0.1579;-0.1030;
60.9000;0.1612;-0.0982;
61.2000;0.1595;-0.1030;
61.5000;0.1612;-0.0982;
61.8000;0.1604;-0.0958;
62.1000;0.1604;-0.0863;
62.4000;0.1538;-0.1102;
62.7000;0.1595;-0.0863;
63.0000;0.1595;-0.0743;
63.3000;0.1563;-0.0982;
63.6000;0.1604;-0.0839;
63.9000;0.1612;-0.0887;
64.2000;0.1563;-0.0958;
64.5000;0.1563;-0.0934;
64.8000;0.1604;-0.0767;
65.1000;0.1595;-0.0767;
65.4000;0.1595;-0.0743;
65.7000;0.1604;-0.0695;
66.0000;0.1579;-0.0767;
66.3000;0.1612;-0.0623;
66.6000;0.1628;-0.0647;
66.9000;0.1595;-0.0719;
67.2000;0.1595;-0.0695;
67.5000;0.1636;-0.0647;
67.8000;0.1620;-0.0695;
68.1000;0.1587;-0.0791;
68.4000;0.1604;-0.0815;
68.7000;0.1587;-0.0839;
69.0000;0.1595;-0.0887;
69.3000;0.1587;-0.0863;
69.6000;0.1604;-0.0863;
69.9000;0.1490;-0.1198;
70.2000;0.1612;-0.0863;
70.5000;0.1612;-0.0815;
70.8000;0.1612;-0.0743;
71.1000;0.1620;-0.0767;
71.4000;0.1612;-0.0719;
71.7000;0.1685;-0.0527;
72.0000;0.1604;-0.0767;
72.3000;0.1604;-0.0743;
72.6000;0.1620;-0.0791;
72.9000;0.1587;-0.0839;
73.2000;0.1758;-0.0503;
73.5000;0.1595;-0.0910;
73.8000;0.1661;-0.0839;
74.1000;0.1595;-0.1006;
74.4000;0.1579;-0.1030;
74.7000;0.1612;-0.0863;
75.0000;0.1571;-0.0910;
75.3000;0.1620;-0.0791;
75.6000;0.1587;-0.0791;
75.9000;0.1587;-0.0719;
76.2000;0.1579;-0.0791;
76.5000;0.1595;-0.0767;
76.8000;0.1604;-0.0767;
77.1000;0.1595;-0.0863;
77.4000;0.1612;-0.0767;
77.7000;0.1612;-0.0767;
78.0000;0.1555;-0.1006;
78.3000;0.1571;-0.1078;
78.6000;0.1595;-0.1030;
78.9000;0.1595;-0.1030;
79.2000;0.1595;-0.0982;
79.5000;0.1661;-0.0839;
79.8000;0.1595;-0.1006;
80.1000;0.1563;-0.0982;
80.4000;0.1587;-0.0958;
80.7000;0.1587;-0.0910;
81.0000;0.1595;-0.0815;
81.3000;0.1579;-0.0887;
81.6000;0.1628;-0.0910;
81.9000;0.1587;-0.1030;
82.2000;0.1604;-0.0934;
82.5000;0.1587;-0.0910;
82.8000;0.1628;-0.0815;
83.1000;0.1620;-0.0910;
83.4000;0.1604;-0.0982;
83.7000;0.1604;-0.1006;
84.0000;0.1595;-0.0958;
84.3000;0.1612;-0.1030;
84.6000;0.1604;-0.1006;
84.9000;0.1587;-0.1030;
85.2000;0.1587;-0.0982;
85.5000;0.1620;-0.0982;
85.8000;0.1644;-0.0887;
86.1000;0.1604;-0.0910;
86.4000;0.1595;-0.0863;
86.7000;0.1604;-0.0839;
87.0000;0.1604;-0.0863;
87.3000;0.1652;-0.0695;
87.6000;0.1587;-0.0839;
87.9000;0.1587;-0.0863;
88.2000;0.1669;-0.0791;
88.5000;0.1604;-0.0934;
88.8000;0.1612;-0.0958;
89.1000;0.1604;-0.0982;
89.4000;0.1604;-0.0934;
89.7000;0.1620;-0.0839;
90.0000;0.1490;-0.1222;
90.3000;0.1620;-0.1006;
90.6000;0.1612;-0.0958;
90.9000;0.1612;-0.0887;
91.2000;0.1587;-0.0910;
91.5000;0.1579;-0.0767;
91.8000;0.1604;-0.0671;
92.1000;0.1612;-0.0671;
92.4000;0.1587;-0.0767;
92.7000;0.1579;-0.0863;
93.0000;0.1555;-0.0910;
93.3000;0.1587;-0.0767;
93.6000;0.1612;-0.0767;
93.9000;0.1604;-0.0815;
94.2000;0.1579;-0.0863;
94.5000;0.1604;-0.0863;
94.8000;0.1612;-0.0791;
95.1000;0.1514;-0.1102;
95.4000;0.1604;-0.0887;
95.7000;0.1579;-0.0910;
96.0000;0.1595;-0.0958;
96.3000;0.1579;-0.1006;
96.6000;0.1571;-0.0982;
96.9000;0.1465;-0.1366;
97.2000;0.1506;-0.1198;
97.5000;0.1612;-0.0839;
97.8000;0.1604;-0.0839;
98.1000;0.1612;-0.0815;
98.4000;0.1579;-0.0863;
98.7000;0.1661;-0.0671;
99.0000;0.1620;-0.0791;
99.3000;0.1579;-0.1054;
99.6000;0.1604;-0.1078;
99.9000;0.1595;-0.1102;
100.2000;0.1604;-0.1126;
100.5000;0.1595;-0.1150;
100.8000;0.1595;-0.1126;
101.1000;0.1587;-0.1174;
101.4000;0.1604;-0.1150;
101.7000;0.1571;-0.1198;
102.0000;0.1587;-0.1126;
102.3000;0.1587;-0.1006;
102.6000;0.1604;-0.0982;
102.9000;0.1571;-0.1102;
103.2000;0.1612;-0.1030;
103.5000;0.1555;-0.1150;
103.8000;0.1604;-0.0982;
104.1000;0.1563;-0.0958;
104.4000;0.1595;-0.0934;
104.7000;0.1595;-0.0958;
105.0000;0.1612;-0.0934;
105.3000;0.1595;-0.1054;
105.6000;0.1604;-0.1102;
105.9000;0.1604;-0.1054;
106.2000;0.1620;-0.0934;
106.5000;0.1579;-0.1006;
106.8000;0.1604;-0.0982;
107.1000;0.1587;-0.1054;
107.4000;0.1587;-0.1078;
107.7000;0.1530;-0.1198;
108.0000;0.1587;-0.1006;
108.3000;0.1595;-0.0982;
108.6000;0.1579;-0.0982;
108.9000;0.1595;-0.0863;
109.2000;0.1604;-0.0791;
109.5000;0.1571;-0.0839;
109.8000;0.1604;-0.0863;
110.1000;0.1571;-0.0910;
110.4000;0.1587;-0.0910;
110.7000;0.1620;-0.0887;
111.0000;0.1587;-0.0982;
111.3000;0.1636;-0.0934;
111.6000;0.1579;-0.1126;
111.9000;0.1595;-0.1102;
112.2000;0.1669;-0.0910;
112.5000;0.1587;-0.1150;
112.8000;0.1628;-0.1006;
113.1000;0.1612;-0.1030;
113.4000;0.1465;-0.1318;
113.7000;0.1620;-0.0839;
114.0000;0.1644;-0.0719;
114.3000;0.1620;-0.0767;
114.6000;0.1555;-0.0910;
114.9000;0.1652;-0.0791;
115.2000;0.1563;-0.1102;
115.5000;0.1628;-0.0910;
115.8000;0.1587;-0.0934;
116.1000;0.1595;-0.0934;
116.4000;0.1604;-0.0934;
116.7000;0.1604;-0.0958;
117.0000;0.1669;-0.0815;
117.3000;0.1595;-0.0887;
117.6000;0.1604;-0.0910;
117.9000;0.1595;-0.0982;
118.2000;0.1579;-0.1030;
118.5000;0.1571;-0.1054;
118.8000;0.1522;-0.1150;
119.1000;0.1595;-0.0958;
119.4000;0.1604;-0.0982;
119.7000;0.1522;-0.1174;
120.0000;0.1604;-0.0934;
120.3000;0.1652;-0.0863;
120.6000;0.1587;-0.0934;
120.9000;0.1563;-0.1030;
121.2000;0.1587;-0.0863;
121.5000;0.1604;-0.0839;
121.8000;0.1473;-0.1150;
122.1000;0.1530;-0.1054;
122.4000;0.1595;-0.0910;
122.7000;0.1612;-0.0767;
123.0000;0.1490;-0.1030;
123.3000;0.1669;-0.0599;
123.6000;0.1579;-0.0791;
123.9000;0.1538;-0.0887;
124.2000;0.1579;-0.0695;
124.5000;0.1612;-0.0623;
124.8000;0.1620;-0.0599;
125.1000;0.1595;-0.0623;
125.4000;0.1628;-0.0527;
125.7000;0.1604;-0.0599;
126.0000;0.1612;-0.0623;
126.3000;0.1587;-0.0671;
126.6000;0.1620;-0.0647;
126.9000;0.1595;-0.0695;
127.2000;0.1579;-0.0791;
127.5000;0.1595;-0.0791;
127.8000;0.1579;-0.0791;
128.1000;0.1604;-0.0671;
128.4000;0.1595;-0.0719;
128.7000;0.1604;-0.0743;
129.0000;0.1604;-0.0743;
129.3000;0.1604;-0.0767;
129.6000;0.1661;-0.0551;
129.9000;0.1604;-0.0647;
130.2000;0.1612;-0.0599;
130.5000;0.1579;-0.0647;
130.8000;0.1563;-0.0623;
131.1000;0.1595;-0.0647;
131.4000;0.1612;-0.0623;
131.7000;0.1587;-0.0599;
132.0000;0.1628;-0.0455;
132.3000;0.1595;-0.0623;
132.6000;0.1636;-0.0575;
132.9000;0.1571;-0.0767;
133.2000;0.1595;-0.0623;
133.5000;0.1604;-0.0623;
133.8000;0.1587;-0.0671;
134.1000;0.1563;-0.0623;
134.4000;0.1579;-0.0599;
134.7000;0.1595;-0.0551;
135.0000;0.1693;-0.0383;
135.3000;0.1579;-0.0695;
135.6000;0.1579;-0.0623;
135.9000;0.1579;-0.0695;
136.2000;0.1604;-0.0671;
136.5000;0.1579;-0.0815;
136.8000;0.1604;-0.0743;
137.1000;0.1661;-0.0551;
137.4000;0.1595;-0.0695;
137.7000;0.1571;-0.0743;
138.0000;0.1587;-0.0695;
138.3000;0.1579;-0.0695;
138.6000;0.1701;-0.0311;
138.9000;0.1612;-0.0599;
139.2000;0.1571;-0.0695;
139.5000;0.1595;-0.0671;
139.8000;0.1579;-0.0719;
140.1000;0.1628;-0.0623;
140.4000;0.1579;-0.0791;
140.7000;0.1604;-0.0767;
141.0000;0.1644;-0.0671;
141.3000;0.1595;-0.0767;
141.6000;0.1620;-0.0743;
141.9000;0.1685;-0.0551;
142.2000;0.1595;-0.0815;
142.5000;0.1595;-0.0791;
142.8000;0.1595;-0.0815;
143.1000;0.1661;-0.0695;
143.4000;0.1604;-0.0791;
143.7000;0.1636;-0.0671;
144.0000;0.1636;-0.0743;
144.3000;0.1579;-0.0982;
144.6000;0.1587;-0.0887;
144.9000;0.1587;-0.0934;
145.2000;0.1579;-0.0934;
145.5000;0.1604;-0.0887;
145.8000;0.1579;-0.0910;
146.1000;0.1579;-0.0887;
146.4000;0.1604;-0.0839;
146.7000;0.1579;-0.0982;
147.0000;0.1604;-0.1006;
147.3000;0.1595;-0.0982;
147.6000;0.1620;-0.0887;
147.9000;0.1481;-0.1150;
148.2000;0.1571;-0.0863;
148.5000;0.1604;-0.0839;
148.8000;0.1587;-0.0887;
149.1000;0.1571;-0.0863;
149.4000;0.1595;-0.0839;
149.7000;0.1571;-0.0863;
150.0000;0.1587;-0.0743;
150.3000;0.1595;-0.0695;
150.6000;0.1579;-0.0695;
150.9000;0.1595;-0.0671;
151.2000;0.1587;-0.0767;
151.5000;0.1595;-0.0647;
151.8000;0.1644;-0.0575;
152.1000;0.1628;-0.0575;
152.4000;0.1604;-0.0671;
152.7000;0.1604;-0.0791;
153.0000;0.1579;-0.0815;
153.3000;0.1571;-0.0887;
153.6000;0.1636;-0.0815;
153.9000;0.1604;-0.0910;
154.2000;0.1579;-0.0839;
154.5000;0.1522;-0.0934;
154.8000;0.1636;-0.0575;
155.1000;0.1579;-0.0671;
155.4000;0.1579;-0.0671;
155.7000;0.1652;-0.0527;
156.0000;0.1595;-0.0671;
156.3000;0.1636;-0.0479;
156.6000;0.1522;-0.0839;
156.9000;0.1595;-0.0671;
157.2000;0.1587;-0.0647;
157.5000;0.1595;-0.0671;
157.8000;0.1661;-0.0575;
158.1000;0.1514;-0.1030;
158.4000;0.1587;-0.0839;
158.7000;0.1604;-0.0791;
159.0000;0.1604;-0.0743;
159.3000;0.1652;-0.0671;
159.6000;0.1579;-0.0815;
159.9000;0.1555;-0.0863;
160.2000;0.1481;-0.0958;
160.5000;0.1620;-0.0599;
160.8000;0.1571;-0.0767;
161.1000;0.1579;-0.0695;
161.4000;0.1652;-0.0575;
161.7000;0.1612;-0.0671;
162.0000;0.1604;-0.0695;
162.3000;0.1587;-0.0791;
162.6000;0.1587;-0.0743;
162.9000;0.1595;-0.0695;
163.2000;0.1563;-0.0767;
163.5000;0.1538;-0.0791;
163.8000;0.1620;-0.0599;
164.1000;0.1587;-0.0719;
164.4000;0.1604;-0.0623;
164.7000;0.1587;-0.0671;
165.0000;0.1530;-0.0791;
165.3000;0.1587;-0.0623;
165.6000;0.1661;-0.0431;
165.9000;0.1563;-0.0695;
166.2000;0.1571;-0.0647;
166.5000;0.1579;-0.0743;
166.8000;0.1595;-0.0719;
167.1000;0.1612;-0.0767;
167.4000;0.1604;-0.0839;
167.7000;0.1595;-0.0815;
168.0000;0.1595;-0.0767;
168.3000;0.1587;-0.0767;
168.6000;0.1595;-0.0743;
168.9000;0.1587;-0.0839;
169.2000;0.1612;-0.0815;
169.5000;0.1604;-0.0719;
169.8000;0.1612;-0.0767;
170.1000;0.1604;-0.0719;
170.4000;0.1661;-0.0503;
170.7000;0.1604;-0.0599;
171.0000;0.1604;-0.0719;
171.3000;0.1555;-0.0839;
171.6000;0.1587;-0.0695;
171.9000;0.1612;-0.0647;
172.2000;0.1587;-0.0815;
172.5000;0.1571;-0.0887;
172.8000;0.1587;-0.0815;
173.1000;0.1620;-0.0719;
173.4000;0.1595;-0.0767;
173.7000;0.1595;-0.0743;
174.0000;0.1669;-0.0527;
174.3000;0.1612;-0.0599;
174.6000;0.1693;-0.0455;
174.9000;0.1595;-0.0839;
175.2000;0.1587;-0.0839;
175.5000;0.1669;-0.0743;
175.8000;0.1538;-0.0982;
176.1000;0.1620;-0.0839;
176.4000;0.1661;-0.0767;
176.7000;0.1571;-0.0934;
177.0000;0.1595;-0.0863;
177.3000;0.1571;-0.0910;
177.6000;0.1652;-0.0695;
177.9000;0.1604;-0.0815;
178.2000;0.1604;-0.0767;
178.5000;0.1587;-0.0791;
178.8000;0.1595;-0.0767;
179.1000;0.1563;-0.0791;
179.4000;0.1595;-0.0695;
179.7000;0.1595;-0.0743;
180.0000;0.1604;-0.0815;
180.3000;0.1587;-0.0791;
180.6000;0.1612;-0.0791;
180.9000;0.1612;-0.0719;
181.2000;0.1604;-0.0791;
181.5000;0.1587;-0.0791;
181.8000;0.1579;-0.0863;
182.1000;0.1555;-0.1006;
182.4000;0.1636;-0.0743;
182.7000;0.1595;-0.0767;
183.0000;0.1587;-0.0839;
183.3000;0.1587;-0.0767;
183.6000;0.1604;-0.0815;
183.9000;0.1522;-0.0934;
184.2000;0.1547;-0.0863;
184.5000;0.1595;-0.0719;
184.8000;0.1693;-0.0359;
185.1000;0.1587;-0.0695;
185.4000;0.1636;-0.0695;
185.7000;0.1595;-0.0839;
186.0000;0.1579;-0.1006;
186.3000;0.1587;-0.0982;
186.6000;0.1620;-0.0958;
186.9000;0.1595;-0.1030;
187.2000;0.1587;-0.0982;
187.5000;0.1604;-0.0887;
187.8000;0.1587;-0.0982;
188.1000;0.1571;-0.1078;
188.4000;0.1604;-0.0982;
188.7000;0.1587;-0.1006;
189.0000;0.1587;-0.0958;
189.3000;0.1612;-0.1054;
189.6000;0.1595;-0.1102;
189.9000;0.1604;-0.1054;
190.2000;0.1595;-0.1054;
190.5000;0.1587;-0.1102;
190.8000;0.1587;-0.1102;
191.1000;0.1587;-0.1030;
191.4000;0.1595;-0.1054;
191.7000;0.1595;-0.1030;
192.0000;0.1587;-0.1030;
192.3000;0.1587;-0.0982;
192.6000;0.1571;-0.1030;
192.9000;0.1595;-0.1054;
193.2000;0.1693;-0.0743;
193.5000;0.1587;-0.1006;
193.8000;0.1620;-0.0958;
194.1000;0.1587;-0.1078;
194.4000;0.1612;-0.1006;
194.7000;0.1595;-0.1126;
195.0000;0.1620;-0.1006;
195.3000;0.1587;-0.1006;
195.6000;0.1579;-0.0982;
195.9000;0.1652;-0.0839;
196.2000;0.1587;-0.1030;
196.5000;0.1595;-0.0958;
196.8000;0.1636;-0.0863;
197.1000;0.1579;-0.1030;
197.4000;0.1563;-0.1102;
197.7000;0.1661;-0.0839;
198.0000;0.1555;-0.1102;
198.3000;0.1571;-0.1054;
198.6000;0.1555;-0.1270;
198.9000;0.1604;-0.1150;
199.2000;0.1587;-0.1150;
199.5000;0.1709;-0.0839;
199.8000;0.1628;-0.1054;
200.1000;0.1612;-0.1150;
200.4000;0.1604;-0.1030;
200.7000;0.1595;-0.1030;
201.0000;0.1522;-0.1342;
201.3000;0.1612;-0.1078;
201.6000;0.1620;-0.1054;
201.9000;0.1587;-0.1126;
202.2000;0.1579;-0.1150;
202.5000;0.1587;-0.1126;
202.8000;0.1612;-0.1126;
203.1000;0.1579;-0.1150;
203.4000;0.1555;-0.1174;
203.7000;0.1579;-0.1174;
204.0000;0.1612;-0.1054;
204.3000;0.1587;-0.1054;
204.6000;0.1587;-0.1078;
204.9000;0.1563;-0.1102;
205.2000;0.1604;-0.1006;
205.5000;0.1587;-0.0887;
205.8000;0.1595;-0.0910;
206.1000;0.1595;-0.1006;
206.4000;0.1579;-0.1054;
206.7000;0.1604;-0.1054;
207.0000;0.1612;-0.1102;
207.3000;0.1595;-0.1102;
207.6000;0.1579;-0.1222;
207.9000;0.1612;-0.1150;
208.2000;0.1604;-0.1126;
208.5000;0.1587;-0.1126;
208.8000;0.1587;-0.1102;
209.1000;0.1579;-0.1078;
209.4000;0.1587;-0.1054;
209.7000;0.1579;-0.1078;
210.0000;0.1571;-0.1078;
210.3000;0.1587;-0.1102;
210.6000;0.1547;-0.1198;
210.9000;0.1555;-0.1198;
211.2000;0.1571;-0.1054;
211.5000;0.1604;-0.0982;
211.8000;0.1604;-0.1006;
212.1000;0.1661;-0.0839;
212.4000;0.1587;-0.1054;
212.7000;0.1620;-0.1006;
213.0000;0.1538;-0.1150;
213.3000;0.1636;-0.0958;
213.6000;0.1587;-0.1102;
213.9000;0.1579;-0.1126;
214.2000;0.1530;-0.1318;
214.5000;0.1620;-0.1102;
214.8000;0.1595;-0.1222;
215.1000;0.1701;-0.0910;
215.4000;0.1612;-0.1078;
215.7000;0.1612;-0.1102;
216.0000;0.1644;-0.1054;
216.3000;0.1587;-0.1198;
216.6000;0.1587;-0.1126;
216.9000;0.1604;-0.1078;
217.2000;0.1669;-0.0863;
217.5000;0.1612;-0.1030;
217.8000;0.1612;-0.1030;
218.1000;0.1571;-0.1150;
218.4000;0.1587;-0.1006;
218.7000;0.1595;-0.1102;
219.0000;0.1604;-0.1174;
219.3000;0.1587;-0.1294;
219.6000;0.1587;-0.1246;
219.9000;0.1595;-0.1198;
220.2000;0.1547;-0.1270;
220.5000;0.1587;-0.1174;
220.8000;0.1587;-0.1102;
221.1000;0.1604;-0.1078;
221.4000;0.1595;-0.1054;
221.7000;0.1604;-0.1006;
222.0000;0.1604;-0.0982;
222.3000;0.1595;-0.0934;
222.6000;0.1604;-0.0839;
222.9000;0.1498;-0.1102;
223.2000;0.1587;-0.0815;
223.5000;0.1587;-0.0839;
223.8000;0.1604;-0.0839;
224.1000;0.1579;-0.0863;
224.4000;0.1579;-0.0934;
224.7000;0.1661;-0.0695;
225.0000;0.1604;-0.0791;
225.3000;0.1579;-0.0791;
225.6000;0.1579;-0.0671;
225.9000;0.1620;-0.0671;
226.2000;0.1595;-0.0767;
226.5000;0.1579;-0.0863;
226.8000;0.1595;-0.0910;
227.1000;0.1644;-0.0815;
227.4000;0.1604;-0.1030;
227.7000;0.1571;-0.1102;
228.0000;0.1587;-0.1126;
228.3000;0.1636;-0.0958;
228.6000;0.1604;-0.1102;
228.9000;0.1595;-0.1102;
229.2000;0.1661;-0.0887;
229.5000;0.1595;-0.0982;
229.8000;0.1644;-0.0839;
230.1000;0.1457;-0.1294;
230.4000;0.1579;-0.0958;
230.7000;0.1571;-0.0982;
231.0000;0.1595;-0.0863;
231.3000;0.1465;-0.1294;
231.6000;0.1595;-0.1006;
231.9000;0.1579;-0.0982;
232.2000;0.1612;-0.0815;
232.5000;0.1563;-0.0958;
232.8000;0.1612;-0.0767;
233.1000;0.1514;-0.0887;
233.4000;0.1604;-0.0719;
233.7000;0.1628;-0.0575;
234.0000;0.1620;-0.0623;
234.3000;0.1595;-0.0695;
234.6000;0.1587;-0.0791;
234.9000;0.1587;-0.0695;
235.2000;0.1587;-0.0743;
235.5000;0.1669;-0.0479;
235.8000;0.1587;-0.0719;
236.1000;0.1652;-0.0575;
236.4000;0.1595;-0.0791;
236.7000;0.1604;-0.0791;
237.0000;0.1555;-0.0934;
237.3000;0.1587;-0.0815;
237.6000;0.1555;-0.0839;
237.9000;0.1587;-0.0839;
238.2000;0.1612;-0.0887;
238.5000;0.1587;-0.0934;
238.8000;0.1587;-0.0887;
239.1000;0.1620;-0.0791;
239.4000;0.1579;-0.0910;
239.7000;0.1604;-0.0934;
240.0000;0.1595;-0.0934;
240.3000;0.1579;-0.0887;
240.6000;0.1595;-0.0934;
240.9000;0.1595;-0.0887;
241.2000;0.1604;-0.0815;
241.5000;0.1595;-0.0767;
241.8000;0.1604;-0.0743;
242.1000;0.1595;-0.0767;
242.4000;0.1563;-0.0839;
242.7000;0.1595;-0.0791;
243.0000;0.1612;-0.0815;
243.3000;0.1579;-0.0863;
243.6000;0.1579;-0.0863;
243.9000;0.1587;-0.0863;
244.2000;0.1595;-0.0934;
244.5000;0.1555;-0.1006;
244.8000;0.1587;-0.0910;
245.1000;0.1563;-0.0982;
245.4000;0.1595;-0.0982;
245.7000;0.1587;-0.0982;
246.0000;0.1612;-0.0910;
246.3000;0.1595;-0.0887;
246.6000;0.1587;-0.0934;
246.9000;0.1628;-0.0767;
247.2000;0.1595;-0.0887;
247.5000;0.1587;-0.0815;
247.8000;0.1571;-0.0791;
248.1000;0.1604;-0.0695;
248.4000;0.1587;-0.0743;
248.7000;0.1595;-0.0743;
249.0000;0.1604;-0.0719;
249.3000;0.1628;-0.0599;
249.6000;0.1587;-0.0791;
249.9000;0.1587;-0.0815;
250.2000;0.1604;-0.0719;
250.5000;0.1595;-0.0743;
250.8000;0.1620;-0.0695;
251.1000;0.1563;-0.0815;
251.4000;0.1555;-0.0910;
251.7000;0.1612;-0.0647;
252.0000;0.1547;-0.0863;
252.3000;0.1620;-0.0695;
252.6000;0.1595;-0.0863;
252.9000;0.1604;-0.0887;
253.2000;0.1595;-0.0863;
253.5000;0.1571;-0.0887;
253.8000;0.1571;-0.0910;
254.1000;0.1604;-0.0863;
254.4000;0.1595;-0.0863;
254.7000;0.1595;-0.0815;
255.0000;0.1604;-0.0815;
255.3000;0.1620;-0.0839;
255.6000;0.1604;-0.0887;
255.9000;0.1473;-0.1318;
256.2000;0.1595;-0.0982;
256.5000;0.1587;-0.1054;
256.8000;0.1620;-0.1030;
257.1000;0.1595;-0.1078;
257.4000;0.1595;-0.1006;
257.7000;0.1709;-0.0623;
258.0000;0.1579;-0.1006;
258.3000;0.1620;-0.0910;
258.6000;0.1555;-0.1054;
258.9000;0.1604;-0.0934;
259.2000;0.1579;-0.1054;
259.5000;0.1612;-0.0934;
259.8000;0.1644;-0.0887;
260.1000;0.1579;-0.1054;
260.4000;0.1587;-0.0982;
260.7000;0.1595;-0.0958;
261.0000;0.1571;-0.1006;
261.3000;0.1587;-0.0958;
261.6000;0.1620;-0.0934;
261.9000;0.1604;-0.1030;
262.2000;0.1604;-0.1054;
262.5000;0.1579;-0.1078;
262.8000;0.1587;-0.0982;
263.1000;0.1571;-0.1054;
263.4000;0.1612;-0.0887;
263.7000;0.1571;-0.1078;
264.0000;0.1547;-0.1174;
264.3000;0.1595;-0.1102;
264.6000;0.1579;-0.1150;
264.9000;0.1595;-0.1102;
265.2000;0.1604;-0.1006;
265.5000;0.1595;-0.1078;
265.8000;0.1604;-0.1030;
266.1000;0.1669;-0.0839;
266.4000;0.1522;-0.1222;
266.7000;0.1571;-0.1150;
267.0000;0.1587;-0.1006;
267.3000;0.1595;-0.0982;
267.6000;0.1693;-0.0719;
267.9000;0.1587;-0.1054;
268.2000;0.1579;-0.1078;
268.5000;0.1604;-0.1054;
268.8000;0.1604;-0.1102;
269.1000;0.1644;-0.1054;
269.4000;0.1595;-0.1150;
269.7000;0.1595;-0.1126;
270.0000;0.1636;-0.0887;
270.3000;0.1595;-0.1030;
270.6000;0.1604;-0.1030;
270.9000;0.1693;-0.0791;
271.2000;0.1571;-0.1126;
271.5000;0.1571;-0.1126;
271.8000;0.1620;-0.0958;
272.1000;0.1612;-0.0958;
272.4000;0.1595;-0.0958;
272.7000;0.1587;-0.0934;
273.0000;0.1547;-0.1078;
273.3000;0.1579;-0.1006;
273.6000;0.1620;-0.0887;
273.9000;0.1595;-0.1078;
274.2000;0.1587;-0.1126;
274.5000;0.1604;-0.1150;
274.8000;0.1579;-0.1174;
275.1000;0.1620;-0.1078;
275.4000;0.1579;-0.1222;
275.7000;0.1595;-0.1078;
276.0000;0.1587;-0.1054;
276.3000;0.1490;-0.1390;
276.6000;0.1595;-0.1126;
276.9000;0.1620;-0.1102;
277.2000;0.1604;-0.1174;
277.5000;0.1595;-0.1246;
277.8000;0.1604;-0.1246;
278.1000;0.1579;-0.1318;
278.4000;0.1587;-0.1342;
278.7000;0.1587;-0.1366;
279.0000;0.1587;-0.1390;
279.3000;0.1595;-0.1270;
279.6000;0.1571;-0.1318;
279.9000;0.1579;-0.1246;
280.2000;0.1612;-0.1126;
280.5000;0.1579;-0.1174;
280.8000;0.1661;-0.0887;
281.1000;0.1612;-0.1078;
281.4000;0.1612;-0.1126;
281.7000;0.1718;-0.0815;
282.0000;0.1604;-0.1078;
282.3000;0.1587;-0.1102;
282.6000;0.1595;-0.1054;
282.9000;0.1587;-0.1150;
283.2000;0.1563;-0.1126;
283.5000;0.1579;-0.1150;
283.8000;0.1595;-0.1102;
284.1000;0.1604;-0.1054;
284.4000;0.1563;-0.1054;
284.7000;0.1595;-0.1006;
285.0000;0.1547;-0.1150;
285.3000;0.1595;-0.1126;
285.6000;0.1587;-0.1246;
285.9000;0.1595;-0.1246;
286.2000;0.1587;-0.1222;
286.5000;0.1604;-0.1174;
286.8000;0.1604;-0.1222;
287.1000;0.1587;-0.1126;
287.4000;0.1595;-0.1054;
287.7000;0.1587;-0.1150;
288.0000;0.1604;-0.1174;
288.3000;0.1571;-0.1126;
288.6000;0.1571;-0.1126;
288.9000;0.1604;-0.1054;
289.2000;0.1587;-0.1030;
289.5000;0.1612;-0.0934;
289.8000;0.1612;-0.0839;
290.1000;0.1563;-0.0910;
290.4000;0.1595;-0.0839;
290.7000;0.1604;-0.0863;
291.0000;0.1595;-0.0934;
291.3000;0.1579;-0.0910;
291.6000;0.1579;-0.0863;
291.9000;0.1555;-0.0887;
292.2000;0.1595;-0.0791;
292.5000;0.1595;-0.0743;
292.8000;0.1604;-0.0743;
293.1000;0.1563;-0.0815;
293.4000;0.1595;-0.0791;
293.7000;0.1563;-0.0839;
294.0000;0.1579;-0.0791;
294.3000;0.1595;-0.0719;
294.6000;0.1595;-0.0695;
294.9000;0.1604;-0.0623;
295.2000;0.1571;-0.0671;
295.5000;0.1612;-0.0623;
295.8000;0.1612;-0.0719;
296.1000;0.1571;-0.0815;
296.4000;0.1571;-0.0767;
296.7000;0.1604;-0.0815;
297.0000;0.1579;-0.0839;
297.3000;0.1612;-0.0719;
297.6000;0.1595;-0.0671;
297.9000;0.1620;-0.0575;
298.2000;0.1595;-0.0575;
298.5000;0.1587;-0.0647;
298.8000;0.1579;-0.0743;
299.1000;0.1587;-0.0719;
299.4000;0.1595;-0.0719;
299.7000;0.1612;-0.0671;
300.0000;0.1612;-0.0743;
300.3000;0.1579;-0.0887;
300.6000;0.1587;-0.0910;
300.9000;0.1587;-0.0839;
301.2000;0.1620;-0.0839;
301.5000;0.1595;-0.0910;
301.8000;0.1628;-0.0791;
302.1000;0.1595;-0.0863;
302.4000;0.1669;-0.0647;
302.7000;0.1620;-0.0815;
303.0000;0.1604;-0.0863;
303.3000;0.1620;-0.0863;
303.6000;0.1595;-0.0958;
303.9000;0.1604;-0.1006;
304.2000;0.1620;-0.0958;
304.5000;0.1595;-0.0887;
304.8000;0.1563;-0.0910;
305.1000;0.1604;-0.0839;
305.4000;0.1579;-0.0934;
305.7000;0.1595;-0.0910;
306.0000;0.1571;-0.0934;
306.3000;0.1587;-0.0863;
306.6000;0.1595;-0.0767;
306.9000;0.1587;-0.0767;
307.2000;0.1595;-0.0791;
307.5000;0.1587;-0.0887;
307.8000;0.1604;-0.0910;
308.1000;0.1604;-0.0839;
308.4000;0.1604;-0.0791;
308.7000;0.1604;-0.0767;
309.0000;0.1595;-0.0791;
309.3000;0.1571;-0.0887;
309.6000;0.1595;-0.0863;
309.9000;0.1587;-0.0815;
310.2000;0.1547;-0.0839;
310.5000;0.1604;-0.0791;
310.8000;0.1563;-0.0887;
311.1000;0.1587;-0.0791;
311.4000;0.1595;-0.0719;
311.7000;0.1604;-0.0695;
312.0000;0.1612;-0.0767;
312.3000;0.1595;-0.0839;
312.6000;0.1595;-0.0887;
312.9000;0.1595;-0.0958;
313.2000;0.1628;-0.0863;
313.5000;0.1595;-0.0982;
313.8000;0.1612;-0.0934;
314.1000;0.1677;-0.0815;
314.4000;0.1612;-0.1006;
314.7000;0.1612;-0.0910;
315.0000;0.1579;-0.1054;
315.3000;0.1595;-0.0934;
315.6000;0.1530;-0.1078;
315.9000;0.1693;-0.0575;
316.2000;0.1587;-0.0887;
316.5000;0.1595;-0.0791;
316.8000;0.1579;-0.0934;
317.1000;0.1498;-0.1102;
317.4000;0.1587;-0.0863;
317.7000;0.1587;-0.0887;
318.0000;0.1579;-0.0910;
318.3000;0.1604;-0.0791;
318.6000;0.1587;-0.0815;
318.9000;0.1595;-0.1006;
319.2000;0.1604;-0.1102;
319.5000;0.1587;-0.1102;
319.8000;0.1579;-0.1102;
320.1000;0.1587;-0.0958;
320.4000;0.1636;-0.0791;
320.7000;0.1587;-0.0863;
321.0000;0.1620;-0.0815;
321.3000;0.1677;-0.0671;
321.6000;0.1604;-0.0863;
321.9000;0.1579;-0.0863;
322.2000;0.1652;-0.0527;
322.5000;0.1604;-0.0647;
322.8000;0.1604;-0.0623;
323.1000;0.1595;-0.0719;
323.4000;0.1579;-0.0863;
323.7000;0.1587;-0.0863;
324.0000;0.1563;-0.0934;
324.3000;0.1587;-0.0887;
324.6000;0.1669;-0.0695;
324.9000;0.1595;-0.0910;
325.2000;0.1604;-0.0887;
325.5000;0.1571;-0.0958;
325.8000;0.1620;-0.0887;
326.1000;0.1579;-0.0934;
326.4000;0.1628;-0.0791;
326.7000;0.1587;-0.0863;
327.0000;0.1571;-0.0839;
327.3000;0.1587;-0.0910;
327.6000;0.1514;-0.1078;
327.9000;0.1571;-0.0887;
328.2000;0.1587;-0.0863;
328.5000;0.1555;-0.0982;
328.8000;0.1612;-0.0839;
329.1000;0.1587;-0.0863;
329.4000;0.1571;-0.0910;
329.7000;0.1644;-0.0695;
330.0000;0.1595;-0.0863;
330.3000;0.1604;-0.0743;
330.6000;0.1595;-0.0743;
330.9000;0.1595;-0.0719;
331.2000;0.1587;-0.0767;
331.5000;0.1595;-0.0815;
331.8000;0.1563;-0.0863;
332.1000;0.1587;-0.0743;
332.4000;0.1587;-0.0791;
332.7000;0.1530;-0.0910;
333.0000;0.1587;-0.0719;
333.3000;0.1563;-0.0767;
333.6000;0.1579;-0.0647;
333.9000;0.1604;-0.0695;
334.2000;0.1595;-0.0743;
334.5000;0.1595;-0.0791;
334.8000;0.1595;-0.0863;
335.1000;0.1595;-0.0910;
335.4000;0.1587;-0.0958;
335.7000;0.1604;-0.0910;
336.0000;0.1587;-0.0910;
336.3000;0.1587;-0.0910;
336.6000;0.1604;-0.0839;
336.9000;0.1579;-0.0910;
337.2000;0.1579;-0.0910;
337.5000;0.1547;-0.0934;
337.8000;0.1595;-0.0839;
338.1000;0.1587;-0.0910;
338.4000;0.1587;-0.0910;
338.7000;0.1571;-0.0910;
339.0000;0.1579;-0.0958;
339.3000;0.1587;-0.0934;
339.6000;0.1571;-0.0982;
339.9000;0.1587;-0.0982;
340.2000;0.1587;-0.0934;
340.5000;0.1595;-0.0910;
340.8000;0.1604;-0.0934;
341.1000;0.1587;-0.0934;
341.4000;0.1587;-0.0982;
341.7000;0.1612;-0.0934;
342.0000;0.1604;-0.0982;
342.3000;0.1604;-0.0982;
342.6000;0.1571;-0.0982;
342.9000;0.1579;-0.0982;
343.2000;0.1595;-0.1030;
343.5000;0.1579;-0.1054;
343.8000;0.1587;-0.1006;
344.1000;0.1514;-0.1150;
344.4000;0.1563;-0.1102;
344.7000;0.1604;-0.0887;
345.0000;0.1595;-0.0863;
345.3000;0.1595;-0.0863;
345.6000;0.1587;-0.0863;
345.9000;0.1595;-0.0910;
346.2000;0.1555;-0.1030;
346.5000;0.1612;-0.0934;
346.8000;0.1604;-0.0982;
347.1000;0.1595;-0.1030;
347.4000;0.1661;-0.0958;
347.7000;0.1595;-0.1150;
348.0000;0.1620;-0.1126;
348.3000;0.1669;-0.0958;
348.6000;0.1571;-0.1102;
348.9000;0.1595;-0.0934;
349.2000;0.1644;-0.0791;
349.5000;0.1547;-0.1054;
349.8000;0.1579;-0.0958;
350.1000;0.1604;-0.0982;
350.4000;0.1571;-0.0982;
350.7000;0.1425;-0.1198;
351.0000;0.1620;-0.0647;
351.3000;0.1587;-0.0743;
351.6000;0.1538;-0.0887;
351.9000;0.1604;-0.0743;
352.2000;0.1604;-0.0815;
352.5000;0.1579;-0.0887;
352.8000;0.1555;-0.1030;
353.1000;0.1538;-0.1102;
353.4000;0.1587;-0.0863;
353.7000;0.1595;-0.0863;
354.0000;0.1579;-0.0934;
354.3000;0.1563;-0.1006;
354.6000;0.1595;-0.0910;
354.9000;0.1563;-0.0982;
355.2000;0.1571;-0.0958;
355.5000;0.1579;-0.1054;
355.8000;0.1587;-0.1006;
356.1000;0.1604;-0.0887;
356.4000;0.1595;-0.0887;
356.7000;0.1612;-0.0887;
357.0000;0.1587;-0.0958;
357.3000;0.1595;-0.0887;
357.6000;0.1587;-0.0910;
357.9000;0.1587;-0.0934;
358.2000;0.1604;-0.0958;
358.5000;0.1604;-0.0982;
358.8000;0.1604;-0.0863;
359.1000;0.1604;-0.0815;
359.4000;0.1612;-0.0839;
359.7000;0.1685;-0.0671;
360.0000;0.1595;-0.0863;
360.3000;0.1587;-0.0767;
360.6000;0.1612;-0.0743;
360.9000;0.1571;-0.0815;
361.2000;0.1587;-0.0791;
361.5000;0.1587;-0.0839;
361.8000;0.1595;-0.0863;
362.1000;0.1612;-0.0671;
362.4000;0.1628;-0.0623;
362.7000;0.1498;-0.0839;
363.0000;0.1685;-0.0551;
363.3000;0.1579;-0.0743;
363.6000;0.1644;-0.0551;
363.9000;0.1522;-0.0815;
364.2000;0.1595;-0.0695;
364.5000;0.1595;-0.0719;
364.8000;0.1587;-0.0743;
365.1000;0.1473;-0.1006;
365.4000;0.1595;-0.0623;
365.7000;0.1587;-0.0695;
366.0000;0.1579;-0.0695;
366.3000;0.1604;-0.0623;
366.6000;0.1579;-0.0695;
366.9000;0.1579;-0.0623;
367.2000;0.1612;-0.0623;
367.5000;0.1595;-0.0719;
367.8000;0.1587;-0.0743;
368.1000;0.1571;-0.0719;
368.4000;0.1628;-0.0551;
368.7000;0.1579;-0.0647;
369.0000;0.1587;-0.0719;
369.3000;0.1579;-0.0887;
369.6000;0.1595;-0.0934;
369.9000;0.1620;-0.0815;
370.2000;0.1612;-0.0910;
370.5000;0.1604;-0.1054;
370.8000;0.1579;-0.1126;
371.1000;0.1563;-0.1150;
371.4000;0.1538;-0.1174;
371.7000;0.1571;-0.1078;
372.0000;0.1538;-0.1246;
372.3000;0.1547;-0.1174;
372.6000;0.1595;-0.0958;
372.9000;0.1595;-0.0887;
373.2000;0.1595;-0.0839;
373.5000;0.1587;-0.0791;
373.8000;0.1473;-0.1054;
374.1000;0.1595;-0.0719;
374.4000;0.1587;-0.0863;
374.7000;0.1587;-0.0767;
375.0000;0.1604;-0.0695;
375.3000;0.1604;-0.0671;
375.6000;0.1612;-0.0647;
375.9000;0.1571;-0.0743;
376.2000;0.1579;-0.0695;
376.5000;0.1563;-0.0647;
376.8000;0.1587;-0.0647;
377.1000;0.1571;-0.0647;
377.4000;0.1604;-0.0647;
377.7000;0.1636;-0.0527;
378.0000;0.1587;-0.0719;
378.3000;0.1587;-0.0719;
378.6000;0.1604;-0.0695;
378.9000;0.1587;-0.0839;
379.2000;0.1571;-0.0887;
379.5000;0.1595;-0.0863;
379.8000;0.1595;-0.0958;
380.1000;0.1587;-0.0934;
380.4000;0.1587;-0.0910;
380.7000;0.1595;-0.0815;
381.0000;0.1612;-0.0719;
381.3000;0.1571;-0.0958;
381.6000;0.1587;-0.1006;
381.9000;0.1538;-0.1150;
382.2000;0.1612;-0.0982;
382.5000;0.1604;-0.1006;
382.8000;0.1587;-0.0958;
383.1000;0.1571;-0.1054;
383.4000;0.1595;-0.1006;
383.7000;0.1595;-0.1006;
384.0000;0.1587;-0.1006;
384.3000;0.1571;-0.1126;
384.6000;0.1604;-0.1030;
384.9000;0.1636;-0.0863;
385.2000;0.1571;-0.1078;
385.5000;0.1636;-0.0934;
385.8000;0.1595;-0.1150;
386.1000;0.1595;-0.1126;
386.4000;0.1595;-0.1102;
386.7000;0.1644;-0.0934;
387.0000;0.1538;-0.1222;
387.3000;0.1579;-0.1126;
387.6000;0.1530;-0.1246;
387.9000;0.1563;-0.1078;
388.2000;0.1595;-0.0982;
388.5000;0.1587;-0.0887;
388.8000;0.1571;-0.0863;
389.1000;0.1636;-0.0719;
389.4000;0.1587;-0.0934;
389.7000;0.1522;-0.1198;
390.0000;0.1571;-0.1078;
390.3000;0.1620;-0.0982;
390.6000;0.1604;-0.0934;
390.9000;0.1595;-0.0863;
391.2000;0.1628;-0.0695;
391.5000;0.1604;-0.0695;
391.8000;0.1587;-0.0791;
392.1000;0.1579;-0.0791;
392.4000;0.1587;-0.0767;
392.7000;0.1595;-0.0767;
393.0000;0.1571;-0.0743;
393.3000;0.1595;-0.0647;
393.6000;0.1595;-0.0623;
393.9000;0.1579;-0.0599;
394.2000;0.1587;-0.0719;
394.5000;0.1604;-0.0623;
394.8000;0.1587;-0.0599;
395.1000;0.1522;-0.0791;
395.4000;0.1595;-0.0623;
395.7000;0.1587;-0.0647;
396.0000;0.1587;-0.0743;
396.3000;0.1579;-0.0863;
396.6000;0.1579;-0.0910;
396.9000;0.1620;-0.0791;
397.2000;0.1579;-0.0887;
397.5000;0.1604;-0.0743;
397.8000;0.1579;-0.0743;
398.1000;0.1579;-0.0815;
398.4000;0.1563;-0.0839;
398.7000;0.1595;-0.0791;
399.0000;0.1604;-0.0934;
399.3000;0.1579;-0.1006;
399.6000;0.1604;-0.1030;
399.9000;0.1612;-0.0982;
400.2000;0.1595;-0.0934;
400.5000;0.1587;-0.1006;
400.8000;0.1612;-0.0934;
401.1000;0.1571;-0.0958;
401.4000;0.1636;-0.0839;
401.7000;0.1604;-0.0934;
402.0000;0.1571;-0.1006;
402.3000;0.1587;-0.0934;
402.6000;0.1595;-0.0934;
402.9000;0.1612;-0.0910;
403.2000;0.1579;-0.0910;
403.5000;0.1579;-0.0934;
403.8000;0.1628;-0.0887;
404.1000;0.1604;-0.1030;
404.4000;0.1587;-0.1078;
404.7000;0.1604;-0.1054;
405.0000;0.1587;-0.1030;
405.3000;0.1587;-0.1030;
405.6000;0.1604;-0.0958;
405.9000;0.1604;-0.0982;
406.2000;0.1595;-0.0863;
406.5000;0.1612;-0.0887;
406.8000;0.1579;-0.1006;
407.1000;0.1595;-0.0958;
407.4000;0.1579;-0.1030;
407.7000;0.1595;-0.0982;
408.0000;0.1579;-0.0982;
408.3000;0.1604;-0.0863;
408.6000;0.1620;-0.0839;
408.9000;0.1579;-0.0934;
409.2000;0.1579;-0.0934;
409.5000;0.1579;-0.0934;
409.8000;0.1595;-0.0887;
410.1000;0.1579;-0.0863;
410.4000;0.1587;-0.0839;
410.7000;0.1579;-0.0887;
411.0000;0.1587;-0.0839;
411.3000;0.1587;-0.0767;
411.6000;0.1604;-0.0791;
411.9000;0.1620;-0.0815;
412.2000;0.1595;-0.0910;
412.5000;0.1579;-0.0934;
412.8000;0.1587;-0.0982;
413.1000;0.1514;-0.1102;
413.4000;0.1595;-0.0934;
413.7000;0.1579;-0.1102;
414.0000;0.1555;-0.1174;
414.3000;0.1587;-0.1102;
414.6000;0.1587;-0.1150;
414.9000;0.1587;-0.1174;
415.2000;0.1612;-0.1102;
415.5000;0.1579;-0.1030;
415.8000;0.1612;-0.0982;
416.1000;0.1604;-0.0982;
416.4000;0.1726;-0.0671;
416.7000;0.1612;-0.0910;
417.0000;0.1620;-0.0887;
417.3000;0.1612;-0.0934;
417.6000;0.1595;-0.0958;
417.9000;0.1587;-0.1150;
418.2000;0.1587;-0.1198;
418.5000;0.1595;-0.1126;
418.8000;0.1604;-0.1126;
419.1000;0.1595;-0.1126;
419.4000;0.1595;-0.1102;
419.7000;0.1612;-0.1006;
420.0000;0.1571;-0.1126;
420.3000;0.1604;-0.1006;
420.6000;0.1636;-0.0863;
420.9000;0.1587;-0.1030;
421.2000;0.1522;-0.1174;
421.5000;0.1563;-0.1150;
421.8000;0.1604;-0.1054;
422.1000;0.1579;-0.1030;
422.4000;0.1587;-0.1078;
422.7000;0.1473;-0.1390;
423.0000;0.1595;-0.1126;
423.3000;0.1604;-0.1102;
423.6000;0.1587;-0.1102;
423.9000;0.1555;-0.1270;
424.2000;0.1595;-0.1198;
424.5000;0.1555;-0.1222;
424.8000;0.1595;-0.1126;
425.1000;0.1571;-0.1174;
425.4000;0.1579;-0.1150;
425.7000;0.1604;-0.1102;
426.0000;0.1595;-0.1078;
426.3000;0.1563;-0.1246;
426.6000;0.1587;-0.1126;
426.9000;0.1612;-0.1030;
427.2000;0.1595;-0.1006;
427.5000;0.1571;-0.1198;
427.8000;0.1595;-0.1126;
428.1000;0.1604;-0.0982;
428.4000;0.1587;-0.0958;
428.7000;0.1604;-0.0982;
429.0000;0.1685;-0.0671;
429.3000;0.1595;-0.0887;
429.6000;0.1595;-0.0910;
429.9000;0.1571;-0.0982;
430.2000;0.1595;-0.0982;
430.5000;0.1587;-0.1006;
430.8000;0.1587;-0.1030;
431.1000;0.1612;-0.1006;
431.4000;0.1587;-0.1126;
431.7000;0.1595;-0.1030;
432.0000;0.1595;-0.0958;
432.3000;0.1612;-0.0791;
432.6000;0.1701;-0.0551;
432.9000;0.1587;-0.0863;
433.2000;0.1587;-0.1006;
433.5000;0.1612;-0.1054;
433.8000;0.1595;-0.1150;
434.1000;0.1514;-0.1366;
434.4000;0.1595;-0.1174;
434.7000;0.1579;-0.1150;
435.0000;0.1571;-0.1198;
435.3000;0.1571;-0.1270;
435.6000;0.1571;-0.1270;
435.9000;0.1669;-0.1006;
436.2000;0.1587;-0.1174;
436.5000;0.1571;-0.1102;
436.8000;0.1579;-0.1054;
437.1000;0.1677;-0.0647;
437.4000;0.1604;-0.0863;
437.7000;0.1587;-0.0887;
438.0000;0.1652;-0.0791;
438.3000;0.1571;-0.0958;
438.6000;0.1595;-0.1006;
438.9000;0.1652;-0.0863;
439.2000;0.1514;-0.1246;
439.5000;0.1595;-0.1030;
439.8000;0.1604;-0.0934;
440.1000;0.1579;-0.0982;
440.4000;0.1571;-0.1006;
440.7000;0.1571;-0.1126;
441.0000;0.1595;-0.1102;
441.3000;0.1481;-0.1318;
441.6000;0.1571;-0.1078;
441.9000;0.1547;-0.1246;
442.2000;0.1595;-0.1102;
442.5000;0.1579;-0.1150;
442.8000;0.1587;-0.1078;
443.1000;0.1595;-0.0910;
443.4000;0.1555;-0.1054;
443.7000;0.1604;-0.1006;
444.0000;0.1604;-0.1006;
444.3000;0.1595;-0.1054;
444.6000;0.1579;-0.1054;
444.9000;0.1612;-0.0934;
445.2000;0.1661;-0.0791;
445.5000;0.1595;-0.1030;
445.8000;0.1612;-0.1006;
446.1000;0.1579;-0.1054;
446.4000;0.1595;-0.0982;
446.7000;0.1506;-0.1270;
447.0000;0.1571;-0.1078;
447.3000;0.1612;-0.0910;
447.6000;0.1652;-0.0767;
447.9000;0.1595;-0.1030;
448.2000;0.1595;-0.1102;
448.5000;0.1571;-0.1150;
448.8000;0.1595;-0.1006;
449.1000;0.1604;-0.1054;
449.4000;0.1595;-0.1102;
449.7000;0.1595;-0.1054;
450.0000;0.1579;-0.0982;
450.3000;0.1579;-0.0887;
450.6000;0.1677;-0.0575;
450.9000;0.1563;-0.0863;
451.2000;0.1604;-0.0791;
451.5000;0.1579;-0.0887;
451.8000;0.1604;-0.0815;
452.1000;0.1571;-0.0863;
452.4000;0.1579;-0.0910;
452.7000;0.1571;-0.0887;
453.0000;0.1579;-0.0839;
453.3000;0.1579;-0.0863;
453.6000;0.1571;-0.0982;
453.9000;0.1595;-0.0934;
454.2000;0.1571;-0.1054;
454.5000;0.1587;-0.1030;
454.8000;0.1604;-0.0934;
455.1000;0.1718;-0.0575;
455.4000;0.1604;-0.0982;
455.7000;0.1595;-0.0958;
456.0000;0.1604;-0.0863;
456.3000;0.1595;-0.0934;
456.6000;0.1595;-0.0910;
456.9000;0.1538;-0.0958;
457.2000;0.1563;-0.0839;
457.5000;0.1587;-0.0791;
457.8000;0.1587;-0.0767;
458.1000;0.1595;-0.0863;
458.4000;0.1579;-0.0934;
458.7000;0.1571;-0.0982;
459.0000;0.1604;-0.0791;
459.3000;0.1595;-0.0863;
459.6000;0.1612;-0.0839;
459.9000;0.1587;-0.0887;
460.2000;0.1579;-0.1006;
460.5000;0.1604;-0.0887;
460.8000;0.1587;-0.0982;
461.1000;0.1587;-0.1006;
461.4000;0.1595;-0.0982;
461.7000;0.1587;-0.1054;
462.0000;0.1701;-0.0815;
462.3000;0.1595;-0.0982;
462.6000;0.1579;-0.0934;
462.9000;0.1547;-0.0982;
463.2000;0.1571;-0.0982;
463.5000;0.1595;-0.0982;
463.8000;0.1701;-0.0719;
464.1000;0.1579;-0.0958;
464.4000;0.1604;-0.0934;
464.7000;0.1563;-0.1054;
465.0000;0.1604;-0.1102;
465.3000;0.1506;-0.1414;
465.6000;0.1604;-0.1174;
465.9000;0.1612;-0.1126;
466.2000;0.1579;-0.1102;
466.5000;0.1595;-0.1150;
466.8000;0.1661;-0.0958;
467.1000;0.1620;-0.1150;
467.4000;0.1587;-0.1150;
467.7000;0.1587;-0.1102;
468.0000;0.1571;-0.1078;
468.3000;0.1571;-0.1006;
468.6000;0.1595;-0.1006;
468.9000;0.1604;-0.1030;
469.2000;0.1604;-0.1102;
469.5000;0.1612;-0.1078;
469.8000;0.1587;-0.1054;
470.1000;0.1587;-0.1078;
470.4000;0.1579;-0.1006;
470.7000;0.1604;-0.0958;
471.0000;0.1604;-0.0910;
471.3000;0.1571;-0.0982;
471.6000;0.1595;-0.0863;
471.9000;0.1604;-0.0839;
472.2000;0.1604;-0.0815;
472.5000;0.1563;-0.0910;
472.8000;0.1571;-0.0815;
473.1000;0.1579;-0.0767;
473.4000;0.1571;-0.0791;
473.7000;0.1571;-0.0863;
474.0000;0.1587;-0.0743;
474.3000;0.1579;-0.0767;
474.6000;0.1530;-0.0982;
474.9000;0.1571;-0.0863;
475.2000;0.1579;-0.0839;
475.5000;0.1636;-0.0767;
475.8000;0.1595;-0.0934;
476.1000;0.1604;-0.0982;
476.4000;0.1595;-0.1054;
476.7000;0.1465;-0.1390;
477.0000;0.1604;-0.0934;
477.3000;0.1595;-0.0958;
477.6000;0.1612;-0.0934;
477.9000;0.1563;-0.1078;
478.2000;0.1579;-0.1006;
478.5000;0.1620;-0.0934;
478.8000;0.1595;-0.1078;
479.1000;0.1669;-0.0839;
479.4000;0.1595;-0.1054;
479.7000;0.1612;-0.1054;
480.0000;0.1571;-0.1246;
480.3000;0.1612;-0.1078;
480.6000;0.1595;-0.1198;
480.9000;0.1612;-0.1102;
481.2000;0.1595;-0.1102;
481.5000;0.1685;-0.0934;
481.8000;0.1563;-0.1294;
482.1000;0.1587;-0.1222;
482.4000;0.1587;-0.1270;
482.7000;0.1604;-0.1270;
483.0000;0.1579;-0.1294;
483.3000;0.1612;-0.1150;
483.6000;0.1612;-0.1126;
483.9000;0.1579;-0.1198;
484.2000;0.1595;-0.1126;
484.5000;0.1579;-0.1150;
484.8000;0.1595;-0.1126;
485.1000;0.1595;-0.1126;
485.4000;0.1604;-0.1078;
485.7000;0.1587;-0.1174;
486.0000;0.1595;-0.1198;
486.3000;0.1701;-0.0910;
486.6000;0.1595;-0.1150;
486.9000;0.1587;-0.1174;
487.2000;0.1628;-0.1006;
487.5000;0.1604;-0.1054;
487.8000;0.1604;-0.1030;
488.1000;0.1587;-0.1078;
488.4000;0.1579;-0.1150;
488.7000;0.1563;-0.1246;
489.0000;0.1604;-0.1150;
489.3000;0.1661;-0.0958;
489.6000;0.1636;-0.1030;
489.9000;0.1612;-0.1030;
490.2000;0.1579;-0.1174;
490.5000;0.1563;-0.1198;
490.8000;0.1628;-0.1126;
491.1000;0.1595;-0.1270;
491.4000;0.1612;-0.1150;
491.7000;0.1579;-0.1246;
492.0000;0.1571;-0.1222;
492.3000;0.1579;-0.1222;
492.6000;0.1604;-0.1222;
492.9000;0.1612;-0.1174;
493.2000;0.1661;-0.1054;
493.5000;0.1579;-0.1366;
493.8000;0.1620;-0.1222;
494.1000;0.1595;-0.1246;
494.4000;0.1563;-0.1198;
494.7000;0.1579;-0.1078;
495.0000;0.1571;-0.1030;
495.3000;0.1604;-0.0934;
495.6000;0.1587;-0.1030;
495.9000;0.1530;-0.1198;
496.2000;0.1555;-0.1150;
496.5000;0.1579;-0.1006;
496.8000;0.1490;-0.1390;
497.1000;0.1579;-0.1150;
497.4000;0.1595;-0.1150;
497.7000;0.1644;-0.1102;
498.0000;0.1612;-0.1078;
498.3000;0.1604;-0.1054;
498.6000;0.1587;-0.1078;
498.9000;0.1685;-0.0934;
499.2000;0.1612;-0.1126;
499.5000;0.1579;-0.1198;
499.8000;0.1628;-0.1054;
500.1000;0.1530;-0.1222;
500.4000;0.1571;-0.1078;
500.7000;0.1604;-0.1030;
501.0000;0.1579;-0.1150;
501.3000;0.1587;-0.1126;
501.6000;0.1579;-0.1222;
501.9000;0.1604;-0.1150;
502.2000;0.1677;-0.1054;
502.5000;0.1644;-0.0982;
502.8000;0.1587;-0.1078;
503.1000;0.1612;-0.0958;
503.4000;0.1595;-0.1102;
503.7000;0.1579;-0.1102;
504.0000;0.1669;-0.0934;
504.3000;0.1628;-0.0958;
504.6000;0.1604;-0.1102;
504.9000;0.1587;-0.1174;
505.2000;0.1579;-0.1150;
505.5000;0.1604;-0.1054;
505.8000;0.1595;-0.1054;
506.1000;0.1571;-0.1102;
506.4000;0.1563;-0.1054;
506.7000;0.1571;-0.1222;
507.0000;0.1587;-0.1126;
507.3000;0.1579;-0.1054;
507.6000;0.1579;-0.1054;
507.9000;0.1595;-0.0982;
508.2000;0.1587;-0.0934;
508.5000;0.1604;-0.0934;
508.8000;0.1587;-0.0910;
509.1000;0.1587;-0.1006;
509.4000;0.1604;-0.0934;
509.7000;0.1587;-0.1054;
510.0000;0.1595;-0.1102;
510.3000;0.1652;-0.0958;
510.6000;0.1563;-0.1294;
510.9000;0.1604;-0.1126;
511.2000;0.1612;-0.1102;
511.5000;0.1579;-0.1174;
511.8000;0.1612;-0.1126;
512.1000;0.1579;-0.1246;
512.4000;0.1547;-0.1366;
512.7000;0.1563;-0.1270;
513.0000;0.1595;-0.1294;
513.3000;0.1604;-0.1246;
513.6000;0.1579;-0.1246;
513.9000;0.1595;-0.1126;
514.2000;0.1555;-0.1222;
514.5000;0.1579;-0.1102;
514.8000;0.1612;-0.1102;
515.1000;0.1587;-0.1078;
515.4000;0.1604;-0.1030;
515.7000;0.1571;-0.1102;
516.0000;0.1555;-0.1078;
516.3000;0.1587;-0.0958;
516.6000;0.1595;-0.0982;
516.9000;0.1563;-0.1078;
517.2000;0.1595;-0.0958;
517.5000;0.1595;-0.0958;
517.8000;0.1538;-0.1078;
518.1000;0.1604;-0.1006;
518.4000;0.1571;-0.1198;
518.7000;0.1587;-0.1126;
519.0000;0.1652;-0.0982;
519.3000;0.1595;-0.1174;
519.6000;0.1595;-0.1102;
519.9000;0.1709;-0.0839;
520.2000;0.1587;-0.1198;
520.5000;0.1587;-0.1198;
520.8000;0.1563;-0.1318;
521.1000;0.1604;-0.1246;
521.4000;0.1595;-0.1342;
521.7000;0.1579;-0.1366;
522.0000;0.1620;-0.1246;
522.3000;0.1563;-0.1342;
522.6000;0.1604;-0.1222;
522.9000;0.1547;-0.1318;
523.2000;0.1555;-0.1342;
523.5000;0.1587;-0.1318;
523.8000;0.1595;-0.1318;
524.1000;0.1595;-0.1270;
524.4000;0.1587;-0.1390;
524.7000;0.1620;-0.1366;
525.0000;0.1604;-0.1342;
525.3000;0.1604;-0.1390;
525.6000;0.1644;-0.1318;
525.9000;0.1669;-0.1270;
526.2000;0.1595;-0.1462;
526.5000;0.1522;-0.1605;
526.8000;0.1530;-0.1533;
527.1000;0.1750;-0.0839;
527.4000;0.1587;-0.1222;
527.7000;0.1620;-0.1078;
528.0000;0.1587;-0.1150;
528.3000;0.1579;-0.1198;
528.6000;0.1612;-0.1054;
528.9000;0.1604;-0.1102;
529.2000;0.1628;-0.1054;
529.5000;0.1604;-0.1054;
529.8000;0.1571;-0.1174;
530.1000;0.1620;-0.1054;
530.4000;0.1595;-0.1126;
530.7000;0.1498;-0.1342;
531.0000;0.1595;-0.1150;
531.3000;0.1571;-0.1222;
531.6000;0.1571;-0.1174;
531.9000;0.1604;-0.1102;
532.2000;0.1587;-0.1078;
532.5000;0.1571;-0.1198;
532.8000;0.1595;-0.1150;
533.1000;0.1563;-0.1222;
533.4000;0.1685;-0.0887;
533.7000;0.1587;-0.1198;
534.0000;0.1604;-0.1078;
534.3000;0.1595;-0.1006;
534.6000;0.1595;-0.0982;
534.9000;0.1571;-0.1102;
535.2000;0.1465;-0.1342;
535.5000;0.1587;-0.1030;
535.8000;0.1604;-0.0910;
536.1000;0.1620;-0.0887;
536.4000;0.1636;-0.0934;
536.7000;0.1571;-0.1054;
537.0000;0.1514;-0.1270;
537.3000;0.1693;-0.0743;
537.6000;0.1579;-0.0958;
537.9000;0.1604;-0.0863;
538.2000;0.1563;-0.1030;
538.5000;0.1587;-0.0934;
538.8000;0.1595;-0.0958;
539.1000;0.1571;-0.1054;
539.4000;0.1612;-0.1030;
539.7000;0.1571;-0.1078;
540.0000;0.1604;-0.0887;
540.3000;0.1595;-0.0910;
540.6000;0.1604;-0.0910;
540.9000;0.1620;-0.0934;
541.2000;0.1595;-0.1006;
541.5000;0.1595;-0.0982;
541.8000;0.1498;-0.1174;
542.1000;0.1579;-0.0982;
542.4000;0.1563;-0.0982;
542.7000;0.1604;-0.0958;
543.0000;0.1579;-0.1006;
543.3000;0.1547;-0.1054;
543.6000;0.1595;-0.1006;
543.9000;0.1595;-0.1054;
544.2000;0.1595;-0.1054;
544.5000;0.1563;-0.1054;
544.8000;0.1579;-0.1030;
545.1000;0.1563;-0.1054;
545.4000;0.1587;-0.0982;
545.7000;0.1579;-0.0982;
546.0000;0.1571;-0.0863;
546.3000;0.1579;-0.0863;
546.6000;0.1571;-0.0910;
546.9000;0.1571;-0.0958;
547.2000;0.1693;-0.0623;
547.5000;0.1587;-0.0958;
547.8000;0.1579;-0.0982;
548.1000;0.1661;-0.0839;
548.4000;0.1604;-0.1006;
548.7000;0.1579;-0.1054;
549.0000;0.1612;-0.1078;
549.3000;0.1595;-0.1054;
549.6000;0.1595;-0.1054;
549.9000;0.1595;-0.1030;
550.2000;0.1669;-0.0815;
550.5000;0.1604;-0.1006;
550.8000;0.1604;-0.0982;
551.1000;0.1604;-0.1078;
551.4000;0.1587;-0.0934;
551.7000;0.1636;-0.0839;
552.0000;0.1612;-0.0887;
552.3000;0.1701;-0.0623;
552.6000;0.1595;-0.0815;
552.9000;0.1661;-0.0671;
553.2000;0.1522;-0.1126;
553.5000;0.1530;-0.1222;
553.8000;0.1587;-0.1150;
554.1000;0.1571;-0.1270;
554.4000;0.1555;-0.1366;
554.7000;0.1604;-0.1270;
555.0000;0.1661;-0.1150;
555.3000;0.1587;-0.1294;
555.6000;0.1579;-0.1318;
555.9000;0.1595;-0.1222;
556.2000;0.1530;-0.1294;
556.5000;0.1595;-0.1126;
556.8000;0.1612;-0.0982;
557.1000;0.1587;-0.1030;
557.4000;0.1522;-0.1270;
557.7000;0.1579;-0.1150;
558.0000;0.1709;-0.0791;
558.3000;0.1579;-0.1102;
558.6000;0.1587;-0.1126;
558.9000;0.1604;-0.1174;
559.2000;0.1587;-0.1126;
559.5000;0.1587;-0.1150;
559.8000;0.1612;-0.1102;
560.1000;0.1587;-0.1102;
560.4000;0.1579;-0.1198;
560.7000;0.1579;-0.1054;
561.0000;0.1579;-0.0958;
561.3000;0.1571;-0.0982;
561.6000;0.1547;-0.1198;
561.9000;0.1587;-0.1054;
562.2000;0.1587;-0.1150;
562.5000;0.1595;-0.1174;
562.8000;0.1571;-0.1174;
563.1000;0.1587;-0.1102;
563.4000;0.1612;-0.1054;
563.7000;0.1709;-0.0791;
564.0000;0.1604;-0.1006;
564.3000;0.1571;-0.1006;
564.6000;0.1538;-0.1030;
564.9000;0.1595;-0.0863;
565.2000;0.1595;-0.0839;
565.5000;0.1587;-0.0839;
565.8000;0.1604;-0.0815;
566.1000;0.1595;-0.0863;
566.4000;0.1595;-0.0934;
566.7000;0.1612;-0.0910;
567.0000;0.1579;-0.1054;
567.3000;0.1604;-0.1006;
567.6000;0.1579;-0.1102;
567.9000;0.1595;-0.1078;
568.2000;0.1604;-0.1030;
568.5000;0.1587;-0.1054;
568.8000;0.1604;-0.1030;
569.1000;0.1595;-0.1102;
569.4000;0.1571;-0.1150;
569.7000;0.1579;-0.1102;
570.0000;0.1604;-0.1006;
570.3000;0.1473;-0.1366;
570.6000;0.1587;-0.1102;
570.9000;0.1563;-0.1174;
571.2000;0.1587;-0.1150;
571.5000;0.1563;-0.1270;
571.8000;0.1604;-0.1198;
572.1000;0.1579;-0.1246;
572.4000;0.1587;-0.1126;
572.7000;0.1612;-0.1102;
573.0000;0.1604;-0.1006;
573.3000;0.1587;-0.1006;
573.6000;0.1620;-0.0887;
573.9000;0.1620;-0.0815;
574.2000;0.1587;-0.0839;
574.5000;0.1547;-0.0958;
574.8000;0.1604;-0.0887;
575.1000;0.1644;-0.0887;
575.4000;0.1620;-0.0934;
575.7000;0.1571;-0.1078;
576.0000;0.1571;-0.1054;
576.3000;0.1563;-0.1054;
576.6000;0.1595;-0.1054;
576.9000;0.1652;-0.0815;
577.2000;0.1473;-0.1270;
577.5000;0.1595;-0.0934;
577.8000;0.1636;-0.0815;
578.1000;0.1620;-0.0910;
578.4000;0.1571;-0.0982;
578.7000;0.1571;-0.0958;
579.0000;0.1579;-0.0958;
579.3000;0.1571;-0.1054;
579.6000;0.1595;-0.0982;
579.9000;0.1555;-0.1078;
580.2000;0.1661;-0.0719;
580.5000;0.1595;-0.0934;
580.8000;0.1498;-0.1222;
581.1000;0.1579;-0.1054;
581.4000;0.1587;-0.1126;
581.7000;0.1595;-0.1078;
582.0000;0.1604;-0.0934;
582.3000;0.1587;-0.0958;
582.6000;0.1563;-0.0934;
582.9000;0.1604;-0.0887;
583.2000;0.1677;-0.0671;
583.5000;0.1595;-0.0910;
583.8000;0.1604;-0.1006;
584.1000;0.1612;-0.1078;
584.4000;0.1595;-0.1150;
584.7000;0.1595;-0.1150;
585.0000;0.1620;-0.1006;
585.3000;0.1579;-0.1078;
585.6000;0.1652;-0.0815;
585.9000;0.1595;-0.0934;
586.2000;0.1571;-0.0958;
586.5000;0.1587;-0.0958;
586.8000;0.1628;-0.0910;
587.1000;0.1579;-0.1030;
587.4000;0.1587;-0.0982;
587.7000;0.1595;-0.1006;
588.0000;0.1604;-0.1030;
588.3000;0.1587;-0.1054;
588.6000;0.1587;-0.0982;
588.9000;0.1547;-0.1030;
589.2000;0.1595;-0.0887;
589.5000;0.1612;-0.0863;
589.8000;0.1604;-0.0910;
590.1000;0.1579;-0.0934;
590.4000;0.1604;-0.0910;
590.7000;0.1587;-0.0958;
591.0000;0.1595;-0.1006;
591.3000;0.1587;-0.1006;
591.6000;0.1587;-0.1078;
591.9000;0.1595;-0.0958;
592.2000;0.1555;-0.1102;
592.5000;0.1579;-0.1054;
592.8000;0.1595;-0.1102;
593.1000;0.1595;-0.1150;
593.4000;0.1571;-0.1246;
593.7000;0.1620;-0.1174;
594.0000;0.1579;-0.1270;
594.3000;0.1563;-0.1270;
594.6000;0.1571;-0.1222;
594.9000;0.1530;-0.1318;
595.2000;0.1595;-0.1030;
595.5000;0.1571;-0.1054;
595.8000;0.1579;-0.1174;
596.1000;0.1547;-0.1150;
596.4000;0.1579;-0.1102;
596.7000;0.1547;-0.1270;
597.0000;0.1620;-0.1126;
597.3000;0.1612;-0.1150;
597.6000;0.1652;-0.1006;
597.9000;0.1579;-0.1222;
598.2000;0.1595;-0.1126;
598.5000;0.1644;-0.0958;
598.8000;0.1612;-0.0982;
599.1000;0.1604;-0.1054;
599.4000;0.1514;-0.1366;
599.7000;0.1604;-0.1126;
600.0000;0.1628;-0.1078;
600.3000;0.1579;-0.1246;
600.6000;0.1652;-0.1150;
600.9000;0.1661;-0.1198;
601.2000;0.1571;-0.1509;
601.5000;0.1612;-0.1509;
601.8000;0.1571;-0.1701;
602.1000;0.1555;-0.1749;
602.4000;0.1571;-0.1677;
602.7000;0.1547;-0.1797;
603.0000;0.1547;-0.1893;
603.3000;0.1498;-0.2108;
603.6000;0.1555;-0.2061;
603.9000;0.1563;-0.2061;
604.2000;0.1506;-0.2276;
604.5000;0.1538;-0.2300;
604.8000;0.1530;-0.2516;
605.1000;0.1555;-0.2564;
605.4000;0.1547;-0.2636;
605.7000;0.1506;-0.2755;
606.0000;0.1563;-0.2731;
606.3000;0.1506;-0.2875;
606.6000;0.1530;-0.2779;
606.9000;0.1522;-0.2827;
607.2000;0.1506;-0.2755;
607.5000;0.1547;-0.2684;
607.8000;0.1530;-0.2660;
608.1000;0.1547;-0.2660;
608.4000;0.1514;-0.2707;
608.7000;0.1481;-0.2755;
609.0000;0.1522;-0.2684;
609.3000;0.1506;-0.2707;
609.6000;0.1514;-0.2803;
609.9000;0.1506;-0.2851;
610.2000;0.1522;-0.2803;
610.5000;0.1522;-0.2731;
610.8000;0.1530;-0.2684;
611.1000;0.1506;-0.2636;
611.4000;0.1538;-0.2540;
611.7000;0.1490;-0.2660;
612.0000;0.1514;-0.2660;
612.3000;0.1522;-0.2684;
612.6000;0.1514;-0.2731;
612.9000;0.1514;-0.2803;
613.2000;0.1506;-0.2899;
613.5000;0.1481;-0.2971;
613.8000;0.1506;-0.2851;
614.1000;0.1498;-0.2947;
614.4000;0.1530;-0.2899;
614.7000;0.1514;-0.2971;
615.0000;0.1481;-0.3067;
615.3000;0.1506;-0.3019;
615.6000;0.1530;-0.2923;
615.9000;0.1465;-0.3067;
616.2000;0.1490;-0.2947;
616.5000;0.1506;-0.2947;
616.8000;0.1547;-0.2803;
617.1000;0.1481;-0.2899;
617.4000;0.1514;-0.2803;
617.7000;0.1538;-0.2755;
618.0000;0.1522;-0.2779;
618.3000;0.1506;-0.2827;
618.6000;0.1498;-0.2947;
618.9000;0.1498;-0.3019;
619.2000;0.1481;-0.3067;
619.5000;0.1514;-0.2923;
619.8000;0.1506;-0.2899;
620.1000;0.1555;-0.2779;
620.4000;0.1538;-0.2803;
620.7000;0.1514;-0.2755;
621.0000;0.1490;-0.2827;
621.3000;0.1547;-0.2779;
621.6000;0.1506;-0.2899;
621.9000;0.1604;-0.2636;
622.2000;0.1506;-0.2947;
622.5000;0.1693;-0.2492;
622.8000;0.1514;-0.2995;
623.1000;0.1514;-0.2995;
623.4000;0.1498;-0.3043;
623.7000;0.1506;-0.2995;
624.0000;0.1514;-0.2923;
624.3000;0.1604;-0.2755;
624.6000;0.1490;-0.3043;
624.9000;0.1538;-0.3043;
625.2000;0.1514;-0.3139;
625.5000;0.1538;-0.3043;
625.8000;0.1498;-0.2995;
626.1000;0.1506;-0.2947;
626.4000;0.1506;-0.2851;
626.7000;0.1506;-0.2875;
627.0000;0.1498;-0.2851;
627.3000;0.1490;-0.2947;
627.6000;0.1506;-0.2875;
627.9000;0.1530;-0.2851;
628.2000;0.1498;-0.2995;
628.5000;0.1571;-0.2803;
628.8000;0.1498;-0.2971;
629.1000;0.1490;-0.2971;
629.4000;0.1498;-0.2947;
629.7000;0.1506;-0.2923;
630.0000;0.1481;-0.2995;
630.3000;0.1498;-0.2947;
630.6000;0.1530;-0.2827;
630.9000;0.1481;-0.2995;
631.2000;0.1506;-0.2971;
631.5000;0.1522;-0.2947;
631.8000;0.1514;-0.3019;
632.1000;0.1514;-0.2947;
632.4000;0.1514;-0.2923;
632.7000;0.1498;-0.2947;
633.0000;0.1514;-0.2995;
633.3000;0.1506;-0.2995;
633.6000;0.1522;-0.2947;
633.9000;0.1425;-0.3235;
634.2000;0.1522;-0.2923;
634.5000;0.1490;-0.3067;
634.8000;0.1579;-0.2875;
635.1000;0.1522;-0.2995;
635.4000;0.1498;-0.2947;
635.7000;0.1498;-0.2971;
636.0000;0.1498;-0.2971;
636.3000;0.1498;-0.2947;
636.6000;0.1498;-0.2971;
636.9000;0.1481;-0.3067;
637.2000;0.1498;-0.3019;
637.5000;0.1514;-0.2995;
637.8000;0.1441;-0.3283;
638.1000;0.1506;-0.3139;
638.4000;0.1514;-0.3115;
638.7000;0.1522;-0.3067;
639.0000;0.1514;-0.3163;
639.3000;0.1506;-0.3091;
639.6000;0.1498;-0.3067;
639.9000;0.1498;-0.3091;
640.2000;0.1530;-0.3019;
640.5000;0.1506;-0.3043;
640.8000;0.1449;-0.3115;
641.1000;0.1490;-0.2923;
641.4000;0.1498;-0.2899;
641.7000;0.1498;-0.2923;
642.0000;0.1514;-0.2971;
642.3000;0.1490;-0.3019;
642.6000;0.1514;-0.2923;
642.9000;0.1506;-0.2875;
643.2000;0.1506;-0.2971;
643.5000;0.1441;-0.3139;
643.8000;0.1514;-0.2971;
644.1000;0.1490;-0.3091;
644.4000;0.1498;-0.3115;
644.7000;0.1506;-0.3139;
645.0000;0.1514;-0.3067;
645.3000;0.1571;-0.2947;
645.6000;0.1490;-0.3187;
645.9000;0.1506;-0.3163;
646.2000;0.1498;-0.3211;
646.5000;0.1612;-0.2923;
646.8000;0.1359;-0.3594;
647.1000;0.1490;-0.3306;
647.4000;0.1604;-0.2947;
647.7000;0.1384;-0.3570;
648.0000;0.1530;-0.3115;
648.3000;0.1538;-0.3043;
648.6000;0.1506;-0.3067;
648.9000;0.1498;-0.2971;
649.2000;0.1514;-0.3019;
649.5000;0.1530;-0.3019;
649.8000;0.1490;-0.3139;
650.1000;0.1522;-0.3019;
650.4000;0.1490;-0.3019;
650.7000;0.1514;-0.2971;
651.0000;0.1498;-0.2971;
651.3000;0.1498;-0.2971;
651.6000;0.1506;-0.3019;
651.9000;0.1506;-0.2995;
652.2000;0.1514;-0.3043;
652.5000;0.1530;-0.3043;
652.8000;0.1506;-0.3043;
653.1000;0.1498;-0.3067;
653.4000;0.1490;-0.3091;
653.7000;0.1514;-0.3019;
654.0000;0.1498;-0.3019;
654.3000;0.1481;-0.3019;
654.6000;0.1506;-0.2971;
654.9000;0.1522;-0.2947;
655.2000;0.1571;-0.2899;
655.5000;0.1498;-0.3091;
655.8000;0.1490;-0.3043;
656.1000;0.1490;-0.2971;
656.4000;0.1514;-0.2995;
656.7000;0.1514;-0.2947;
657.0000;0.1465;-0.3019;
657.3000;0.1514;-0.2923;
657.6000;0.1490;-0.2995;
657.9000;0.1522;-0.2971;
658.2000;0.1514;-0.3019;
658.5000;0.1538;-0.2827;
658.8000;0.1457;-0.3091;
659.1000;0.1506;-0.2947;
659.4000;0.1498;-0.3043;
659.7000;0.1522;-0.2971;
660.0000;0.1530;-0.2947;
660.3000;0.1514;-0.2995;
660.6000;0.1465;-0.3019;
660.9000;0.1506;-0.2803;
661.2000;0.1490;-0.2851;
661.5000;0.1506;-0.2779;
661.8000;0.1498;-0.2899;
662.1000;0.1514;-0.2899;
662.4000;0.1498;-0.2971;
662.7000;0.1522;-0.3091;
663.0000;0.1538;-0.2971;
663.3000;0.1481;-0.3067;
663.6000;0.1457;-0.3091;
663.9000;0.1506;-0.3043;
664.2000;0.1490;-0.3019;
664.5000;0.1498;-0.3067;
664.8000;0.1481;-0.3139;
665.1000;0.1498;-0.3091;
665.4000;0.1506;-0.2995;
665.7000;0.1506;-0.2899;
666.0000;0.1498;-0.2995;
666.3000;0.1441;-0.3139;
666.6000;0.1514;-0.2971;
666.9000;0.1498;-0.2995;
667.2000;0.1595;-0.2755;
667.5000;0.1490;-0.2971;
667.8000;0.1490;-0.2971;
668.1000;0.1481;-0.2899;
668.4000;0.1506;-0.2971;
668.7000;0.1449;-0.3163;
669.0000;0.1490;-0.2947;
669.3000;0.1433;-0.3115;
669.6000;0.1498;-0.2947;
669.9000;0.1481;-0.3043;
670.2000;0.1498;-0.2923;
670.5000;0.1490;-0.2923;
670.8000;0.1490;-0.2947;
671.1000;0.1490;-0.2923;
671.4000;0.1481;-0.2923;
671.7000;0.1465;-0.2971;
672.0000;0.1490;-0.2947;
672.3000;0.1490;-0.2947;
672.6000;0.1718;-0.2396;
672.9000;0.1481;-0.3019;
673.2000;0.1498;-0.2923;
673.5000;0.1522;-0.2923;
673.8000;0.1514;-0.2827;
674.1000;0.1498;-0.2899;
674.4000;0.1457;-0.3019;
674.7000;0.1514;-0.2947;
675.0000;0.1473;-0.3067;
675.3000;0.1506;-0.3019;
675.6000;0.1514;-0.2971;
675.9000;0.1498;-0.2971;
676.2000;0.1465;-0.2947;
676.5000;0.1498;-0.2899;
676.8000;0.1693;-0.2276;
677.1000;0.1522;-0.2803;
677.4000;0.1514;-0.2803;
677.7000;0.1425;-0.2923;
678.0000;0.1490;-0.2803;
678.3000;0.1490;-0.2827;
678.6000;0.1465;-0.2875;
678.9000;0.1498;-0.2803;
679.2000;0.1490;-0.2899;
679.5000;0.1530;-0.2851;
679.8000;0.1490;-0.2923;
680.1000;0.1514;-0.2923;
680.4000;0.1506;-0.2971;
680.7000;0.1498;-0.3019;
681.0000;0.1514;-0.3019;
681.3000;0.1498;-0.3091;
681.6000;0.1490;-0.3163;
681.9000;0.1547;-0.3091;
682.2000;0.1498;-0.3091;
682.5000;0.1481;-0.3067;
682.8000;0.1490;-0.2995;
683.1000;0.1498;-0.2827;
683.4000;0.1457;-0.2971;
683.7000;0.1490;-0.2947;
684.0000;0.1506;-0.2875;
684.3000;0.1490;-0.2995;
684.6000;0.1384;-0.3211;
684.9000;0.1563;-0.2707;
685.2000;0.1506;-0.2875;
685.5000;0.1498;-0.2899;
685.8000;0.1433;-0.3067;
686.1000;0.1498;-0.2947;
686.4000;0.1514;-0.2947;
686.7000;0.1473;-0.3067;
687.0000;0.1506;-0.2899;
687.3000;0.1449;-0.3091;
687.6000;0.1498;-0.3019;
687.9000;0.1595;-0.2707;
688.2000;0.1433;-0.3091;
688.5000;0.1506;-0.2971;
688.8000;0.1522;-0.2923;
689.1000;0.1522;-0.2971;
689.4000;0.1416;-0.3187;
689.7000;0.1498;-0.3091;
690.0000;0.1579;-0.2875;
690.3000;0.1555;-0.2971;
690.6000;0.1522;-0.3043;
690.9000;0.1522;-0.3019;
691.2000;0.1563;-0.2827;
691.5000;0.1620;-0.2660;
691.8000;0.1498;-0.2851;
692.1000;0.1498;-0.2947;
692.4000;0.1522;-0.2947;
692.7000;0.1481;-0.2971;
693.0000;0.1514;-0.2851;
693.3000;0.1441;-0.2995;
693.6000;0.1506;-0.2875;
693.9000;0.1506;-0.2923;
694.2000;0.1506;-0.2923;
694.5000;0.1514;-0.2875;
694.8000;0.1522;-0.2875;
695.1000;0.1538;-0.2779;
695.4000;0.1514;-0.2779;
695.7000;0.1498;-0.2875;
696.0000;0.1498;-0.2875;
696.3000;0.1514;-0.2875;
696.6000;0.1506;-0.2875;
696.9000;0.1498;-0.2923;
697.2000;0.1498;-0.2947;
697.5000;0.1498;-0.2971;
697.8000;0.1506;-0.2899;
698.1000;0.1490;-0.2947;
698.4000;0.1571;-0.2803;
698.7000;0.1506;-0.2995;
699.0000;0.1514;-0.2947;
699.3000;0.1555;-0.2827;
699.6000;0.1514;-0.2995;
699.9000;0.1498;-0.2995;
700.2000;0.1522;-0.2899;
700.5000;0.1514;-0.2875;
700.8000;0.1498;-0.2947;
701.1000;0.1506;-0.2947;
701.4000;0.1514;-0.2923;
701.7000;0.1490;-0.2995;
702.0000;0.1506;-0.2995;
702.3000;0.1522;-0.2947;
702.6000;0.1522;-0.2971;
702.9000;0.1498;-0.3043;
703.2000;0.1538;-0.3043;
703.5000;0.1498;-0.3139;
703.8000;0.1490;-0.3139;
704.1000;0.1433;-0.3306;
704.4000;0.1514;-0.3067;
704.7000;0.1498;-0.3091;
705.0000;0.1481;-0.3259;
705.3000;0.1498;-0.3283;
705.6000;0.1506;-0.3235;
705.9000;0.1481;-0.3163;
706.2000;0.1490;-0.3115;
706.5000;0.1514;-0.3043;
706.8000;0.1514;-0.2995;
707.1000;0.1555;-0.2899;
707.4000;0.1530;-0.2995;
707.7000;0.1514;-0.3067;
708.0000;0.1514;-0.3043;
708.3000;0.1498;-0.3067;
708.6000;0.1498;-0.3115;
708.9000;0.1587;-0.2899;
709.2000;0.1425;-0.3354;
709.5000;0.1514;-0.3091;
709.8000;0.1498;-0.3043;
710.1000;0.1506;-0.3067;
710.4000;0.1514;-0.2995;
710.7000;0.1498;-0.3019;
711.0000;0.1400;-0.3235;
711.3000;0.1490;-0.3019;
711.6000;0.1490;-0.3043;
711.9000;0.1644;-0.2612;
712.2000;0.1481;-0.3139;
712.5000;0.1498;-0.3163;
712.8000;0.1441;-0.3378;
713.1000;0.1490;-0.3330;
713.4000;0.1473;-0.3354;
713.7000;0.1530;-0.3235;
714.0000;0.1498;-0.3259;
714.3000;0.1547;-0.3139;
714.6000;0.1498;-0.3283;
714.9000;0.1563;-0.3211;
715.2000;0.1490;-0.3450;
715.5000;0.1465;-0.3498;
715.8000;0.1498;-0.3426;
716.1000;0.1473;-0.3354;
716.4000;0.1506;-0.3259;
716.7000;0.1465;-0.3354;
717.0000;0.1490;-0.3306;
717.3000;0.1449;-0.3378;
717.6000;0.1490;-0.3211;
717.9000;0.1522;-0.3139;
718.2000;0.1498;-0.3235;
718.5000;0.1514;-0.3235;
718.8000;0.1490;-0.3283;
719.1000;0.1481;-0.3283;
719.4000;0.1498;-0.3211;
719.7000;0.1481;-0.3163;
720.0000;0.1506;-0.3115;
720.3000;0.1498;-0.3211;
720.6000;0.1514;-0.3091;
720.9000;0.1490;-0.3163;
721.2000;0.1416;-0.3402;
721.5000;0.1481;-0.3211;
721.8000;0.1514;-0.3115;
722.1000;0.1481;-0.3187;
722.4000;0.1490;-0.3187;
722.7000;0.1490;-0.3211;
723.0000;0.1490;-0.3211;
723.3000;0.1514;-0.3019;
723.6000;0.1498;-0.3067;
723.9000;0.1490;-0.3139;
724.2000;0.1490;-0.3235;
724.5000;0.1506;-0.3283;
724.8000;0.1514;-0.3259;
725.1000;0.1498;-0.3235;
725.4000;0.1514;-0.3211;
725.7000;0.1498;-0.3235;
726.0000;0.1506;-0.3139;
726.3000;0.1481;-0.3187;
726.6000;0.1498;-0.3139;
726.9000;0.1498;-0.3139;
727.2000;0.1522;-0.3115;
727.5000;0.1522;-0.3115;
727.8000;0.1522;-0.3163;
728.1000;0.1538;-0.3187;
728.4000;0.1514;-0.3211;
728.7000;0.1465;-0.3330;
729.0000;0.1498;-0.3139;
729.3000;0.1498;-0.3091;
729.6000;0.1498;-0.3115;
729.9000;0.1604;-0.2875;
730.2000;0.1538;-0.2995;
730.5000;0.1498;-0.3187;
730.8000;0.1481;-0.3187;
731.1000;0.1514;-0.3091;
731.4000;0.1490;-0.3067;
731.7000;0.1481;-0.3115;
732.0000;0.1498;-0.3067;
732.3000;0.1498;-0.3019;
732.6000;0.1498;-0.2899;
732.9000;0.1465;-0.2947;
733.2000;0.1490;-0.2875;
733.5000;0.1498;-0.2923;
733.8000;0.1473;-0.3043;
734.1000;0.1506;-0.2995;
734.4000;0.1498;-0.3043;
734.7000;0.1506;-0.3043;
735.0000;0.1498;-0.3019;
735.3000;0.1547;-0.2875;
735.6000;0.1506;-0.2899;
735.9000;0.1490;-0.2899;
736.2000;0.1538;-0.2803;
736.5000;0.1506;-0.2899;
736.8000;0.1514;-0.2899;
737.1000;0.1490;-0.3043;
737.4000;0.1400;-0.3259;
737.7000;0.1522;-0.2971;
738.0000;0.1587;-0.2851;
738.3000;0.1441;-0.3211;
738.6000;0.1506;-0.2947;
738.9000;0.1514;-0.2947;
739.2000;0.1490;-0.3019;
739.5000;0.1433;-0.3211;
739.8000;0.1628;-0.2660;
740.1000;0.1522;-0.3019;
740.4000;0.1490;-0.3091;
740.7000;0.1498;-0.3091;
741.0000;0.1522;-0.3019;
741.3000;0.1498;-0.3067;
741.6000;0.1441;-0.3306;
741.9000;0.1490;-0.3139;
742.2000;0.1538;-0.2947;
742.5000;0.1555;-0.2971;
742.8000;0.1498;-0.3115;
743.1000;0.1514;-0.3019;
743.4000;0.1604;-0.2755;
743.7000;0.1490;-0.3067;
744.0000;0.1498;-0.2995;
744.3000;0.1506;-0.3043;
744.6000;0.1481;-0.3067;
744.9000;0.1498;-0.3043;
745.2000;0.1547;-0.2827;
745.5000;0.1490;-0.2995;
745.8000;0.1506;-0.2995;
746.1000;0.1481;-0.2995;
746.4000;0.1449;-0.3091;
746.7000;0.1506;-0.2995;
747.0000;0.1481;-0.2995;
747.3000;0.1490;-0.2947;
747.6000;0.1514;-0.2971;
747.9000;0.1481;-0.3091;
748.2000;0.1555;-0.2995;
748.5000;0.1498;-0.3091;
748.8000;0.1514;-0.3067;
749.1000;0.1481;-0.3163;
749.4000;0.1530;-0.2995;
749.7000;0.1457;-0.3115;
750.0000;0.1652;-0.2636;
750.3000;0.1392;-0.3259;
750.6000;0.1522;-0.2875;
750.9000;0.1490;-0.2947;
751.2000;0.1490;-0.2995;
751.5000;0.1498;-0.2947;
751.8000;0.1433;-0.3139;
752.1000;0.1498;-0.3115;
752.4000;0.1538;-0.3139;
752.7000;0.1506;-0.3235;
753.0000;0.1498;-0.3163;
753.3000;0.1514;-0.3211;
753.6000;0.1473;-0.3283;
753.9000;0.1563;-0.2995;
754.2000;0.1514;-0.3139;
754.5000;0.1498;-0.3091;
754.8000;0.1506;-0.3019;
755.1000;0.1490;-0.3091;
755.4000;0.1514;-0.2971;
755.7000;0.1506;-0.3019;
756.0000;0.1498;-0.3019;
756.3000;0.1571;-0.2899;
756.6000;0.1498;-0.3067;
756.9000;0.1506;-0.2971;
757.2000;0.1522;-0.2923;
757.5000;0.1514;-0.2923;
757.8000;0.1481;-0.2947;
758.1000;0.1538;-0.2779;
758.4000;0.1473;-0.2947;
758.7000;0.1506;-0.2899;
759.0000;0.1514;-0.2923;
759.3000;0.1490;-0.2971;
759.6000;0.1522;-0.2923;
759.9000;0.1481;-0.2971;
760.2000;0.1449;-0.3019;
760.5000;0.1506;-0.2851;
760.8000;0.1498;-0.2851;
761.1000;0.1514;-0.2875;
761.4000;0.1538;-0.2827;
761.7000;0.1433;-0.3139;
762.0000;0.1522;-0.2899;
762.3000;0.1498;-0.2947;
762.6000;0.1498;-0.2995;
762.9000;0.1481;-0.3115;
763.2000;0.1506;-0.2971;
763.5000;0.1506;-0.2971;
763.8000;0.1490;-0.2923;
764.1000;0.1498;-0.2923;
764.4000;0.1498;-0.2947;
764.7000;0.1514;-0.2947;
765.0000;0.1473;-0.2947;
765.3000;0.1465;-0.2971;
765.6000;0.1563;-0.2707;
765.9000;0.1498;-0.2923;
766.2000;0.1563;-0.2779;
766.5000;0.1636;-0.2540;
766.8000;0.1498;-0.2947;
767.1000;0.1514;-0.2875;
767.4000;0.1530;-0.2779;
767.7000;0.1490;-0.2947;
768.0000;0.1473;-0.3019;
768.3000;0.1481;-0.2995;
768.6000;0.1522;-0.2851;
768.9000;0.1506;-0.2851;
769.2000;0.1498;-0.2899;
769.5000;0.1563;-0.2827;
769.8000;0.1490;-0.3043;
770.1000;0.1538;-0.2899;
770.4000;0.1490;-0.3067;
770.7000;0.1514;-0.2947;
771.0000;0.1522;-0.2971;
771.3000;0.1490;-0.3139;
771.6000;0.1498;-0.3139;
771.9000;0.1498;-0.3091;
772.2000;0.1490;-0.3091;
772.5000;0.1514;-0.3019;
772.8000;0.1514;-0.3067;
773.1000;0.1514;-0.3091;
773.4000;0.1490;-0.3139;
773.7000;0.1563;-0.3019;
774.0000;0.1506;-0.3091;
774.3000;0.1506;-0.3067;
774.6000;0.1490;-0.3163;
774.9000;0.1481;-0.3187;
775.2000;0.1506;-0.3139;
775.5000;0.1473;-0.3139;
775.8000;0.1506;-0.3115;
776.1000;0.1514;-0.3043;
776.4000;0.1473;-0.3163;
776.7000;0.1498;-0.3187;
777.0000;0.1473;-0.3115;
777.3000;0.1514;-0.2971;
777.6000;0.1514;-0.2971;
777.9000;0.1490;-0.3019;
778.2000;0.1506;-0.3043;
778.5000;0.1506;-0.3139;
778.8000;0.1498;-0.3115;
779.1000;0.1490;-0.3139;
779.4000;0.1514;-0.3139;
779.7000;0.1579;-0.2947;
780.0000;0.1514;-0.2995;
780.3000;0.1490;-0.3139;
780.6000;0.1498;-0.3115;
780.9000;0.1481;-0.3115;
781.2000;0.1506;-0.3139;
781.5000;0.1555;-0.2995;
781.8000;0.1522;-0.3163;
782.1000;0.1587;-0.2947;
782.4000;0.1506;-0.3187;
782.7000;0.1498;-0.3235;
783.0000;0.1481;-0.3283;
783.3000;0.1620;-0.2923;
783.6000;0.1522;-0.3139;
783.9000;0.1612;-0.2803;
784.2000;0.1490;-0.3067;
784.5000;0.1498;-0.3091;
784.8000;0.1473;-0.3235;
785.1000;0.1473;-0.3235;
785.4000;0.1473;-0.3211;
785.7000;0.1498;-0.3163;
786.0000;0.1490;-0.3235;
786.3000;0.1490;-0.3211;
786.6000;0.1506;-0.3211;
786.9000;0.1498;-0.3211;
787.2000;0.1498;-0.3163;
787.5000;0.1579;-0.2995;
787.8000;0.1506;-0.3187;
788.1000;0.1522;-0.3115;
788.4000;0.1506;-0.3187;
788.7000;0.1457;-0.3235;
789.0000;0.1571;-0.2923;
789.3000;0.1441;-0.3211;
789.6000;0.1473;-0.3091;
789.9000;0.1498;-0.3067;
790.2000;0.1449;-0.3139;
790.5000;0.1538;-0.2803;
790.8000;0.1490;-0.2971;
791.1000;0.1481;-0.2947;
791.4000;0.1490;-0.2875;
791.7000;0.1522;-0.2803;
792.0000;0.1506;-0.2875;
792.3000;0.1498;-0.2899;
792.6000;0.1571;-0.2779;
792.9000;0.1490;-0.3067;
793.2000;0.1506;-0.3067;
793.5000;0.1490;-0.3019;
793.8000;0.1506;-0.2971;
794.1000;0.1514;-0.2923;
794.4000;0.1522;-0.2995;
794.7000;0.1473;-0.3115;
795.0000;0.1481;-0.3019;
795.3000;0.1522;-0.2971;
795.6000;0.1498;-0.2971;
795.9000;0.1506;-0.2875;
796.2000;0.1506;-0.2947;
796.5000;0.1514;-0.2971;
796.8000;0.1490;-0.2947;
797.1000;0.1490;-0.2899;
797.4000;0.1506;-0.2779;
797.7000;0.1571;-0.2660;
798.0000;0.1441;-0.3067;
798.3000;0.1514;-0.2803;
798.6000;0.1522;-0.2779;
798.9000;0.1498;-0.2803;
799.2000;0.1481;-0.2923;
799.5000;0.1481;-0.2971;
799.8000;0.1457;-0.3043;
800.1000;0.1514;-0.2827;
800.4000;0.1506;-0.2875;
800.7000;0.1506;-0.2923;
801.0000;0.1481;-0.2971;
801.3000;0.1522;-0.2875;
801.6000;0.1514;-0.2899;
801.9000;0.1498;-0.2971;
802.2000;0.1506;-0.2971;
802.5000;0.1514;-0.3043;
802.8000;0.1441;-0.3235;
803.1000;0.1506;-0.3139;
803.4000;0.1514;-0.3067;
803.7000;0.1481;-0.3139;
804.0000;0.1481;-0.3019;
804.3000;0.1514;-0.2971;
804.6000;0.1506;-0.2971;
804.9000;0.1587;-0.2851;
805.2000;0.1506;-0.3019;
805.5000;0.1506;-0.2947;
805.8000;0.1571;-0.2755;
806.1000;0.1530;-0.2779;
806.4000;0.1514;-0.2827;
806.7000;0.1481;-0.2947;
807.0000;0.1490;-0.3019;
807.3000;0.1457;-0.3163;
807.6000;0.1473;-0.3067;
807.9000;0.1587;-0.2827;
808.2000;0.1547;-0.2803;
808.5000;0.1636;-0.2588;
808.8000;0.1514;-0.2971;
809.1000;0.1498;-0.2971;
809.4000;0.1555;-0.2899;
809.7000;0.1571;-0.2803;
810.0000;0.1498;-0.3019;
810.3000;0.1490;-0.3019;
810.6000;0.1506;-0.2995;
810.9000;0.1522;-0.2971;
811.2000;0.1481;-0.3043;
811.5000;0.1473;-0.3211;
811.8000;0.1473;-0.3259;
812.1000;0.1490;-0.3187;
812.4000;0.1392;-0.3402;
812.7000;0.1498;-0.3259;
813.0000;0.1490;-0.3306;
813.3000;0.1563;-0.3115;
813.6000;0.1506;-0.3163;
813.9000;0.1547;-0.3043;
814.2000;0.1498;-0.3139;
814.5000;0.1498;-0.3211;
814.8000;0.1490;-0.3283;
815.1000;0.1514;-0.3235;
815.4000;0.1384;-0.3594;
815.7000;0.1506;-0.3259;
816.0000;0.1481;-0.3306;
816.3000;0.1490;-0.3235;
816.6000;0.1506;-0.3163;
816.9000;0.1506;-0.3139;
817.2000;0.1506;-0.3259;
817.5000;0.1506;-0.3259;
817.8000;0.1498;-0.3306;
818.1000;0.1514;-0.3259;
818.4000;0.1481;-0.3259;
818.7000;0.1506;-0.3306;
819.0000;0.1514;-0.3378;
819.3000;0.1506;-0.3378;
819.6000;0.1457;-0.3402;
819.9000;0.1506;-0.3211;
820.2000;0.1498;-0.3187;
820.5000;0.1498;-0.3235;
820.8000;0.1490;-0.3187;
821.1000;0.1490;-0.3115;
821.4000;0.1498;-0.2995;
821.7000;0.1644;-0.2660;
822.0000;0.1449;-0.3139;
822.3000;0.1506;-0.3139;
822.6000;0.1498;-0.3115;
822.9000;0.1555;-0.2971;
823.2000;0.1506;-0.3091;
823.5000;0.1506;-0.3139;
823.8000;0.1498;-0.3163;
824.1000;0.1506;-0.3139;
824.4000;0.1514;-0.3211;
824.7000;0.1498;-0.3163;
825.0000;0.1490;-0.3211;
825.3000;0.1514;-0.3139;
825.6000;0.1449;-0.3283;
825.9000;0.1538;-0.3043;
826.2000;0.1530;-0.3163;
826.5000;0.1522;-0.3115;
826.8000;0.1522;-0.3211;
827.1000;0.1506;-0.3235;
827.4000;0.1465;-0.3187;
827.7000;0.1498;-0.3115;
828.0000;0.1514;-0.3067;
828.3000;0.1481;-0.3139;
828.6000;0.1433;-0.3187;
828.9000;0.1473;-0.3067;
829.2000;0.1465;-0.3019;
829.5000;0.1465;-0.3091;
829.8000;0.1514;-0.2971;
830.1000;0.1441;-0.3043;
830.4000;0.1522;-0.2779;
830.7000;0.1514;-0.2803;
831.0000;0.1522;-0.2851;
831.3000;0.1604;-0.2755;
831.6000;0.1457;-0.3139;
831.9000;0.1579;-0.2803;
832.2000;0.1481;-0.3115;
832.5000;0.1498;-0.3187;
832.8000;0.1522;-0.3139;
833.1000;0.1506;-0.3115;
833.4000;0.1498;-0.3067;
833.7000;0.1490;-0.3067;
834.0000;0.1481;-0.3067;
834.3000;0.1441;-0.3163;
834.6000;0.1490;-0.3139;
834.9000;0.1490;-0.3163;
835.2000;0.1506;-0.3115;
835.5000;0.1506;-0.3019;
835.8000;0.1506;-0.2971;
836.1000;0.1514;-0.2875;
836.4000;0.1498;-0.2947;
836.7000;0.1506;-0.2971;
837.0000;0.1514;-0.2923;
837.3000;0.1473;-0.2947;
837.6000;0.1636;-0.2420;
837.9000;0.1498;-0.2875;
838.2000;0.1498;-0.2947;
838.5000;0.1530;-0.2971;
838.8000;0.1481;-0.3139;
839.1000;0.1490;-0.3091;
839.4000;0.1571;-0.2875;
839.7000;0.1514;-0.2947;
840.0000;0.1498;-0.2947;
840.3000;0.1473;-0.3139;
840.6000;0.1433;-0.3378;
840.9000;0.1490;-0.3306;
841.2000;0.1514;-0.3187;
841.5000;0.1490;-0.3235;
841.8000;0.1490;-0.3163;
842.1000;0.1506;-0.3163;
842.4000;0.1490;-0.3235;
842.7000;0.1498;-0.3163;
843.0000;0.1465;-0.3235;
843.3000;0.1473;-0.3235;
843.6000;0.1498;-0.3187;
843.9000;0.1579;-0.3043;
844.2000;0.1441;-0.3474;
844.5000;0.1514;-0.3306;
844.8000;0.1514;-0.3211;
845.1000;0.1514;-0.3163;
845.4000;0.1473;-0.3211;
845.7000;0.1514;-0.3115;
846.0000;0.1481;-0.3163;
846.3000;0.1490;-0.3115;
846.6000;0.1473;-0.3139;
846.9000;0.1579;-0.2923;
847.2000;0.1490;-0.3211;
847.5000;0.1514;-0.3139;
847.8000;0.1579;-0.3019;
848.1000;0.1514;-0.3019;
848.4000;0.1457;-0.3187;
848.7000;0.1498;-0.3043;
849.0000;0.1506;-0.2947;
849.3000;0.1514;-0.2923;
849.6000;0.1481;-0.2995;
849.9000;0.1481;-0.3043;
850.2000;0.1514;-0.2995;
850.5000;0.1498;-0.2995;
850.8000;0.1506;-0.2971;
851.1000;0.1490;-0.2995;
851.4000;0.1490;-0.2971;
851.7000;0.1506;-0.3019;
852.0000;0.1506;-0.3067;
852.3000;0.1506;-0.3043;
852.6000;0.1506;-0.3067;
852.9000;0.1514;-0.3043;
853.2000;0.1481;-0.3043;
853.5000;0.1514;-0.2947;
853.8000;0.1514;-0.2995;
854.1000;0.1498;-0.2899;
854.4000;0.1490;-0.2923;
854.7000;0.1522;-0.2803;
855.0000;0.1506;-0.2779;
855.3000;0.1490;-0.2779;
855.6000;0.1490;-0.2803;
855.9000;0.1465;-0.2971;
856.2000;0.1441;-0.3115;
856.5000;0.1506;-0.2947;
856.8000;0.1522;-0.2971;
857.1000;0.1449;-0.3163;
857.4000;0.1498;-0.2947;
857.7000;0.1506;-0.2995;
858.0000;0.1481;-0.3043;
858.3000;0.1498;-0.2995;
858.6000;0.1530;-0.2875;
858.9000;0.1538;-0.2947;
859.2000;0.1522;-0.2947;
859.5000;0.1506;-0.3043;
859.8000;0.1514;-0.3163;
860.1000;0.1514;-0.3187;
860.4000;0.1498;-0.3163;
860.7000;0.1506;-0.3139;
861.0000;0.1490;-0.3163;
861.3000;0.1490;-0.3163;
861.6000;0.1506;-0.3067;
861.9000;0.1481;-0.3091;
862.2000;0.1490;-0.3067;
862.5000;0.1473;-0.3139;
862.8000;0.1498;-0.3139;
863.1000;0.1498;-0.3091;
863.4000;0.1522;-0.3019;
863.7000;0.1506;-0.3067;
864.0000;0.1498;-0.3067;
864.3000;0.1498;-0.3019;
864.6000;0.1490;-0.3043;
864.9000;0.1481;-0.3091;
865.2000;0.1498;-0.2971;
865.5000;0.1490;-0.2995;
865.8000;0.1490;-0.2971;
866.1000;0.1490;-0.2923;
866.4000;0.1498;-0.2995;
866.7000;0.1506;-0.2947;
867.0000;0.1490;-0.3019;
867.3000;0.1498;-0.2899;
867.6000;0.1522;-0.2875;
867.9000;0.1490;-0.2947;
868.2000;0.1490;-0.2947;
868.5000;0.1481;-0.2947;
868.8000;0.1506;-0.2923;
869.1000;0.1514;-0.2851;
869.4000;0.1490;-0.2851;
869.7000;0.1490;-0.2899;
870.0000;0.1449;-0.3019;
870.3000;0.1506;-0.2971;
870.6000;0.1481;-0.3091;
870.9000;0.1555;-0.2923;
871.2000;0.1498;-0.3091;
871.5000;0.1514;-0.3091;
871.8000;0.1481;-0.3139;
872.1000;0.1498;-0.3067;
872.4000;0.1481;-0.3091;
872.7000;0.1506;-0.3091;
873.0000;0.1506;-0.3091;
873.3000;0.1498;-0.3091;
873.6000;0.1481;-0.3139;
873.9000;0.1514;-0.3139;
874.2000;0.1481;-0.3235;
874.5000;0.1498;-0.3163;
874.8000;0.1498;-0.3187;
875.1000;0.1506;-0.3067;
875.4000;0.1514;-0.2995;
875.7000;0.1579;-0.2851;
876.0000;0.1490;-0.2995;
876.3000;0.1506;-0.2923;
876.6000;0.1498;-0.2947;
876.9000;0.1530;-0.2947;
877.2000;0.1506;-0.2923;
877.5000;0.1441;-0.3043;
877.8000;0.1498;-0.2947;
878.1000;0.1514;-0.2923;
878.4000;0.1490;-0.3043;
878.7000;0.1506;-0.3019;
879.0000;0.1514;-0.2971;
879.3000;0.1506;-0.2971;
879.6000;0.1449;-0.3187;
879.9000;0.1498;-0.2995;
880.2000;0.1506;-0.2899;
880.5000;0.1506;-0.2851;
880.8000;0.1465;-0.2995;
881.1000;0.1351;-0.3211;
881.4000;0.1473;-0.2899;
881.7000;0.1481;-0.2923;
882.0000;0.1522;-0.2827;
882.3000;0.1604;-0.2660;
882.6000;0.1506;-0.3019;
882.9000;0.1481;-0.3067;
883.2000;0.1449;-0.3163;
883.5000;0.1506;-0.3019;
883.8000;0.1547;-0.2923;
884.1000;0.1514;-0.2875;
884.4000;0.1612;-0.2612;
884.7000;0.1498;-0.2971;
885.0000;0.1506;-0.2995;
885.3000;0.1481;-0.3091;
885.6000;0.1498;-0.3043;
885.9000;0.1498;-0.3139;
886.2000;0.1441;-0.3259;
886.5000;0.1506;-0.3067;
886.8000;0.1498;-0.3115;
887.1000;0.1481;-0.3067;
887.4000;0.1490;-0.3067;
887.7000;0.1481;-0.3043;
888.0000;0.1498;-0.2947;
888.3000;0.1530;-0.2947;
888.6000;0.1490;-0.2995;
888.9000;0.1498;-0.2947;
889.2000;0.1498;-0.2995;
889.5000;0.1620;-0.2731;
889.8000;0.1506;-0.2995;
890.1000;0.1498;-0.2995;
890.4000;0.1498;-0.2971;
890.7000;0.1514;-0.2995;
891.0000;0.1620;-0.2660;
891.3000;0.1498;-0.3019;
891.6000;0.1457;-0.3163;
891.9000;0.1490;-0.2971;
892.2000;0.1506;-0.2899;
892.5000;0.1473;-0.2971;
892.8000;0.1506;-0.2923;
893.1000;0.1522;-0.2923;
893.4000;0.1490;-0.2995;
893.7000;0.1498;-0.2971;
894.0000;0.1563;-0.2827;
894.3000;0.1481;-0.3091;
894.6000;0.1384;-0.3330;
894.9000;0.1490;-0.2947;
895.2000;0.1498;-0.2923;
895.5000;0.1498;-0.2923;
895.8000;0.1498;-0.2923;
896.1000;0.1490;-0.2899;
896.4000;0.1490;-0.2851;
896.7000;0.1498;-0.2875;
897.0000;0.1425;-0.3019;
897.3000;0.1490;-0.2755;
897.6000;0.1514;-0.2612;
897.9000;0.1522;-0.2612;
898.2000;0.1425;-0.2827;
898.5000;0.1506;-0.2684;
898.8000;0.1498;-0.2707;
899.1000;0.1604;-0.2396;
899.4000;0.1490;-0.2755;
899.7000;0.1498;-0.2779;
900.0000;0.1481;-0.2779;
900.3000;0.1457;-0.2731;
900.6000;0.1473;-0.2779;
900.9000;0.1473;-0.2875;
901.2000;0.1530;-0.2731;
901.5000;0.1449;-0.2899;
901.8000;0.1506;-0.2851;
902.1000;0.1425;-0.3067;
902.4000;0.1669;-0.2348;
902.7000;0.1481;-0.2899;
903.0000;0.1490;-0.2803;
903.3000;0.1449;-0.2947;
903.6000;0.1441;-0.2971;
903.9000;0.1498;-0.2875;
904.2000;0.1514;-0.2803;
904.5000;0.1530;-0.2755;
904.8000;0.1522;-0.2684;
905.1000;0.1343;-0.3091;
905.4000;0.1408;-0.2923;
905.7000;0.1490;-0.2684;
906.0000;0.1457;-0.2707;
906.3000;0.1416;-0.2827;
906.6000;0.1490;-0.2827;
906.9000;0.1465;-0.2875;
907.2000;0.1490;-0.2803;
907.5000;0.1490;-0.2707;
907.8000;0.1457;-0.2779;
908.1000;0.1506;-0.2660;
908.4000;0.1490;-0.2684;
908.7000;0.1490;-0.2731;
909.0000;0.1490;-0.2707;
909.3000;0.1506;-0.2755;
909.6000;0.1506;-0.2803;
909.9000;0.1514;-0.2779;
910.2000;0.1490;-0.2827;
910.5000;0.1522;-0.2660;
910.8000;0.1473;-0.2755;
911.1000;0.1498;-0.2684;
911.4000;0.1498;-0.2660;
911.7000;0.1481;-0.2684;
912.0000;0.1514;-0.2612;
912.3000;0.1498;-0.2612;
912.6000;0.1498;-0.2707;
912.9000;0.1506;-0.2731;
913.2000;0.1530;-0.2731;
913.5000;0.1498;-0.2827;
913.8000;0.1514;-0.2684;
914.1000;0.1449;-0.2779;
914.4000;0.1514;-0.2684;
914.7000;0.1514;-0.2755;
915.0000;0.1449;-0.2851;
915.3000;0.1506;-0.2779;
915.6000;0.1514;-0.2779;
915.9000;0.1490;-0.2851;
916.2000;0.1490;-0.2923;
916.5000;0.1506;-0.2827;
916.8000;0.1457;-0.2947;
917.1000;0.1555;-0.2731;
917.4000;0.1465;-0.2875;
917.7000;0.1481;-0.2803;
918.0000;0.1506;-0.2803;
918.3000;0.1481;-0.2851;
918.6000;0.1514;-0.2707;
918.9000;0.1481;-0.2827;
919.2000;0.1522;-0.2684;
919.5000;0.1481;-0.2827;
919.8000;0.1498;-0.2851;
920.1000;0.1506;-0.2803;
920.4000;0.1473;-0.2899;
920.7000;0.1490;-0.2899;
921.0000;0.1473;-0.2995;
921.3000;0.1473;-0.2971;
921.6000;0.1555;-0.2731;
921.9000;0.1571;-0.2636;
922.2000;0.1506;-0.2612;
922.5000;0.1490;-0.2707;
922.8000;0.1522;-0.2684;
923.1000;0.1563;-0.2564;
923.4000;0.1498;-0.2684;
923.7000;0.1416;-0.2899;
924.0000;0.1425;-0.2899;
924.3000;0.1449;-0.2851;
924.6000;0.1473;-0.2684;
924.9000;0.1473;-0.2731;
925.2000;0.1490;-0.2803;
925.5000;0.1449;-0.2803;
925.8000;0.1506;-0.2707;
926.1000;0.1441;-0.2875;
926.4000;0.1506;-0.2731;
926.7000;0.1465;-0.2779;
927.0000;0.1506;-0.2707;
927.3000;0.1579;-0.2492;
927.6000;0.1433;-0.2875;
927.9000;0.1530;-0.2636;
928.2000;0.1530;-0.2588;
928.5000;0.1571;-0.2588;
928.8000;0.1490;-0.2731;
929.1000;0.1555;-0.2516;
929.4000;0.1498;-0.2636;
929.7000;0.1490;-0.2684;
930.0000;0.1473;-0.2731;
930.3000;0.1498;-0.2755;
930.6000;0.1522;-0.2731;
930.9000;0.1506;-0.2827;
931.2000;0.1490;-0.2899;
931.5000;0.1457;-0.3019;
931.8000;0.1481;-0.2995;
932.1000;0.1506;-0.2995;
932.4000;0.1506;-0.2923;
932.7000;0.1490;-0.2947;
933.0000;0.1490;-0.2899;
933.3000;0.1481;-0.2947;
933.6000;0.1530;-0.2875;
933.9000;0.1498;-0.2851;
934.2000;0.1498;-0.2899;
934.5000;0.1522;-0.2731;
934.8000;0.1481;-0.2779;
935.1000;0.1506;-0.2684;
935.4000;0.1490;-0.2660;
935.7000;0.1481;-0.2564;
936.0000;0.1465;-0.2660;
936.3000;0.1490;-0.2684;
936.6000;0.1514;-0.2588;
936.9000;0.1481;-0.2612;
937.2000;0.1498;-0.2660;
937.5000;0.1490;-0.2707;
937.8000;0.1384;-0.3115;
938.1000;0.1449;-0.2971;
938.4000;0.1490;-0.2755;
938.7000;0.1498;-0.2707;
939.0000;0.1563;-0.2588;
939.3000;0.1522;-0.2684;
939.6000;0.1506;-0.2731;
939.9000;0.1481;-0.2827;
940.2000;0.1449;-0.2923;
940.5000;0.1498;-0.2875;
940.8000;0.1514;-0.2755;
941.1000;0.1449;-0.2923;
941.4000;0.1506;-0.2803;
941.7000;0.1498;-0.2731;
942.0000;0.1490;-0.2731;
942.3000;0.1490;-0.2731;
942.6000;0.1522;-0.2731;
942.9000;0.1473;-0.2755;
943.2000;0.1490;-0.2779;
943.5000;0.1506;-0.2755;
943.8000;0.1465;-0.2803;
944.1000;0.1473;-0.2684;
944.4000;0.1506;-0.2516;
944.7000;0.1498;-0.2588;
945.0000;0.1481;-0.2684;
945.3000;0.1481;-0.2636;
945.6000;0.1498;-0.2564;
945.9000;0.1490;-0.2612;
946.2000;0.1547;-0.2444;
946.5000;0.1522;-0.2540;
946.8000;0.1490;-0.2684;
947.1000;0.1433;-0.2827;
947.4000;0.1506;-0.2660;
947.7000;0.1547;-0.2516;
948.0000;0.1506;-0.2684;
948.3000;0.1490;-0.2755;
948.6000;0.1465;-0.2827;
948.9000;0.1498;-0.2731;
949.2000;0.1506;-0.2755;
949.5000;0.1425;-0.2971;
949.8000;0.1490;-0.2779;
950.1000;0.1498;-0.2803;
950.4000;0.1498;-0.2779;
950.7000;0.1538;-0.2636;
951.0000;0.1506;-0.2755;
951.3000;0.1522;-0.2755;
951.6000;0.1522;-0.2779;
951.9000;0.1490;-0.2899;
952.2000;0.1490;-0.2995;
952.5000;0.1481;-0.2971;
952.8000;0.1555;-0.2707;
953.1000;0.1490;-0.2899;
953.4000;0.1506;-0.2923;
953.7000;0.1441;-0.3139;
954.0000;0.1506;-0.2899;
954.3000;0.1490;-0.2899;
954.6000;0.1506;-0.2899;
954.9000;0.1506;-0.2923;
955.2000;0.1506;-0.2899;
955.5000;0.1506;-0.2923;
955.8000;0.1506;-0.2899;
956.1000;0.1506;-0.2923;
956.4000;0.1506;-0.2923;
956.7000;0.1579;-0.2779;
957.0000;0.1498;-0.3019;
957.3000;0.1490;-0.3019;
957.6000;0.1481;-0.2923;
957.9000;0.1514;-0.2755;
958.2000;0.1490;-0.2803;
958.5000;0.1498;-0.2755;
958.8000;0.1498;-0.2851;
959.1000;0.1522;-0.2803;
959.4000;0.1481;-0.2827;
959.7000;0.1514;-0.2755;
960.0000;0.1490;-0.2923;
960.3000;0.1473;-0.2971;
960.6000;0.1522;-0.2851;
960.9000;0.1514;-0.2803;
961.2000;0.1498;-0.2827;
961.5000;0.1449;-0.3043;
961.8000;0.1587;-0.2755;
962.1000;0.1506;-0.2923;
962.4000;0.1579;-0.2779;
962.7000;0.1506;-0.2971;
963.0000;0.1465;-0.3067;
963.3000;0.1514;-0.2947;
963.6000;0.1425;-0.3091;
963.9000;0.1433;-0.3163;
964.2000;0.1514;-0.2923;
964.5000;0.1563;-0.2707;
964.8000;0.1506;-0.2923;
965.1000;0.1498;-0.3067;
965.4000;0.1481;-0.3091;
965.7000;0.1465;-0.3187;
966.0000;0.1514;-0.2971;
966.3000;0.1522;-0.2923;
966.6000;0.1522;-0.2947;
966.9000;0.1498;-0.2995;
967.2000;0.1498;-0.2971;
967.5000;0.1490;-0.2899;
967.8000;0.1498;-0.2899;
968.1000;0.1506;-0.2947;
968.4000;0.1490;-0.2995;
968.7000;0.1506;-0.2995;
969.0000;0.1490;-0.3043;
969.3000;0.1506;-0.3019;
969.6000;0.1514;-0.2875;
969.9000;0.1514;-0.2971;
970.2000;0.1555;-0.2947;
970.5000;0.1498;-0.3115;
970.8000;0.1481;-0.3139;
971.1000;0.1514;-0.3019;
971.4000;0.1514;-0.2995;
971.7000;0.1481;-0.3115;
972.0000;0.1522;-0.3115;
972.3000;0.1457;-0.3139;
972.6000;0.1506;-0.3067;
972.9000;0.1514;-0.3019;
973.2000;0.1473;-0.3067;
973.5000;0.1498;-0.2971;
973.8000;0.1522;-0.2947;
974.1000;0.1506;-0.2947;
974.4000;0.1498;-0.3019;
974.7000;0.1571;-0.2851;
975.0000;0.1506;-0.3067;
975.3000;0.1498;-0.3019;
975.6000;0.1490;-0.3091;
975.9000;0.1522;-0.3067;
976.2000;0.1506;-0.3091;
976.5000;0.1457;-0.3115;
976.8000;0.1514;-0.3019;
977.1000;0.1522;-0.2995;
977.4000;0.1465;-0.3139;
977.7000;0.1506;-0.3091;
978.0000;0.1473;-0.3139;
978.3000;0.1490;-0.3139;
978.6000;0.1481;-0.3043;
978.9000;0.1457;-0.3067;
979.2000;0.1473;-0.3019;
979.5000;0.1506;-0.2803;
979.8000;0.1522;-0.2684;
980.1000;0.1473;-0.2779;
980.4000;0.1498;-0.2779;
980.7000;0.1522;-0.2731;
981.0000;0.1514;-0.2851;
981.3000;0.1530;-0.2779;
981.6000;0.1506;-0.2803;
981.9000;0.1498;-0.2875;
982.2000;0.1530;-0.2875;
982.5000;0.1506;-0.2947;
982.8000;0.1514;-0.2923;
983.1000;0.1465;-0.2995;
983.4000;0.1514;-0.2875;
983.7000;0.1490;-0.2923;
984.0000;0.1457;-0.2995;
984.3000;0.1498;-0.2803;
984.6000;0.1506;-0.2851;
984.9000;0.1498;-0.2947;
985.2000;0.1498;-0.2923;
985.5000;0.1498;-0.2923;
985.8000;0.1481;-0.2923;
986.1000;0.1506;-0.2827;
986.4000;0.1514;-0.2899;
986.7000;0.1481;-0.2875;
987.0000;0.1506;-0.2851;
987.3000;0.1522;-0.2803;
987.6000;0.1490;-0.2827;
987.9000;0.1490;-0.2803;
988.2000;0.1498;-0.2851;
988.5000;0.1506;-0.2660;
988.8000;0.1490;-0.2660;
989.1000;0.1473;-0.2803;
989.4000;0.1457;-0.2899;
989.7000;0.1490;-0.2875;
990.0000;0.1514;-0.2851;
990.3000;0.1490;-0.2947;
990.6000;0.1506;-0.2875;
990.9000;0.1490;-0.2899;
991.2000;0.1498;-0.2947;
991.5000;0.1481;-0.2923;
991.8000;0.1506;-0.2779;
992.1000;0.1481;-0.2875;
992.4000;0.1522;-0.2731;
992.7000;0.1506;-0.2923;
993.0000;0.1498;-0.2995;
993.3000;0.1481;-0.3139;
993.6000;0.1506;-0.3043;
993.9000;0.1498;-0.3043;
994.2000;0.1514;-0.2923;
994.5000;0.1376;-0.3354;
994.8000;0.1490;-0.3019;
995.1000;0.1506;-0.3091;
995.4000;0.1506;-0.3067;
995.7000;0.1506;-0.3043;
996.0000;0.1481;-0.3091;
996.3000;0.1473;-0.3091;
996.6000;0.1490;-0.3043;
996.9000;0.1506;-0.3067;
997.2000;0.1473;-0.3187;
997.5000;0.1481;-0.3091;
997.8000;0.1506;-0.3043;
998.1000;0.1490;-0.3043;
998.4000;0.1506;-0.3043;
998.7000;0.1473;-0.3067;
999.0000;0.1490;-0.3019;
999.3000;0.1555;-0.2779;
999.6000;0.1506;-0.2899;
999.9000;0.1506;-0.2947;
1000.2000;0.1571;-0.2851;
1000.5000;0.1490;-0.3019;
1000.8000;0.1506;-0.3043;
1001.1000;0.1514;-0.2995;
1001.4000;0.1498;-0.2995;
1001.7000;0.1604;-0.2707;
1002.0000;0.1498;-0.2947;
1002.3000;0.1441;-0.3163;
1002.6000;0.1522;-0.2971;
1002.9000;0.1522;-0.2875;
1003.2000;0.1514;-0.2899;
1003.5000;0.1473;-0.2995;
1003.8000;0.1506;-0.3019;
1004.1000;0.1514;-0.3019;
1004.4000;0.1498;-0.3091;
1004.7000;0.1498;-0.3163;
1005.0000;0.1490;-0.3163;
1005.3000;0.1490;-0.3091;
1005.6000;0.1506;-0.2947;
1005.9000;0.1506;-0.2923;
1006.2000;0.1473;-0.2947;
1006.5000;0.1490;-0.2947;
1006.8000;0.1522;-0.2923;
1007.1000;0.1481;-0.3019;
1007.4000;0.1530;-0.2899;
1007.7000;0.1498;-0.3043;
1008.0000;0.1506;-0.2971;
1008.3000;0.1498;-0.2995;
1008.6000;0.1490;-0.3043;
1008.9000;0.1490;-0.3019;
1009.2000;0.1555;-0.2803;
1009.5000;0.1498;-0.2899;
1009.8000;0.1506;-0.2899;
1010.1000;0.1514;-0.2899;
1010.4000;0.1490;-0.2995;
1010.7000;0.1498;-0.2995;
1011.0000;0.1473;-0.3043;
1011.3000;0.1490;-0.2995;
1011.6000;0.1473;-0.3043;
1011.9000;0.1514;-0.2971;
1012.2000;0.1465;-0.3115;
1012.5000;0.1490;-0.3043;
1012.8000;0.1416;-0.3283;
1013.1000;0.1481;-0.3139;
1013.4000;0.1498;-0.3115;
1013.7000;0.1376;-0.3474;
1014.0000;0.1490;-0.3163;
1014.3000;0.1506;-0.3091;
1014.6000;0.1498;-0.3043;
1014.9000;0.1498;-0.3067;
1015.2000;0.1506;-0.3043;
1015.5000;0.1506;-0.3043;
1015.8000;0.1490;-0.3043;
1016.1000;0.1506;-0.2947;
1016.4000;0.1514;-0.2995;
1016.7000;0.1490;-0.3019;
1017.0000;0.1498;-0.3043;
1017.3000;0.1514;-0.2995;
1017.6000;0.1514;-0.2995;
1017.9000;0.1498;-0.2923;
1018.2000;0.1555;-0.2803;
1018.5000;0.1506;-0.2995;
1018.8000;0.1514;-0.2971;
1019.1000;0.1506;-0.3019;
1019.4000;0.1498;-0.2995;
1019.7000;0.1506;-0.3019;
1020.0000;0.1498;-0.2971;
1020.3000;0.1547;-0.2875;
1020.6000;0.1514;-0.2947;
1020.9000;0.1506;-0.2947;
1021.2000;0.1538;-0.2923;
1021.5000;0.1481;-0.3163;
1021.8000;0.1506;-0.3091;
1022.1000;0.1538;-0.2995;
1022.4000;0.1498;-0.3091;
1022.7000;0.1408;-0.3306;
1023.0000;0.1392;-0.3330;
1023.3000;0.1514;-0.3019;
1023.6000;0.1506;-0.2971;
1023.9000;0.1490;-0.2995;
1024.2000;0.1538;-0.2947;
1024.5000;0.1490;-0.3019;
1024.8000;0.1579;-0.2803;
1025.1000;0.1498;-0.3115;
1025.4000;0.1514;-0.3091;
1025.7000;0.1498;-0.2995;
1026.0000;0.1498;-0.3067;
1026.3000;0.1449;-0.3139;
1026.6000;0.1498;-0.2923;
1026.9000;0.1498;-0.2827;
1027.2000;0.1473;-0.2875;
1027.5000;0.1506;-0.2755;
1027.8000;0.1506;-0.2684;
1028.1000;0.1490;-0.2612;
1028.4000;0.1498;-0.2612;
1028.7000;0.1490;-0.2707;
1029.0000;0.1522;-0.2612;
1029.3000;0.1498;-0.2779;
1029.6000;0.1498;-0.2731;
1029.9000;0.1522;-0.2755;
1030.2000;0.1481;-0.2923;
1030.5000;0.1490;-0.2803;
1030.8000;0.1425;-0.2923;
1031.1000;0.1506;-0.2707;
1031.4000;0.1490;-0.2660;
1031.7000;0.1506;-0.2660;
1032.0000;0.1530;-0.2588;
1032.3000;0.1498;-0.2707;
1032.6000;0.1506;-0.2684;
1032.9000;0.1481;-0.2755;
1033.2000;0.1514;-0.2731;
1033.5000;0.1498;-0.2755;
1033.8000;0.1604;-0.2372;
1034.1000;0.1441;-0.2779;
1034.4000;0.1530;-0.2612;
1034.7000;0.1506;-0.2684;
1035.0000;0.1490;-0.2731;
1035.3000;0.1490;-0.2707;
1035.6000;0.1490;-0.2851;
1035.9000;0.1498;-0.2827;
1036.2000;0.1506;-0.2851;
1036.5000;0.1506;-0.2803;
1036.8000;0.1579;-0.2588;
1037.1000;0.1473;-0.2827;
1037.4000;0.1498;-0.2803;
1037.7000;0.1481;-0.2851;
1038.0000;0.1506;-0.2755;
1038.3000;0.1506;-0.2827;
1038.6000;0.1473;-0.2923;
1038.9000;0.1522;-0.2731;
1039.2000;0.1530;-0.2684;
1039.5000;0.1490;-0.2707;
1039.8000;0.1498;-0.2684;
1040.1000;0.1506;-0.2684;
1040.4000;0.1530;-0.2684;
1040.7000;0.1506;-0.2779;
1041.0000;0.1498;-0.2827;
1041.3000;0.1514;-0.2779;
1041.6000;0.1506;-0.2923;
1041.9000;0.1522;-0.2851;
1042.2000;0.1538;-0.2731;
1042.5000;0.1465;-0.2875;
1042.8000;0.1530;-0.2755;
1043.1000;0.1506;-0.2827;
1043.4000;0.1433;-0.2995;
1043.7000;0.1522;-0.2779;
1044.0000;0.1490;-0.2899;
1044.3000;0.1490;-0.2899;
1044.6000;0.1498;-0.2947;
1044.9000;0.1481;-0.2923;
1045.2000;0.1481;-0.2923;
1045.5000;0.1490;-0.2947;
1045.8000;0.1457;-0.2995;
1046.1000;0.1514;-0.2803;
1046.4000;0.1481;-0.2971;
1046.7000;0.1498;-0.2875;
1047.0000;0.1522;-0.2803;
1047.3000;0.1449;-0.2995;
1047.6000;0.1522;-0.2779;
1047.9000;0.1457;-0.3019;
1048.2000;0.1490;-0.2899;
1048.5000;0.1522;-0.2899;
1048.8000;0.1530;-0.2875;
1049.1000;0.1506;-0.3043;
1049.4000;0.1498;-0.2995;
1049.7000;0.1571;-0.2755;
1050.0000;0.1498;-0.2875;
1050.3000;0.1392;-0.3139;
1050.6000;0.1514;-0.2779;
1050.9000;0.1522;-0.2731;
1051.2000;0.1368;-0.3163;
1051.5000;0.1498;-0.2875;
1051.8000;0.1498;-0.2923;
1052.1000;0.1506;-0.2803;
1052.4000;0.1514;-0.2755;
1052.7000;0.1498;-0.2755;
1053.0000;0.1506;-0.2731;
1053.3000;0.1514;-0.2755;
1053.6000;0.1490;-0.2779;
1053.9000;0.1490;-0.2755;
1054.2000;0.1490;-0.2731;
1054.5000;0.1514;-0.2755;
1054.8000;0.1473;-0.2827;
1055.1000;0.1498;-0.2660;
1055.4000;0.1506;-0.2636;
1055.7000;0.1506;-0.2612;
1056.0000;0.1522;-0.2612;
1056.3000;0.1522;-0.2564;
1056.6000;0.1514;-0.2660;
1056.9000;0.1490;-0.2755;
1057.2000;0.1538;-0.2731;
1057.5000;0.1522;-0.2779;
1057.8000;0.1644;-0.2612;
1058.1000;0.1490;-0.2875;
1058.4000;0.1506;-0.2875;
1058.7000;0.1465;-0.2947;
1059.0000;0.1416;-0.3139;
1059.3000;0.1514;-0.2899;
1059.6000;0.1490;-0.2875;
1059.9000;0.1449;-0.2899;
1060.2000;0.1481;-0.2923;
1060.5000;0.1465;-0.2947;
1060.8000;0.1514;-0.2827;
1061.1000;0.1490;-0.2827;
1061.4000;0.1530;-0.2803;
1061.7000;0.1490;-0.2923;
1062.0000;0.1506;-0.2947;
1062.3000;0.1644;-0.2588;
1062.6000;0.1490;-0.3043;
1062.9000;0.1490;-0.3067;
1063.2000;0.1498;-0.3091;
1063.5000;0.1522;-0.3115;
1063.8000;0.1498;-0.3187;
1064.1000;0.1579;-0.2875;
1064.4000;0.1498;-0.3139;
1064.7000;0.1481;-0.3163;
1065.0000;0.1490;-0.3091;
1065.3000;0.1473;-0.3115;
1065.6000;0.1481;-0.3067;
1065.9000;0.1481;-0.3091;
1066.2000;0.1506;-0.3019;
1066.5000;0.1506;-0.3067;
1066.8000;0.1506;-0.3019;
1067.1000;0.1506;-0.3043;
1067.4000;0.1506;-0.3067;
1067.7000;0.1473;-0.3139;
1068.0000;0.1506;-0.3067;
1068.3000;0.1498;-0.3115;
1068.6000;0.1514;-0.2971;
1068.9000;0.1514;-0.2875;
1069.2000;0.1498;-0.2995;
1069.5000;0.1506;-0.3043;
1069.8000;0.1490;-0.3139;
1070.1000;0.1498;-0.3091;
1070.4000;0.1384;-0.3426;
1070.7000;0.1522;-0.3019;
1071.0000;0.1449;-0.3283;
1071.3000;0.1604;-0.2875;
1071.6000;0.1506;-0.3163;
1071.9000;0.1441;-0.3354;
1072.2000;0.1506;-0.3091;
1072.5000;0.1595;-0.2875;
1072.8000;0.1465;-0.3306;
1073.1000;0.1498;-0.3211;
1073.4000;0.1506;-0.3235;
1073.7000;0.1506;-0.3163;
1074.0000;0.1506;-0.3139;
1074.3000;0.1490;-0.3139;
1074.6000;0.1506;-0.3043;
1074.9000;0.1498;-0.3091;
1075.2000;0.1498;-0.3115;
1075.5000;0.1498;-0.3139;
1075.8000;0.1481;-0.3139;
1076.1000;0.1490;-0.3043;
1076.4000;0.1522;-0.3019;
1076.7000;0.1563;-0.3019;
1077.0000;0.1490;-0.3187;
1077.3000;0.1490;-0.3163;
1077.6000;0.1498;-0.3163;
1077.9000;0.1506;-0.3139;
1078.2000;0.1498;-0.3139;
1078.5000;0.1514;-0.3115;
1078.8000;0.1514;-0.2995;
1079.1000;0.1481;-0.3091;
1079.4000;0.1473;-0.3115;
1079.7000;0.1498;-0.3091;
1080.0000;0.1465;-0.3235;
1080.3000;0.1514;-0.3139;
1080.6000;0.1498;-0.3235;
1080.9000;0.1481;-0.3259;
1081.2000;0.1498;-0.3091;
1081.5000;0.1481;-0.3115;
1081.8000;0.1490;-0.3019;
1082.1000;0.1473;-0.3043;
1082.4000;0.1506;-0.2971;
1082.7000;0.1481;-0.3067;
1083.0000;0.1498;-0.3043;
1083.3000;0.1481;-0.3211;
1083.6000;0.1555;-0.2995;
1083.9000;0.1506;-0.3067;
1084.2000;0.1473;-0.3139;
1084.5000;0.1514;-0.3139;
1084.8000;0.1498;-0.3091;
1085.1000;0.1498;-0.3067;
1085.4000;0.1514;-0.3067;
1085.7000;0.1498;-0.3139;
1086.0000;0.1506;-0.3091;
1086.3000;0.1514;-0.2995;
1086.6000;0.1498;-0.3091;
1086.9000;0.1530;-0.2923;
1087.2000;0.1498;-0.2971;
1087.5000;0.1490;-0.2971;
1087.8000;0.1490;-0.2995;
1088.1000;0.1473;-0.3067;
1088.4000;0.1481;-0.3067;
1088.7000;0.1506;-0.2995;
1089.0000;0.1498;-0.3019;
1089.3000;0.1514;-0.2995;
1089.6000;0.1506;-0.2947;
1089.9000;0.1514;-0.2899;
1090.2000;0.1498;-0.2947;
1090.5000;0.1490;-0.2947;
1090.8000;0.1514;-0.2947;
1091.1000;0.1498;-0.2803;
1091.4000;0.1498;-0.2803;
1091.7000;0.1530;-0.2707;
1092.0000;0.1522;-0.2827;
1092.3000;0.1506;-0.2899;
1092.6000;0.1490;-0.3043;
1092.9000;0.1498;-0.3019;
1093.2000;0.1514;-0.2923;
1093.5000;0.1506;-0.2923;
1093.8000;0.1490;-0.2947;
1094.1000;0.1498;-0.3019;
1094.4000;0.1563;-0.2827;
1094.7000;0.1490;-0.3115;
1095.0000;0.1498;-0.3139;
1095.3000;0.1465;-0.3283;
1095.6000;0.1514;-0.3163;
1095.9000;0.1490;-0.3187;
1096.2000;0.1538;-0.3091;
1096.5000;0.1514;-0.3091;
1096.8000;0.1465;-0.3091;
1097.1000;0.1563;-0.3019;
1097.4000;0.1498;-0.3211;
1097.7000;0.1449;-0.3306;
1098.0000;0.1522;-0.3163;
1098.3000;0.1473;-0.3306;
1098.6000;0.1522;-0.3163;
1098.9000;0.1481;-0.3211;
1099.2000;0.1490;-0.3163;
1099.5000;0.1425;-0.3306;
1099.8000;0.1498;-0.3067;
1100.1000;0.1498;-0.3043;
1100.4000;0.1490;-0.3091;
1100.7000;0.1498;-0.3091;
1101.0000;0.1506;-0.3091;
1101.3000;0.1490;-0.3115;
1101.6000;0.1359;-0.3426;
1101.9000;0.1490;-0.3139;
1102.2000;0.1481;-0.3259;
1102.5000;0.1514;-0.3211;
1102.8000;0.1498;-0.3139;
1103.1000;0.1416;-0.3259;
1103.4000;0.1490;-0.3115;
1103.7000;0.1498;-0.3115;
1104.0000;0.1473;-0.3067;
1104.3000;0.1481;-0.2947;
1104.6000;0.1522;-0.2827;
1104.9000;0.1408;-0.3139;
1105.2000;0.1441;-0.3139;
1105.5000;0.1498;-0.3019;
1105.8000;0.1498;-0.3019;
1106.1000;0.1490;-0.3067;
1106.4000;0.1506;-0.3067;
1106.7000;0.1473;-0.3091;
1107.0000;0.1481;-0.3187;
1107.3000;0.1506;-0.3115;
1107.6000;0.1498;-0.3091;
1107.9000;0.1498;-0.3091;
1108.2000;0.1506;-0.3043;
1108.5000;0.1498;-0.3067;
1108.8000;0.1506;-0.3067;
1109.1000;0.1530;-0.3019;
1109.4000;0.1498;-0.3163;
1109.7000;0.1522;-0.3115;
1110.0000;0.1498;-0.3163;
1110.3000;0.1522;-0.3139;
1110.6000;0.1506;-0.3043;
1110.9000;0.1514;-0.2995;
1111.2000;0.1490;-0.3043;
1111.5000;0.1498;-0.3115;
1111.8000;0.1490;-0.3139;
1112.1000;0.1433;-0.3235;
1112.4000;0.1425;-0.3354;
1112.7000;0.1547;-0.2971;
1113.0000;0.1498;-0.3115;
1113.3000;0.1514;-0.3115;
1113.6000;0.1498;-0.3139;
1113.9000;0.1514;-0.3091;
1114.2000;0.1506;-0.3235;
1114.5000;0.1498;-0.3283;
1114.8000;0.1644;-0.2875;
1115.1000;0.1481;-0.3330;
1115.4000;0.1506;-0.3211;
1115.7000;0.1498;-0.3235;
1116.0000;0.1506;-0.3211;
1116.3000;0.1514;-0.3211;
1116.6000;0.1465;-0.3354;
1116.9000;0.1498;-0.3235;
1117.2000;0.1473;-0.3306;
1117.5000;0.1490;-0.3306;
1117.8000;0.1498;-0.3211;
1118.1000;0.1498;-0.3283;
1118.4000;0.1392;-0.3546;
1118.7000;0.1457;-0.3426;
1119.0000;0.1498;-0.3235;
1119.3000;0.1506;-0.3235;
1119.6000;0.1481;-0.3259;
1119.9000;0.1498;-0.3211;
1120.2000;0.1571;-0.2971;
1120.5000;0.1506;-0.3187;
1120.8000;0.1490;-0.3139;
1121.1000;0.1547;-0.2995;
1121.4000;0.1530;-0.3043;
1121.7000;0.1498;-0.3115;
1122.0000;0.1514;-0.3091;
1122.3000;0.1522;-0.3019;
1122.6000;0.1522;-0.3115;
1122.9000;0.1506;-0.3163;
1123.2000;0.1498;-0.3235;
1123.5000;0.1514;-0.3235;
1123.8000;0.1506;-0.3211;
1124.1000;0.1473;-0.3235;
1124.4000;0.1490;-0.3115;
1124.7000;0.1465;-0.3211;
1125.0000;0.1465;-0.3211;
1125.3000;0.1506;-0.3163;
1125.6000;0.1490;-0.3211;
1125.9000;0.1408;-0.3426;
1126.2000;0.1571;-0.2899;
1126.5000;0.1506;-0.3019;
1126.8000;0.1481;-0.3163;
1127.1000;0.1359;-0.3522;
1127.4000;0.1481;-0.3211;
1127.7000;0.1547;-0.3067;
1128.0000;0.1514;-0.3187;
1128.3000;0.1530;-0.3091;
1128.6000;0.1514;-0.2971;
1128.9000;0.1457;-0.3067;
1129.2000;0.1416;-0.3306;
1129.5000;0.1498;-0.3115;
1129.8000;0.1506;-0.3043;
1130.1000;0.1506;-0.3115;
1130.4000;0.1433;-0.3283;
1130.7000;0.1498;-0.3163;
1131.0000;0.1506;-0.3187;
1131.3000;0.1498;-0.3187;
1131.6000;0.1490;-0.3235;
1131.9000;0.1490;-0.3139;
1132.2000;0.1514;-0.3019;
1132.5000;0.1490;-0.3043;
1132.8000;0.1514;-0.2899;
1133.1000;0.1587;-0.2684;
1133.4000;0.1498;-0.2851;
1133.7000;0.1490;-0.2947;
1134.0000;0.1506;-0.2947;
1134.3000;0.1522;-0.2947;
1134.6000;0.1490;-0.3067;
1134.9000;0.1490;-0.3043;
1135.2000;0.1506;-0.3067;
1135.5000;0.1465;-0.3139;
1135.8000;0.1481;-0.3091;
1136.1000;0.1506;-0.3067;
1136.4000;0.1490;-0.3187;
1136.7000;0.1555;-0.3019;
1137.0000;0.1522;-0.3091;
1137.3000;0.1498;-0.3163;
1137.6000;0.1506;-0.3187;
1137.9000;0.1490;-0.3163;
1138.2000;0.1514;-0.2947;
1138.5000;0.1514;-0.3019;
1138.8000;0.1506;-0.2971;
1139.1000;0.1490;-0.3067;
1139.4000;0.1481;-0.3115;
1139.7000;0.1506;-0.3019;
1140.0000;0.1506;-0.2971;
1140.3000;0.1490;-0.2947;
1140.6000;0.1481;-0.2923;
1140.9000;0.1538;-0.2755;
1141.2000;0.1490;-0.2803;
1141.5000;0.1481;-0.2827;
1141.8000;0.1506;-0.2851;
1142.1000;0.1555;-0.2779;
1142.4000;0.1498;-0.2923;
1142.7000;0.1514;-0.2947;
1143.0000;0.1506;-0.2827;
1143.3000;0.1506;-0.2755;
1143.6000;0.1481;-0.2827;
1143.9000;0.1563;-0.2660;
1144.2000;0.1498;-0.2755;
1144.5000;0.1481;-0.2731;
1144.8000;0.1604;-0.2444;
1145.1000;0.1498;-0.2779;
1145.4000;0.1490;-0.2803;
1145.7000;0.1506;-0.2779;
1146.0000;0.1514;-0.2803;
1146.3000;0.1498;-0.2851;
1146.6000;0.1465;-0.2995;
1146.9000;0.1490;-0.2899;
1147.2000;0.1490;-0.2923;
1147.5000;0.1538;-0.2923;
1147.8000;0.1465;-0.3067;
1148.1000;0.1490;-0.3019;
1148.4000;0.1514;-0.2923;
1148.7000;0.1547;-0.2827;
1149.0000;0.1514;-0.2971;
1149.3000;0.1522;-0.2995;
1149.6000;0.1506;-0.2995;
1149.9000;0.1433;-0.3115;
1150.2000;0.1498;-0.3019;
1150.5000;0.1498;-0.3043;
1150.8000;0.1473;-0.3019;
1151.1000;0.1506;-0.2923;
1151.4000;0.1506;-0.2875;
1151.7000;0.1498;-0.2899;
1152.0000;0.1579;-0.2731;
1152.3000;0.1481;-0.2947;
1152.6000;0.1498;-0.2947;
1152.9000;0.1490;-0.2899;
1153.2000;0.1490;-0.2947;
1153.5000;0.1506;-0.2899;
1153.8000;0.1490;-0.2947;
1154.1000;0.1490;-0.2995;
1154.4000;0.1522;-0.2947;
1154.7000;0.1514;-0.2995;
1155.0000;0.1514;-0.2995;
1155.3000;0.1481;-0.3115;
1155.6000;0.1490;-0.3091;
1155.9000;0.1498;-0.3091;
1156.2000;0.1522;-0.3019;
1156.5000;0.1506;-0.3019;
1156.8000;0.1506;-0.2947;
1157.1000;0.1481;-0.2971;
1157.4000;0.1514;-0.2827;
1157.7000;0.1498;-0.2899;
1158.0000;0.1514;-0.2923;
1158.3000;0.1481;-0.2947;
1158.6000;0.1514;-0.2899;
1158.9000;0.1506;-0.2947;
1159.2000;0.1514;-0.2947;
1159.5000;0.1498;-0.2899;
1159.8000;0.1506;-0.2875;
1160.1000;0.1498;-0.2899;
1160.4000;0.1538;-0.2779;
1160.7000;0.1498;-0.2875;
1161.0000;0.1498;-0.2851;
1161.3000;0.1514;-0.2803;
1161.6000;0.1408;-0.3067;
1161.9000;0.1490;-0.2875;
1162.2000;0.1481;-0.2971;
1162.5000;0.1465;-0.3139;
1162.8000;0.1506;-0.3091;
1163.1000;0.1481;-0.3211;
1163.4000;0.1563;-0.2947;
1163.7000;0.1498;-0.3187;
1164.0000;0.1498;-0.3115;
1164.3000;0.1441;-0.3211;
1164.6000;0.1490;-0.3019;
1164.9000;0.1530;-0.2875;
1165.2000;0.1547;-0.2875;
1165.5000;0.1530;-0.3067;
1165.8000;0.1506;-0.3139;
1166.1000;0.1465;-0.3259;
1166.4000;0.1514;-0.3163;
1166.7000;0.1441;-0.3330;
1167.0000;0.1522;-0.3211;
1167.3000;0.1530;-0.3187;
1167.6000;0.1506;-0.3139;
1167.9000;0.1506;-0.3163;
1168.2000;0.1490;-0.3211;
1168.5000;0.1408;-0.3402;
1168.8000;0.1514;-0.3067;
1169.1000;0.1498;-0.3139;
1169.4000;0.1506;-0.3019;
1169.7000;0.1506;-0.2947;
1170.0000;0.1465;-0.3091;
1170.3000;0.1522;-0.2923;
1170.6000;0.1506;-0.2995;
1170.9000;0.1530;-0.3019;
1171.2000;0.1481;-0.3139;
1171.5000;0.1506;-0.3091;
1171.8000;0.1506;-0.3091;
1172.1000;0.1490;-0.3187;
1172.4000;0.1490;-0.3211;
1172.7000;0.1547;-0.3067;
1173.0000;0.1498;-0.3163;
1173.3000;0.1498;-0.3235;
1173.6000;0.1490;-0.3187;
1173.9000;0.1506;-0.3043;
1174.2000;0.1506;-0.2995;
1174.5000;0.1514;-0.2971;
1174.8000;0.1498;-0.2947;
1175.1000;0.1530;-0.2947;
1175.4000;0.1481;-0.3043;
1175.7000;0.1498;-0.2995;
1176.0000;0.1449;-0.3115;
1176.3000;0.1498;-0.2923;
1176.6000;0.1498;-0.2995;
1176.9000;0.1514;-0.2995;
1177.2000;0.1506;-0.3043;
1177.5000;0.1498;-0.3115;
1177.8000;0.1490;-0.3091;
1178.1000;0.1514;-0.3019;
1178.4000;0.1506;-0.3115;
1178.7000;0.1481;-0.3235;
1179.0000;0.1490;-0.3211;
1179.3000;0.1481;-0.3211;
1179.6000;0.1522;-0.3067;
1179.9000;0.1506;-0.3043;
1180.2000;0.1514;-0.2971;
1180.5000;0.1514;-0.2899;
1180.8000;0.1506;-0.2875;
1181.1000;0.1514;-0.2779;
1181.4000;0.1498;-0.2875;
1181.7000;0.1490;-0.2947;
1182.0000;0.1490;-0.2995;
1182.3000;0.1498;-0.2995;
1182.6000;0.1498;-0.2923;
1182.9000;0.1498;-0.2875;
1183.2000;0.1481;-0.2971;
1183.5000;0.1498;-0.2971;
1183.8000;0.1498;-0.2995;
1184.1000;0.1498;-0.2995;
1184.4000;0.1490;-0.3019;
1184.7000;0.1506;-0.2923;
1185.0000;0.1522;-0.2851;
1185.3000;0.1506;-0.2947;
1185.6000;0.1522;-0.2995;
1185.9000;0.1481;-0.3019;
1186.2000;0.1530;-0.2923;
1186.5000;0.1490;-0.3043;
1186.8000;0.1498;-0.2995;
1187.1000;0.1563;-0.2875;
1187.4000;0.1392;-0.3259;
1187.7000;0.1636;-0.2612;
1188.0000;0.1522;-0.2947;
1188.3000;0.1457;-0.3139;
1188.6000;0.1506;-0.2995;
1188.9000;0.1530;-0.2923;
1189.2000;0.1481;-0.3043;
1189.5000;0.1587;-0.2827;
1189.8000;0.1384;-0.3306;
1190.1000;0.1481;-0.3091;
1190.4000;0.1514;-0.3019;
1190.7000;0.1571;-0.2875;
1191.0000;0.1384;-0.3259;
1191.3000;0.1490;-0.2971;
1191.6000;0.1498;-0.3043;
1191.9000;0.1514;-0.2923;
1192.2000;0.1538;-0.2827;
1192.5000;0.1506;-0.2803;
1192.8000;0.1514;-0.2755;
1193.1000;0.1449;-0.3019;
1193.4000;0.1498;-0.2851;
1193.7000;0.1530;-0.2779;
1194.0000;0.1473;-0.2995;
1194.3000;0.1473;-0.2947;
1194.6000;0.1498;-0.2875;
1194.9000;0.1498;-0.2899;
1195.2000;0.1481;-0.2947;
1195.5000;0.1490;-0.2899;
1195.8000;0.1481;-0.2875;
1196.1000;0.1498;-0.2875;
1196.4000;0.1514;-0.2899;
1196.7000;0.1530;-0.2875;
1197.0000;0.1514;-0.2899;
1197.3000;0.1514;-0.2971;
1197.6000;0.1506;-0.3019;
1197.9000;0.1506;-0.3067;
1198.2000;0.1490;-0.3115;
1198.5000;0.1498;-0.3115;
1198.8000;0.1481;-0.3163;
1199.1000;0.1522;-0.3067;
1199.4000;0.1481;-0.3211;
1199.7000;0.1506;-0.3139;
1200.0000;0.1473;-0.3235;
1200.3000;0.1514;-0.3115;
1200.6000;0.1481;-0.3115;
1200.9000;0.1481;-0.3139;
1201.2000;0.1498;-0.3091;
1201.5000;0.1506;-0.3091;
1201.8000;0.1514;-0.3043;
1202.1000;0.1490;-0.3163;
1202.4000;0.1506;-0.3187;
1202.7000;0.1522;-0.3139;
1203.0000;0.1514;-0.3163;
1203.3000;0.1506;-0.3091;
1203.6000;0.1506;-0.2995;
1203.9000;0.1514;-0.2899;
1204.2000;0.1506;-0.2899;
1204.5000;0.1547;-0.2684;
1204.8000;0.1498;-0.2923;
1205.1000;0.1506;-0.3019;
1205.4000;0.1506;-0.3091;
1205.7000;0.1506;-0.3139;
1206.0000;0.1481;-0.3115;
1206.3000;0.1498;-0.2971;
1206.6000;0.1514;-0.2923;
1206.9000;0.1498;-0.2947;
1207.2000;0.1498;-0.2923;
1207.5000;0.1490;-0.3019;
1207.8000;0.1481;-0.3067;
1208.1000;0.1498;-0.3019;
1208.4000;0.1490;-0.3091;
1208.7000;0.1538;-0.2995;
1209.0000;0.1514;-0.3139;
1209.3000;0.1514;-0.3306;
1209.6000;0.1481;-0.3402;
1209.9000;0.1514;-0.3283;
1210.2000;0.1490;-0.3330;
1210.5000;0.1498;-0.3306;
1210.8000;0.1498;-0.3306;
1211.1000;0.1555;-0.3115;
1211.4000;0.1498;-0.3211;
1211.7000;0.1498;-0.3259;
1212.0000;0.1490;-0.3402;
1212.3000;0.1449;-0.3498;
1212.6000;0.1490;-0.3402;
1212.9000;0.1506;-0.3450;
1213.2000;0.1490;-0.3402;
1213.5000;0.1506;-0.3283;
1213.8000;0.1628;-0.3019;
1214.1000;0.1481;-0.3306;
1214.4000;0.1473;-0.3306;
1214.7000;0.1579;-0.2947;
1215.0000;0.1473;-0.3211;
1215.3000;0.1465;-0.3115;
1215.6000;0.1498;-0.3091;
1215.9000;0.1506;-0.3163;
1216.2000;0.1498;-0.3283;
1216.5000;0.1490;-0.3283;
1216.8000;0.1522;-0.3115;
1217.1000;0.1498;-0.3187;
1217.4000;0.1481;-0.3330;
1217.7000;0.1433;-0.3402;
1218.0000;0.1506;-0.3139;
1218.3000;0.1506;-0.3115;
1218.6000;0.1498;-0.3187;
1218.9000;0.1506;-0.3211;
1219.2000;0.1522;-0.3115;
1219.5000;0.1514;-0.3187;
1219.8000;0.1506;-0.3259;
1220.1000;0.1498;-0.3187;
1220.4000;0.1498;-0.3067;
1220.7000;0.1604;-0.2803;
1221.0000;0.1522;-0.2971;
1221.3000;0.1490;-0.3067;
1221.6000;0.1490;-0.3091;
1221.9000;0.1506;-0.3043;
1222.2000;0.1522;-0.2995;
1222.5000;0.1490;-0.3043;
1222.8000;0.1498;-0.3019;
1223.1000;0.1514;-0.2923;
1223.4000;0.1498;-0.2971;
1223.7000;0.1522;-0.2899;
1224.0000;0.1514;-0.2827;
1224.3000;0.1490;-0.2947;
1224.6000;0.1506;-0.2995;
1224.9000;0.1522;-0.2923;
1225.2000;0.1481;-0.2995;
1225.5000;0.1538;-0.2755;
1225.8000;0.1498;-0.2923;
1226.1000;0.1538;-0.2827;
1226.4000;0.1522;-0.2923;
1226.7000;0.1506;-0.3067;
1227.0000;0.1498;-0.3139;
1227.3000;0.1506;-0.3163;
1227.6000;0.1498;-0.3139;
1227.9000;0.1522;-0.3019;
1228.2000;0.1506;-0.2995;
1228.5000;0.1506;-0.2995;
1228.8000;0.1498;-0.3067;
1229.1000;0.1481;-0.3163;
1229.4000;0.1506;-0.3139;
1229.7000;0.1449;-0.3259;
1230.0000;0.1481;-0.3115;
1230.3000;0.1530;-0.2947;
1230.6000;0.1473;-0.3115;
1230.9000;0.1514;-0.2971;
1231.2000;0.1498;-0.2995;
1231.5000;0.1490;-0.3067;
1231.8000;0.1490;-0.3019;
1232.1000;0.1514;-0.2875;
1232.4000;0.1498;-0.2971;
1232.7000;0.1498;-0.2947;
1233.0000;0.1522;-0.2875;
1233.3000;0.1425;-0.3187;
1233.6000;0.1563;-0.2755;
1233.9000;0.1530;-0.2803;
1234.2000;0.1522;-0.2899;
1234.5000;0.1498;-0.2971;
1234.8000;0.1498;-0.2923;
1235.1000;0.1481;-0.3019;
1235.4000;0.1498;-0.2995;
1235.7000;0.1498;-0.2995;
1236.0000;0.1506;-0.2971;
1236.3000;0.1498;-0.2947;
1236.6000;0.1481;-0.3067;
1236.9000;0.1490;-0.3067;
1237.2000;0.1530;-0.2971;
1237.5000;0.1498;-0.3019;
1237.8000;0.1433;-0.3187;
1238.1000;0.1506;-0.2995;
1238.4000;0.1506;-0.2995;
1238.7000;0.1498;-0.2947;
1239.0000;0.1490;-0.2947;
1239.3000;0.1498;-0.2995;
1239.6000;0.1490;-0.2899;
1239.9000;0.1506;-0.2923;
1240.2000;0.1522;-0.2851;
1240.5000;0.1490;-0.3019;
1240.8000;0.1587;-0.2827;
1241.1000;0.1498;-0.2995;
1241.4000;0.1538;-0.2779;
1241.7000;0.1506;-0.2803;
1242.0000;0.1538;-0.2755;
1242.3000;0.1506;-0.2875;
1242.6000;0.1522;-0.2851;
1242.9000;0.1644;-0.2492;
1243.2000;0.1522;-0.2803;
1243.5000;0.1490;-0.2899;
1243.8000;0.1571;-0.2707;
1244.1000;0.1547;-0.2803;
1244.4000;0.1514;-0.2875;
1244.7000;0.1498;-0.2971;
1245.0000;0.1538;-0.2899;
1245.3000;0.1473;-0.3091;
1245.6000;0.1490;-0.2947;
1245.9000;0.1481;-0.3019;
1246.2000;0.1563;-0.2803;
1246.5000;0.1514;-0.2899;
1246.8000;0.1530;-0.2875;
1247.1000;0.1547;-0.2755;
1247.4000;0.1473;-0.2923;
1247.7000;0.1481;-0.2923;
1248.0000;0.1473;-0.3043;
1248.3000;0.1506;-0.2899;
1248.6000;0.1490;-0.2899;
1248.9000;0.1538;-0.2755;
1249.2000;0.1490;-0.2971;
1249.5000;0.1498;-0.3019;
1249.8000;0.1498;-0.3067;
1250.1000;0.1433;-0.3211;
1250.4000;0.1587;-0.2803;
1250.7000;0.1522;-0.2995;
1251.0000;0.1547;-0.2827;
1251.3000;0.1506;-0.2923;
1251.6000;0.1514;-0.2875;
1251.9000;0.1490;-0.2947;
1252.2000;0.1498;-0.2923;
1252.5000;0.1490;-0.2923;
1252.8000;0.1490;-0.2971;
1253.1000;0.1490;-0.2923;
1253.4000;0.1498;-0.2875;
1253.7000;0.1433;-0.3091;
1254.0000;0.1514;-0.2923;
1254.3000;0.1514;-0.2923;
1254.6000;0.1498;-0.2899;
1254.9000;0.1490;-0.3019;
1255.2000;0.1490;-0.3019;
1255.5000;0.1498;-0.2947;
1255.8000;0.1498;-0.3019;
1256.1000;0.1498;-0.3067;
1256.4000;0.1473;-0.3067;
1256.7000;0.1498;-0.2947;
1257.0000;0.1465;-0.3067;
1257.3000;0.1490;-0.3091;
1257.6000;0.1506;-0.2995;
1257.9000;0.1498;-0.2995;
1258.2000;0.1498;-0.3019;
1258.5000;0.1473;-0.3067;
1258.8000;0.1473;-0.3139;
1259.1000;0.1490;-0.2995;
1259.4000;0.1490;-0.2947;
1259.7000;0.1473;-0.2995;
1260.0000;0.1498;-0.3019;
1260.3000;0.1506;-0.3043;
1260.6000;0.1498;-0.3115;
1260.9000;0.1465;-0.3283;
1261.2000;0.1441;-0.3306;
1261.5000;0.1506;-0.3091;
1261.8000;0.1449;-0.3187;
1262.1000;0.1490;-0.3067;
1262.4000;0.1514;-0.3067;
1262.7000;0.1498;-0.3163;
1263.0000;0.1506;-0.3091;
1263.3000;0.1522;-0.3067;
1263.6000;0.1522;-0.2995;
1263.9000;0.1481;-0.3163;
1264.2000;0.1498;-0.3115;
1264.5000;0.1530;-0.3043;
1264.8000;0.1481;-0.3163;
1265.1000;0.1433;-0.3306;
1265.4000;0.1498;-0.3091;
1265.7000;0.1490;-0.3067;
1266.0000;0.1481;-0.3139;
1266.3000;0.1506;-0.3115;
1266.6000;0.1522;-0.3187;
1266.9000;0.1522;-0.3139;
1267.2000;0.1587;-0.2995;
1267.5000;0.1506;-0.3187;
1267.8000;0.1530;-0.3163;
1268.1000;0.1563;-0.2971;
1268.4000;0.1498;-0.3091;
1268.7000;0.1522;-0.2971;
1269.0000;0.1498;-0.2971;
1269.3000;0.1473;-0.2947;
1269.6000;0.1506;-0.2851;
1269.9000;0.1473;-0.2971;
1270.2000;0.1473;-0.2923;
1270.5000;0.1490;-0.2827;
1270.8000;0.1473;-0.2899;
1271.1000;0.1522;-0.2779;
1271.4000;0.1538;-0.2707;
1271.7000;0.1530;-0.2684;
1272.0000;0.1506;-0.2707;
1272.3000;0.1498;-0.2731;
1272.6000;0.1514;-0.2731;
1272.9000;0.1490;-0.2779;
1273.2000;0.1473;-0.2779;
1273.5000;0.1514;-0.2755;
1273.8000;0.1498;-0.2779;
1274.1000;0.1498;-0.2731;
1274.4000;0.1498;-0.2803;
1274.7000;0.1490;-0.2731;
1275.0000;0.1498;-0.2636;
1275.3000;0.1514;-0.2660;
1275.6000;0.1498;-0.2612;
1275.9000;0.1506;-0.2636;
1276.2000;0.1490;-0.2660;
1276.5000;0.1498;-0.2707;
1276.8000;0.1449;-0.2875;
1277.1000;0.1490;-0.2731;
1277.4000;0.1514;-0.2731;
1277.7000;0.1506;-0.2684;
1278.0000;0.1498;-0.2779;
1278.3000;0.1506;-0.2827;
1278.6000;0.1514;-0.2851;
1278.9000;0.1514;-0.2899;
1279.2000;0.1481;-0.2923;
1279.5000;0.1473;-0.2947;
1279.8000;0.1498;-0.2827;
1280.1000;0.1514;-0.2851;
1280.4000;0.1506;-0.2755;
1280.7000;0.1522;-0.2731;
1281.0000;0.1506;-0.2827;
1281.3000;0.1465;-0.2995;
1281.6000;0.1481;-0.2923;
1281.9000;0.1498;-0.2899;
1282.2000;0.1457;-0.2995;
1282.5000;0.1490;-0.2827;
1282.8000;0.1465;-0.2827;
1283.1000;0.1530;-0.2660;
1283.4000;0.1457;-0.2851;
1283.7000;0.1514;-0.2779;
1284.0000;0.1612;-0.2564;
1284.3000;0.1506;-0.2827;
1284.6000;0.1514;-0.2851;
1284.9000;0.1498;-0.2851;
1285.2000;0.1433;-0.3067;
1285.5000;0.1498;-0.2971;
1285.8000;0.1490;-0.3019;
1286.1000;0.1506;-0.3019;
1286.4000;0.1498;-0.3067;
1286.7000;0.1498;-0.3115;
1287.0000;0.1498;-0.3139;
1287.3000;0.1473;-0.3163;
1287.6000;0.1514;-0.3043;
1287.9000;0.1522;-0.3019;
1288.2000;0.1530;-0.2947;
1288.5000;0.1498;-0.3043;
1288.8000;0.1481;-0.3091;
1289.1000;0.1514;-0.2971;
1289.4000;0.1498;-0.2971;
1289.7000;0.1481;-0.2995;
1290.0000;0.1522;-0.2923;
1290.3000;0.1514;-0.2971;
1290.6000;0.1522;-0.2947;
1290.9000;0.1473;-0.3091;
1291.2000;0.1465;-0.3043;
1291.5000;0.1498;-0.2995;
1291.8000;0.1514;-0.2851;
1292.1000;0.1514;-0.2923;
1292.4000;0.1498;-0.2947;
1292.7000;0.1481;-0.2995;
1293.0000;0.1506;-0.2899;
1293.3000;0.1514;-0.2875;
1293.6000;0.1490;-0.2923;
1293.9000;0.1514;-0.2875;
1294.2000;0.1522;-0.2995;
1294.5000;0.1490;-0.3067;
1294.8000;0.1465;-0.3091;
1295.1000;0.1506;-0.2971;
1295.4000;0.1490;-0.2995;
1295.7000;0.1490;-0.3043;
1296.0000;0.1481;-0.3043;
1296.3000;0.1506;-0.3043;
1296.6000;0.1473;-0.3115;
1296.9000;0.1490;-0.3091;
1297.2000;0.1481;-0.3091;
1297.5000;0.1506;-0.3067;
1297.8000;0.1506;-0.3043;
1298.1000;0.1547;-0.2899;
1298.4000;0.1506;-0.2947;
1298.7000;0.1514;-0.2851;
1299.0000;0.1514;-0.2755;
1299.3000;0.1555;-0.2588;
1299.6000;0.1441;-0.2875;
1299.9000;0.1522;-0.2803;
1300.2000;0.1506;-0.2899;
1300.5000;0.1498;-0.2923;
1300.8000;0.1555;-0.2851;
1301.1000;0.1506;-0.3019;
1301.4000;0.1481;-0.3019;
1301.7000;0.1506;-0.2995;
1302.0000;0.1481;-0.3043;
1302.3000;0.1481;-0.3091;
1302.6000;0.1677;-0.2492;
1302.9000;0.1498;-0.2923;
1303.2000;0.1498;-0.3019;
1303.5000;0.1530;-0.2995;
1303.8000;0.1408;-0.3259;
1304.1000;0.1522;-0.2947;
1304.4000;0.1506;-0.2947;
1304.7000;0.1538;-0.2875;
1305.0000;0.1498;-0.2947;
1305.3000;0.1587;-0.2779;
1305.6000;0.1506;-0.2971;
1305.9000;0.1579;-0.2803;
1306.2000;0.1490;-0.3115;
1306.5000;0.1498;-0.3187;
1306.8000;0.1400;-0.3426;
1307.1000;0.1514;-0.3115;
1307.4000;0.1555;-0.2971;
1307.7000;0.1481;-0.3187;
1308.0000;0.1441;-0.3235;
1308.3000;0.1571;-0.2971;
1308.6000;0.1506;-0.3187;
1308.9000;0.1490;-0.3163;
1309.2000;0.1506;-0.3115;
1309.5000;0.1514;-0.3163;
1309.8000;0.1490;-0.3211;
1310.1000;0.1530;-0.3139;
1310.4000;0.1522;-0.3211;
1310.7000;0.1538;-0.3259;
1311.0000;0.1563;-0.3139;
1311.3000;0.1506;-0.3187;
1311.6000;0.1530;-0.3139;
1311.9000;0.1498;-0.3139;
1312.2000;0.1392;-0.3378;
1312.5000;0.1530;-0.3115;
1312.8000;0.1514;-0.3163;
1313.1000;0.1506;-0.3091;
1313.4000;0.1514;-0.3091;
1313.7000;0.1498;-0.3091;
1314.0000;0.1416;-0.3235;
1314.3000;0.1481;-0.3091;
1314.6000;0.1514;-0.3067;
1314.9000;0.1522;-0.3091;
1315.2000;0.1514;-0.3259;
1315.5000;0.1498;-0.3283;
1315.8000;0.1514;-0.3283;
1316.1000;0.1514;-0.3259;
1316.4000;0.1506;-0.3283;
1316.7000;0.1490;-0.3283;
1317.0000;0.1490;-0.3235;
1317.3000;0.1490;-0.3187;
1317.6000;0.1498;-0.3211;
1317.9000;0.1522;-0.3139;
1318.2000;0.1506;-0.3235;
1318.5000;0.1506;-0.3235;
1318.8000;0.1490;-0.3211;
1319.1000;0.1490;-0.3235;
1319.4000;0.1490;-0.3187;
1319.7000;0.1506;-0.3091;
1320.0000;0.1506;-0.3067;
1320.3000;0.1490;-0.3067;
1320.6000;0.1514;-0.2995;
1320.9000;0.1498;-0.2971;
1321.2000;0.1514;-0.2995;
1321.5000;0.1514;-0.2947;
1321.8000;0.1498;-0.2995;
1322.1000;0.1490;-0.3019;
1322.4000;0.1490;-0.3019;
1322.7000;0.1490;-0.3043;
1323.0000;0.1522;-0.2971;
1323.3000;0.1384;-0.3259;
1323.6000;0.1514;-0.2923;
1323.9000;0.1522;-0.2995;
1324.2000;0.1490;-0.3043;
1324.5000;0.1506;-0.3019;
1324.8000;0.1490;-0.2995;
1325.1000;0.1473;-0.2947;
1325.4000;0.1506;-0.2923;
1325.7000;0.1522;-0.2971;
1326.0000;0.1506;-0.2995;
1326.3000;0.1530;-0.2875;
1326.6000;0.1506;-0.2875;
1326.9000;0.1498;-0.2827;
1327.2000;0.1506;-0.2755;
1327.5000;0.1498;-0.2851;
1327.8000;0.1522;-0.2731;
1328.1000;0.1449;-0.2923;
1328.4000;0.1506;-0.2827;
1328.7000;0.1514;-0.2755;
1329.0000;0.1498;-0.2803;
1329.3000;0.1490;-0.2899;
1329.6000;0.1490;-0.2971;
1329.9000;0.1514;-0.2899;
1330.2000;0.1498;-0.2923;
1330.5000;0.1522;-0.2827;
1330.8000;0.1506;-0.2971;
1331.1000;0.1506;-0.2947;
1331.4000;0.1490;-0.3043;
1331.7000;0.1563;-0.2803;
1332.0000;0.1522;-0.2923;
1332.3000;0.1498;-0.2971;
1332.6000;0.1498;-0.2995;
1332.9000;0.1498;-0.2995;
1333.2000;0.1514;-0.3043;
1333.5000;0.1490;-0.3091;
1333.8000;0.1481;-0.3067;
1334.1000;0.1498;-0.2971;
1334.4000;0.1498;-0.2875;
1334.7000;0.1490;-0.2971;
1335.0000;0.1473;-0.3043;
1335.3000;0.1498;-0.3019;
1335.6000;0.1530;-0.2875;
1335.9000;0.1514;-0.2923;
1336.2000;0.1490;-0.2971;
1336.5000;0.1506;-0.3019;
1336.8000;0.1514;-0.3019;
1337.1000;0.1506;-0.2995;
1337.4000;0.1498;-0.3019;
1337.7000;0.1506;-0.2995;
1338.0000;0.1506;-0.2995;
1338.3000;0.1506;-0.3067;
1338.6000;0.1481;-0.3187;
1338.9000;0.1490;-0.3139;
1339.2000;0.1514;-0.3115;
1339.5000;0.1522;-0.3043;
1339.8000;0.1481;-0.3043;
1340.1000;0.1506;-0.2923;
1340.4000;0.1490;-0.3019;
1340.7000;0.1506;-0.2971;
1341.0000;0.1498;-0.2995;
1341.3000;0.1514;-0.3019;
1341.6000;0.1514;-0.3019;
1341.9000;0.1530;-0.2971;
1342.2000;0.1490;-0.3115;
1342.5000;0.1522;-0.3091;
1342.8000;0.1490;-0.3115;
1343.1000;0.1522;-0.2995;
1343.4000;0.1506;-0.2947;
1343.7000;0.1547;-0.2827;
1344.0000;0.1481;-0.2899;
1344.3000;0.1441;-0.3043;
1344.6000;0.1473;-0.2947;
1344.9000;0.1490;-0.2851;
1345.2000;0.1481;-0.2803;
1345.5000;0.1490;-0.2803;
1345.8000;0.1465;-0.2923;
1346.1000;0.1514;-0.2899;
1346.4000;0.1481;-0.2947;
1346.7000;0.1490;-0.2995;
1347.0000;0.1498;-0.2947;
1347.3000;0.1457;-0.3139;
1347.6000;0.1514;-0.2947;
1347.9000;0.1498;-0.2971;
1348.2000;0.1498;-0.2995;
1348.5000;0.1514;-0.2923;
1348.8000;0.1514;-0.2995;
1349.1000;0.1457;-0.3211;
1349.4000;0.1490;-0.3067;
1349.7000;0.1514;-0.3019;
1350.0000;0.1506;-0.3067;
1350.3000;0.1473;-0.3163;
1350.6000;0.1481;-0.3115;
1350.9000;0.1490;-0.3043;
1351.2000;0.1506;-0.3043;
1351.5000;0.1498;-0.3091;
1351.8000;0.1547;-0.2995;
1352.1000;0.1490;-0.3139;
1352.4000;0.1538;-0.3091;
1352.7000;0.1498;-0.3115;
1353.0000;0.1490;-0.3115;
1353.3000;0.1498;-0.3019;
1353.6000;0.1522;-0.3019;
1353.9000;0.1530;-0.3019;
1354.2000;0.1498;-0.3043;
1354.5000;0.1547;-0.2947;
1354.8000;0.1514;-0.2971;
1355.1000;0.1506;-0.2995;
1355.4000;0.1530;-0.2971;
1355.7000;0.1498;-0.3019;
1356.0000;0.1514;-0.3019;
1356.3000;0.1514;-0.2971;
1356.6000;0.1498;-0.2995;
1356.9000;0.1359;-0.3283;
1357.2000;0.1498;-0.2995;
1357.5000;0.1612;-0.2755;
1357.8000;0.1522;-0.2995;
1358.1000;0.1441;-0.3187;
1358.4000;0.1506;-0.3067;
1358.7000;0.1522;-0.3067;
1359.0000;0.1530;-0.2971;
1359.3000;0.1490;-0.3019;
1359.6000;0.1498;-0.3043;
1359.9000;0.1490;-0.3043;
1360.2000;0.1490;-0.3019;
1360.5000;0.1498;-0.2923;
1360.8000;0.1498;-0.2947;
1361.1000;0.1490;-0.2995;
1361.4000;0.1498;-0.2875;
1361.7000;0.1490;-0.2947;
1362.0000;0.1498;-0.2995;
1362.3000;0.1498;-0.3019;
1362.6000;0.1522;-0.2971;
1362.9000;0.1498;-0.3043;
1363.2000;0.1506;-0.3019;
1363.5000;0.1506;-0.2947;
1363.8000;0.1473;-0.2995;
1364.1000;0.1538;-0.2899;
1364.4000;0.1498;-0.2995;
1364.7000;0.1514;-0.3019;
1365.0000;0.1547;-0.2971;
1365.3000;0.1506;-0.3043;
1365.6000;0.1514;-0.3019;
1365.9000;0.1408;-0.3259;
1366.2000;0.1498;-0.3043;
1366.5000;0.1514;-0.3019;
1366.8000;0.1514;-0.3067;
1367.1000;0.1490;-0.3091;
1367.4000;0.1490;-0.3043;
1367.7000;0.1506;-0.2971;
1368.0000;0.1620;-0.2636;
1368.3000;0.1457;-0.2995;
1368.6000;0.1490;-0.2971;
1368.9000;0.1481;-0.3043;
1369.2000;0.1498;-0.2971;
1369.5000;0.1473;-0.3043;
1369.8000;0.1408;-0.3187;
1370.1000;0.1514;-0.2947;
1370.4000;0.1498;-0.2947;
1370.7000;0.1498;-0.3019;
1371.0000;0.1490;-0.3043;
1371.3000;0.1506;-0.2947;
1371.6000;0.1506;-0.2899;
1371.9000;0.1498;-0.2899;
1372.2000;0.1506;-0.2923;
1372.5000;0.1465;-0.3019;
1372.8000;0.1425;-0.3091;
1373.1000;0.1522;-0.2851;
1373.4000;0.1514;-0.2899;
1373.7000;0.1555;-0.2875;
1374.0000;0.1490;-0.3019;
1374.3000;0.1563;-0.2803;
1374.6000;0.1498;-0.2947;
1374.9000;0.1636;-0.2564;
1375.2000;0.1449;-0.3091;
1375.5000;0.1490;-0.2923;
1375.8000;0.1490;-0.2923;
1376.1000;0.1538;-0.2803;
1376.4000;0.1587;-0.2731;
1376.7000;0.1506;-0.2923;
1377.0000;0.1457;-0.3067;
1377.3000;0.1522;-0.2803;
1377.6000;0.1408;-0.3235;
1377.9000;0.1604;-0.2707;
1378.2000;0.1563;-0.2875;
1378.5000;0.1490;-0.3067;
1378.8000;0.1563;-0.2779;
1379.1000;0.1506;-0.2971;
1379.4000;0.1571;-0.2827;
1379.7000;0.1636;-0.2588;
1380.0000;0.1498;-0.2947;
1380.3000;0.1514;-0.2923;
1380.6000;0.1514;-0.2923;
1380.9000;0.1490;-0.2899;
1381.2000;0.1506;-0.2899;
1381.5000;0.1514;-0.2947;
1381.8000;0.1490;-0.2995;
1382.1000;0.1506;-0.3019;
1382.4000;0.1514;-0.3043;
1382.7000;0.1514;-0.2995;
1383.0000;0.1498;-0.3019;
1383.3000;0.1506;-0.2971;
1383.6000;0.1514;-0.2947;
1383.9000;0.1473;-0.3043;
1384.2000;0.1530;-0.2899;
1384.5000;0.1522;-0.2971;
1384.8000;0.1506;-0.2971;
1385.1000;0.1481;-0.3091;
1385.4000;0.1522;-0.2971;
1385.7000;0.1514;-0.2851;
1386.0000;0.1498;-0.2923;
1386.3000;0.1522;-0.2899;
1386.6000;0.1514;-0.2899;
1386.9000;0.1506;-0.2923;
1387.2000;0.1506;-0.2923;
1387.5000;0.1514;-0.2971;
1387.8000;0.1498;-0.3043;
1388.1000;0.1506;-0.3019;
1388.4000;0.1490;-0.3067;
1388.7000;0.1514;-0.2995;
1389.0000;0.1498;-0.2971;
1389.3000;0.1506;-0.2971;
1389.6000;0.1490;-0.2923;
1389.9000;0.1473;-0.2923;
1390.2000;0.1506;-0.2827;
1390.5000;0.1514;-0.2779;
1390.8000;0.1498;-0.2875;
1391.1000;0.1506;-0.2803;
1391.4000;0.1506;-0.2755;
1391.7000;0.1490;-0.2779;
1392.0000;0.1506;-0.2851;
1392.3000;0.1514;-0.2851;
1392.6000;0.1498;-0.2923;
1392.9000;0.1506;-0.2899;
1393.2000;0.1506;-0.2923;
1393.5000;0.1571;-0.2731;
1393.8000;0.1506;-0.2947;
1394.1000;0.1506;-0.2971;
1394.4000;0.1522;-0.2899;
1394.7000;0.1530;-0.2851;
1395.0000;0.1506;-0.2947;
1395.3000;0.1498;-0.2971;
1395.6000;0.1498;-0.2923;
1395.9000;0.1514;-0.2803;
1396.2000;0.1522;-0.2779;
1396.5000;0.1473;-0.2851;
1396.8000;0.1522;-0.2899;
1397.1000;0.1506;-0.2923;
1397.4000;0.1498;-0.2995;
1397.7000;0.1522;-0.2947;
1398.0000;0.1498;-0.2995;
1398.3000;0.1481;-0.3019;
1398.6000;0.1498;-0.2995;
1398.9000;0.1498;-0.2995;
1399.2000;0.1506;-0.3019;
1399.5000;0.1498;-0.3091;
1399.8000;0.1506;-0.3067;
