time/ms;Fluo/V;P700 deltaI/I x10³;
-199.8000;0.1530;-0.2108;
-199.5000;0.1538;-0.2132;
-199.2000;0.1538;-0.2037;
-198.9000;0.1530;-0.1989;
-198.6000;0.1530;-0.2108;
-198.3000;0.1538;-0.2013;
-198.0000;0.1555;-0.2013;
-197.7000;0.1547;-0.2037;
-197.4000;0.1538;-0.2037;
-197.1000;0.1530;-0.2037;
-196.8000;0.1481;-0.2252;
-196.5000;0.1563;-0.2061;
-196.2000;0.1547;-0.2156;
-195.9000;0.1522;-0.2228;
-195.6000;0.1547;-0.2228;
-195.3000;0.1441;-0.2540;
-195.0000;0.1530;-0.2324;
-194.7000;0.1498;-0.2396;
-194.4000;0.1547;-0.2252;
-194.1000;0.1473;-0.2468;
-193.8000;0.1555;-0.2300;
-193.5000;0.1538;-0.2300;
-193.2000;0.1514;-0.2348;
-192.9000;0.1685;-0.1917;
-192.6000;0.1514;-0.2348;
-192.3000;0.1538;-0.2300;
-192.0000;0.1587;-0.2276;
-191.7000;0.1538;-0.2372;
-191.4000;0.1563;-0.2348;
-191.1000;0.1490;-0.2516;
-190.8000;0.1571;-0.2300;
-190.5000;0.1506;-0.2420;
-190.2000;0.1538;-0.2324;
-189.9000;0.1481;-0.2396;
-189.6000;0.1530;-0.2252;
-189.3000;0.1498;-0.2228;
-189.0000;0.1538;-0.2085;
-188.7000;0.1555;-0.2085;
-188.4000;0.1563;-0.2037;
-188.1000;0.1522;-0.2252;
-187.8000;0.1514;-0.2228;
-187.5000;0.1563;-0.2061;
-187.2000;0.1587;-0.1965;
-186.9000;0.1547;-0.2108;
-186.6000;0.1522;-0.2204;
-186.3000;0.1563;-0.2037;
-186.0000;0.1538;-0.2085;
-185.7000;0.1538;-0.2108;
-185.4000;0.1538;-0.2108;
-185.1000;0.1441;-0.2420;
-184.8000;0.1652;-0.1797;
-184.5000;0.1522;-0.2132;
-184.2000;0.1490;-0.2156;
-183.9000;0.1538;-0.2061;
-183.6000;0.1555;-0.1989;
-183.3000;0.1498;-0.2180;
-183.0000;0.1530;-0.2132;
-182.7000;0.1473;-0.2324;
-182.4000;0.1538;-0.2085;
-182.1000;0.1530;-0.2085;
-181.8000;0.1587;-0.1941;
-181.5000;0.1506;-0.2132;
-181.2000;0.1547;-0.1965;
-180.9000;0.1530;-0.1965;
-180.6000;0.1538;-0.1989;
-180.3000;0.1538;-0.1941;
-180.0000;0.1522;-0.1965;
-179.7000;0.1547;-0.1917;
-179.4000;0.1465;-0.2228;
-179.1000;0.1538;-0.2037;
-178.8000;0.1612;-0.1893;
-178.5000;0.1538;-0.2061;
-178.2000;0.1595;-0.1797;
-177.9000;0.1522;-0.1965;
-177.6000;0.1514;-0.1965;
-177.3000;0.1538;-0.1845;
-177.0000;0.1571;-0.1821;
-176.7000;0.1579;-0.1773;
-176.4000;0.1481;-0.2108;
-176.1000;0.1530;-0.1989;
-175.8000;0.1547;-0.1989;
-175.5000;0.1547;-0.1917;
-175.2000;0.1538;-0.1989;
-174.9000;0.1522;-0.2013;
-174.6000;0.1547;-0.2037;
-174.3000;0.1555;-0.2013;
-174.0000;0.1547;-0.2061;
-173.7000;0.1514;-0.2108;
-173.4000;0.1538;-0.2085;
-173.1000;0.1547;-0.2037;
-172.8000;0.1506;-0.2061;
-172.5000;0.1538;-0.1965;
-172.2000;0.1547;-0.1893;
-171.9000;0.1498;-0.2013;
-171.6000;0.1530;-0.1893;
-171.3000;0.1530;-0.1869;
-171.0000;0.1538;-0.1917;
-170.7000;0.1563;-0.1941;
-170.4000;0.1547;-0.1989;
-170.1000;0.1555;-0.1893;
-169.8000;0.1522;-0.1917;
-169.5000;0.1538;-0.1917;
-169.2000;0.1530;-0.1965;
-168.9000;0.1547;-0.1965;
-168.6000;0.1514;-0.2085;
-168.3000;0.1530;-0.2061;
-168.0000;0.1538;-0.2037;
-167.7000;0.1530;-0.2108;
-167.4000;0.1530;-0.2228;
-167.1000;0.1547;-0.2108;
-166.8000;0.1555;-0.2180;
-166.5000;0.1538;-0.2276;
-166.2000;0.1571;-0.2252;
-165.9000;0.1538;-0.2276;
-165.6000;0.1563;-0.2180;
-165.3000;0.1555;-0.2276;
-165.0000;0.1538;-0.2276;
-164.7000;0.1490;-0.2324;
-164.4000;0.1522;-0.2228;
-164.1000;0.1628;-0.1869;
-163.8000;0.1514;-0.2228;
-163.5000;0.1547;-0.2108;
-163.2000;0.1481;-0.2276;
-162.9000;0.1530;-0.2156;
-162.6000;0.1538;-0.2013;
-162.3000;0.1538;-0.2085;
-162.0000;0.1522;-0.2156;
-161.7000;0.1547;-0.1989;
-161.4000;0.1563;-0.2013;
-161.1000;0.1530;-0.2085;
-160.8000;0.1547;-0.2180;
-160.5000;0.1538;-0.2228;
-160.2000;0.1612;-0.2013;
-159.9000;0.1563;-0.2132;
-159.6000;0.1522;-0.2156;
-159.3000;0.1555;-0.2156;
-159.0000;0.1547;-0.2061;
-158.7000;0.1530;-0.2108;
-158.4000;0.1612;-0.1893;
-158.1000;0.1530;-0.2085;
-157.8000;0.1530;-0.2085;
-157.5000;0.1514;-0.2061;
-157.2000;0.1481;-0.2156;
-156.9000;0.1579;-0.1869;
-156.6000;0.1595;-0.1797;
-156.3000;0.1498;-0.2132;
-156.0000;0.1538;-0.2037;
-155.7000;0.1555;-0.1989;
-155.4000;0.1652;-0.1725;
-155.1000;0.1555;-0.1965;
-154.8000;0.1547;-0.1941;
-154.5000;0.1538;-0.1989;
-154.2000;0.1555;-0.1893;
-153.9000;0.1530;-0.1989;
-153.6000;0.1547;-0.1989;
-153.3000;0.1514;-0.2061;
-153.0000;0.1530;-0.1989;
-152.7000;0.1457;-0.2156;
-152.4000;0.1522;-0.1965;
-152.1000;0.1555;-0.1941;
-151.8000;0.1530;-0.2013;
-151.5000;0.1522;-0.2037;
-151.2000;0.1530;-0.2085;
-150.9000;0.1579;-0.1989;
-150.6000;0.1538;-0.2013;
-150.3000;0.1547;-0.1917;
-150.0000;0.1490;-0.2013;
-149.7000;0.1547;-0.1965;
-149.4000;0.1441;-0.2348;
-149.1000;0.1538;-0.2085;
-148.8000;0.1547;-0.2085;
-148.5000;0.1530;-0.2180;
-148.2000;0.1538;-0.2228;
-147.9000;0.1522;-0.2252;
-147.6000;0.1481;-0.2204;
-147.3000;0.1514;-0.2108;
-147.0000;0.1595;-0.1917;
-146.7000;0.1506;-0.2252;
-146.4000;0.1530;-0.2132;
-146.1000;0.1522;-0.2085;
-145.8000;0.1522;-0.2085;
-145.5000;0.1530;-0.2061;
-145.2000;0.1530;-0.2037;
-144.9000;0.1490;-0.2180;
-144.6000;0.1547;-0.1989;
-144.3000;0.1530;-0.2037;
-144.0000;0.1587;-0.1917;
-143.7000;0.1514;-0.2037;
-143.4000;0.1538;-0.1989;
-143.1000;0.1538;-0.1917;
-142.8000;0.1555;-0.1869;
-142.5000;0.1522;-0.1917;
-142.2000;0.1547;-0.1941;
-141.9000;0.1530;-0.1869;
-141.6000;0.1522;-0.1869;
-141.3000;0.1547;-0.1821;
-141.0000;0.1571;-0.1773;
-140.7000;0.1547;-0.1917;
-140.4000;0.1473;-0.2085;
-140.1000;0.1547;-0.1941;
-139.8000;0.1530;-0.1989;
-139.5000;0.1547;-0.1917;
-139.2000;0.1522;-0.2037;
-138.9000;0.1473;-0.2228;
-138.6000;0.1522;-0.2108;
-138.3000;0.1514;-0.2108;
-138.0000;0.1530;-0.1989;
-137.7000;0.1587;-0.1821;
-137.4000;0.1538;-0.1917;
-137.1000;0.1522;-0.1941;
-136.8000;0.1538;-0.1869;
-136.5000;0.1522;-0.1941;
-136.2000;0.1514;-0.1965;
-135.9000;0.1547;-0.1797;
-135.6000;0.1555;-0.1845;
-135.3000;0.1547;-0.1965;
-135.0000;0.1522;-0.2037;
-134.7000;0.1693;-0.1581;
-134.4000;0.1538;-0.1941;
-134.1000;0.1538;-0.1917;
-133.8000;0.1514;-0.1989;
-133.5000;0.1538;-0.1869;
-133.2000;0.1555;-0.1845;
-132.9000;0.1538;-0.1917;
-132.6000;0.1522;-0.1893;
-132.3000;0.1530;-0.1869;
-132.0000;0.1563;-0.1797;
-131.7000;0.1547;-0.1917;
-131.4000;0.1457;-0.2061;
-131.1000;0.1522;-0.1893;
-130.8000;0.1547;-0.1821;
-130.5000;0.1530;-0.1845;
-130.2000;0.1498;-0.1893;
-129.9000;0.1514;-0.1845;
-129.6000;0.1555;-0.1845;
-129.3000;0.1538;-0.1965;
-129.0000;0.1530;-0.2132;
-128.7000;0.1530;-0.2108;
-128.4000;0.1530;-0.1989;
-128.1000;0.1547;-0.2061;
-127.8000;0.1530;-0.2085;
-127.5000;0.1538;-0.1989;
-127.2000;0.1530;-0.1845;
-126.9000;0.1538;-0.1821;
-126.6000;0.1538;-0.1701;
-126.3000;0.1506;-0.1749;
-126.0000;0.1498;-0.1797;
-125.7000;0.1530;-0.1845;
-125.4000;0.1522;-0.1941;
-125.1000;0.1538;-0.1917;
-124.8000;0.1522;-0.1989;
-124.5000;0.1425;-0.2276;
-124.2000;0.1538;-0.1965;
-123.9000;0.1571;-0.1893;
-123.6000;0.1522;-0.2037;
-123.3000;0.1506;-0.2204;
-123.0000;0.1530;-0.2228;
-122.7000;0.1538;-0.2132;
-122.4000;0.1530;-0.2061;
-122.1000;0.1530;-0.1989;
-121.8000;0.1530;-0.1893;
-121.5000;0.1547;-0.1821;
-121.2000;0.1555;-0.1821;
-120.9000;0.1425;-0.2013;
-120.6000;0.1506;-0.1869;
-120.3000;0.1538;-0.1845;
-120.0000;0.1506;-0.1941;
-119.7000;0.1547;-0.1893;
-119.4000;0.1538;-0.1845;
-119.1000;0.1530;-0.1797;
-118.8000;0.1522;-0.1797;
-118.5000;0.1547;-0.1797;
-118.2000;0.1530;-0.1869;
-117.9000;0.1538;-0.1965;
-117.6000;0.1547;-0.1893;
-117.3000;0.1498;-0.2132;
-117.0000;0.1538;-0.1989;
-116.7000;0.1522;-0.2037;
-116.4000;0.1506;-0.1965;
-116.1000;0.1522;-0.1869;
-115.8000;0.1530;-0.1845;
-115.5000;0.1530;-0.1917;
-115.2000;0.1538;-0.1941;
-114.9000;0.1538;-0.1941;
-114.6000;0.1547;-0.1893;
-114.3000;0.1514;-0.1989;
-114.0000;0.1514;-0.1941;
-113.7000;0.1538;-0.1845;
-113.4000;0.1522;-0.1845;
-113.1000;0.1522;-0.1845;
-112.8000;0.1555;-0.1821;
-112.5000;0.1547;-0.1845;
-112.2000;0.1530;-0.1941;
-111.9000;0.1538;-0.1941;
-111.6000;0.1530;-0.1917;
-111.3000;0.1579;-0.1845;
-111.0000;0.1547;-0.1821;
-110.7000;0.1538;-0.1869;
-110.4000;0.1538;-0.1893;
-110.1000;0.1547;-0.1893;
-109.8000;0.1514;-0.1989;
-109.5000;0.1522;-0.2013;
-109.2000;0.1514;-0.2108;
-108.9000;0.1563;-0.2085;
-108.6000;0.1522;-0.2180;
-108.3000;0.1538;-0.2037;
-108.0000;0.1465;-0.2228;
-107.7000;0.1563;-0.1989;
-107.4000;0.1547;-0.1917;
-107.1000;0.1538;-0.1917;
-106.8000;0.1530;-0.1989;
-106.5000;0.1538;-0.1941;
-106.2000;0.1571;-0.1965;
-105.9000;0.1538;-0.2013;
-105.6000;0.1530;-0.1989;
-105.3000;0.1514;-0.2061;
-105.0000;0.1538;-0.2037;
-104.7000;0.1530;-0.2108;
-104.4000;0.1506;-0.2132;
-104.1000;0.1522;-0.1989;
-103.8000;0.1449;-0.2156;
-103.5000;0.1530;-0.1965;
-103.2000;0.1538;-0.2037;
-102.9000;0.1457;-0.2132;
-102.6000;0.1628;-0.1725;
-102.3000;0.1538;-0.1917;
-102.0000;0.1473;-0.2037;
-101.7000;0.1522;-0.1917;
-101.4000;0.1555;-0.1845;
-101.1000;0.1530;-0.1917;
-100.8000;0.1636;-0.1605;
-100.5000;0.1669;-0.1557;
-100.2000;0.1522;-0.1989;
-99.9000;0.1563;-0.1917;
-99.6000;0.1514;-0.2061;
-99.3000;0.1522;-0.2061;
-99.0000;0.1530;-0.2085;
-98.7000;0.1538;-0.2085;
-98.4000;0.1555;-0.2108;
-98.1000;0.1555;-0.2061;
-97.8000;0.1481;-0.2252;
-97.5000;0.1530;-0.2108;
-97.2000;0.1547;-0.1917;
-96.9000;0.1538;-0.1917;
-96.6000;0.1538;-0.1893;
-96.3000;0.1547;-0.1893;
-96.0000;0.1530;-0.1893;
-95.7000;0.1547;-0.1845;
-95.4000;0.1547;-0.1869;
-95.1000;0.1530;-0.1917;
-94.8000;0.1538;-0.1821;
-94.5000;0.1547;-0.1893;
-94.2000;0.1571;-0.1749;
-93.9000;0.1547;-0.1845;
-93.6000;0.1538;-0.1797;
-93.3000;0.1538;-0.1821;
-93.0000;0.1547;-0.1749;
-92.7000;0.1555;-0.1701;
-92.4000;0.1498;-0.1845;
-92.1000;0.1490;-0.1845;
-91.8000;0.1547;-0.1725;
-91.5000;0.1563;-0.1797;
-91.2000;0.1514;-0.1917;
-90.9000;0.1538;-0.1797;
-90.6000;0.1579;-0.1725;
-90.3000;0.1587;-0.1749;
-90.0000;0.1571;-0.1773;
-89.7000;0.1522;-0.1893;
-89.4000;0.1555;-0.1869;
-89.1000;0.1530;-0.1893;
-88.8000;0.1530;-0.1965;
-88.5000;0.1522;-0.2013;
-88.2000;0.1514;-0.2108;
-87.9000;0.1538;-0.1965;
-87.6000;0.1579;-0.1797;
-87.3000;0.1538;-0.1845;
-87.0000;0.1506;-0.1845;
-86.7000;0.1538;-0.1773;
-86.4000;0.1530;-0.1821;
-86.1000;0.1514;-0.1893;
-85.8000;0.1530;-0.1893;
-85.5000;0.1530;-0.1917;
-85.2000;0.1490;-0.2013;
-84.9000;0.1530;-0.1941;
-84.6000;0.1514;-0.1917;
-84.3000;0.1441;-0.2061;
-84.0000;0.1514;-0.1941;
-83.7000;0.1547;-0.1893;
-83.4000;0.1530;-0.1893;
-83.1000;0.1538;-0.1869;
-82.8000;0.1571;-0.1749;
-82.5000;0.1587;-0.1749;
-82.2000;0.1547;-0.1821;
-81.9000;0.1555;-0.1677;
-81.6000;0.1498;-0.1845;
-81.3000;0.1522;-0.1797;
-81.0000;0.1538;-0.1749;
-80.7000;0.1538;-0.1797;
-80.4000;0.1547;-0.1845;
-80.1000;0.1579;-0.1725;
-79.8000;0.1498;-0.1965;
-79.5000;0.1547;-0.1797;
-79.2000;0.1538;-0.1773;
-78.9000;0.1538;-0.1725;
-78.6000;0.1555;-0.1725;
-78.3000;0.1538;-0.1773;
-78.0000;0.1547;-0.1725;
-77.7000;0.1644;-0.1533;
-77.4000;0.1530;-0.1653;
-77.1000;0.1522;-0.1725;
-76.8000;0.1530;-0.1653;
-76.5000;0.1530;-0.1677;
-76.2000;0.1538;-0.1629;
-75.9000;0.1481;-0.1941;
-75.6000;0.1506;-0.1917;
-75.3000;0.1571;-0.1917;
-75.0000;0.1538;-0.1965;
-74.7000;0.1522;-0.2037;
-74.4000;0.1547;-0.2108;
-74.1000;0.1522;-0.2252;
-73.8000;0.1547;-0.2180;
-73.5000;0.1530;-0.2180;
-73.2000;0.1538;-0.2156;
-72.9000;0.1547;-0.2156;
-72.6000;0.1547;-0.2228;
-72.3000;0.1538;-0.2156;
-72.0000;0.1514;-0.2180;
-71.7000;0.1514;-0.2156;
-71.4000;0.1571;-0.1989;
-71.1000;0.1490;-0.2180;
-70.8000;0.1555;-0.1917;
-70.5000;0.1465;-0.2276;
-70.2000;0.1498;-0.2180;
-69.9000;0.1604;-0.1989;
-69.6000;0.1547;-0.2156;
-69.3000;0.1522;-0.2132;
-69.0000;0.1530;-0.2085;
-68.7000;0.1522;-0.2132;
-68.4000;0.1522;-0.2180;
-68.1000;0.1490;-0.2324;
-67.8000;0.1547;-0.2204;
-67.5000;0.1547;-0.2108;
-67.2000;0.1498;-0.2324;
-66.9000;0.1506;-0.2372;
-66.6000;0.1514;-0.2252;
-66.3000;0.1522;-0.2252;
-66.0000;0.1538;-0.2228;
-65.7000;0.1514;-0.2228;
-65.4000;0.1514;-0.2204;
-65.1000;0.1538;-0.2204;
-64.8000;0.1514;-0.2180;
-64.5000;0.1538;-0.2108;
-64.2000;0.1425;-0.2468;
-63.9000;0.1547;-0.2085;
-63.6000;0.1522;-0.2061;
-63.3000;0.1530;-0.1941;
-63.0000;0.1547;-0.1917;
-62.7000;0.1538;-0.1893;
-62.4000;0.1538;-0.1893;
-62.1000;0.1538;-0.1869;
-61.8000;0.1530;-0.1845;
-61.5000;0.1530;-0.1845;
-61.2000;0.1514;-0.1941;
-60.9000;0.1530;-0.1917;
-60.6000;0.1563;-0.1917;
-60.3000;0.1490;-0.2085;
-60.0000;0.1530;-0.1917;
-59.7000;0.1555;-0.1821;
-59.4000;0.1490;-0.1917;
-59.1000;0.1530;-0.1917;
-58.8000;0.1555;-0.1893;
-58.5000;0.1547;-0.1893;
-58.2000;0.1538;-0.1845;
-57.9000;0.1530;-0.1869;
-57.6000;0.1677;-0.1533;
-57.3000;0.1530;-0.1821;
-57.0000;0.1538;-0.1749;
-56.7000;0.1538;-0.1677;
-56.4000;0.1538;-0.1773;
-56.1000;0.1522;-0.1773;
-55.8000;0.1465;-0.2037;
-55.5000;0.1522;-0.1893;
-55.2000;0.1522;-0.1893;
-54.9000;0.1538;-0.1797;
-54.6000;0.1563;-0.1725;
-54.3000;0.1522;-0.1917;
-54.0000;0.1538;-0.1941;
-53.7000;0.1465;-0.2228;
-53.4000;0.1555;-0.1989;
-53.1000;0.1538;-0.1989;
-52.8000;0.1530;-0.2013;
-52.5000;0.1538;-0.2013;
-52.2000;0.1506;-0.2061;
-51.9000;0.1522;-0.2156;
-51.6000;0.1555;-0.2108;
-51.3000;0.1514;-0.2204;
-51.0000;0.1522;-0.2085;
-50.7000;0.1514;-0.2108;
-50.4000;0.1530;-0.2037;
-50.1000;0.1530;-0.2037;
-49.8000;0.1514;-0.2108;
-49.5000;0.1538;-0.2037;
-49.2000;0.1522;-0.2132;
-48.9000;0.1620;-0.1893;
-48.6000;0.1506;-0.2180;
-48.3000;0.1555;-0.1989;
-48.0000;0.1522;-0.2108;
-47.7000;0.1514;-0.2061;
-47.4000;0.1530;-0.2037;
-47.1000;0.1547;-0.1989;
-46.8000;0.1530;-0.2108;
-46.5000;0.1506;-0.2180;
-46.2000;0.1522;-0.2132;
-45.9000;0.1530;-0.2085;
-45.6000;0.1522;-0.2061;
-45.3000;0.1547;-0.1989;
-45.0000;0.1547;-0.2013;
-44.7000;0.1555;-0.1941;
-44.4000;0.1571;-0.1821;
-44.1000;0.1530;-0.2013;
-43.8000;0.1514;-0.1989;
-43.5000;0.1514;-0.2180;
-43.2000;0.1538;-0.2132;
-42.9000;0.1538;-0.2180;
-42.6000;0.1538;-0.2228;
-42.3000;0.1522;-0.2372;
-42.0000;0.1522;-0.2252;
-41.7000;0.1604;-0.1965;
-41.4000;0.1490;-0.2300;
-41.1000;0.1538;-0.2252;
-40.8000;0.1530;-0.2132;
-40.5000;0.1538;-0.2085;
-40.2000;0.1522;-0.2108;
-39.9000;0.1522;-0.2156;
-39.6000;0.1530;-0.2180;
-39.3000;0.1612;-0.1989;
-39.0000;0.1547;-0.2156;
-38.7000;0.1547;-0.2132;
-38.4000;0.1514;-0.2252;
-38.1000;0.1530;-0.2276;
-37.8000;0.1506;-0.2228;
-37.5000;0.1530;-0.2037;
-37.2000;0.1530;-0.1989;
-36.9000;0.1530;-0.1917;
-36.6000;0.1481;-0.2085;
-36.3000;0.1522;-0.1917;
-36.0000;0.1522;-0.1965;
-35.7000;0.1563;-0.1941;
-35.4000;0.1555;-0.1941;
-35.1000;0.1555;-0.1893;
-34.8000;0.1530;-0.1989;
-34.5000;0.1555;-0.1869;
-34.2000;0.1530;-0.2013;
-33.9000;0.1530;-0.2037;
-33.6000;0.1514;-0.2180;
-33.3000;0.1522;-0.2132;
-33.0000;0.1530;-0.2085;
-32.7000;0.1522;-0.2037;
-32.4000;0.1522;-0.2013;
-32.1000;0.1538;-0.1965;
-31.8000;0.1538;-0.1917;
-31.5000;0.1547;-0.2013;
-31.2000;0.1538;-0.2061;
-30.9000;0.1522;-0.2037;
-30.6000;0.1490;-0.2180;
-30.3000;0.1522;-0.2132;
-30.0000;0.1563;-0.1941;
-29.7000;0.1547;-0.2013;
-29.4000;0.1530;-0.2061;
-29.1000;0.1465;-0.2132;
-28.8000;0.1530;-0.1917;
-28.5000;0.1555;-0.1893;
-28.2000;0.1514;-0.2085;
-27.9000;0.1530;-0.2085;
-27.6000;0.1522;-0.2132;
-27.3000;0.1538;-0.2108;
-27.0000;0.1555;-0.2037;
-26.7000;0.1522;-0.2061;
-26.4000;0.1547;-0.1965;
-26.1000;0.1538;-0.1941;
-25.8000;0.1514;-0.2085;
-25.5000;0.1677;-0.1725;
-25.2000;0.1538;-0.2085;
-24.9000;0.1555;-0.1989;
-24.6000;0.1530;-0.2061;
-24.3000;0.1530;-0.2180;
-24.0000;0.1563;-0.2156;
-23.7000;0.1538;-0.2180;
-23.4000;0.1514;-0.2061;
-23.1000;0.1530;-0.1941;
-22.8000;0.1530;-0.1989;
-22.5000;0.1473;-0.2204;
-22.2000;0.1538;-0.1989;
-21.9000;0.1530;-0.1989;
-21.6000;0.1506;-0.2037;
-21.3000;0.1547;-0.1989;
-21.0000;0.1547;-0.1965;
-20.7000;0.1538;-0.1941;
-20.4000;0.1563;-0.1845;
-20.1000;0.1555;-0.1893;
-19.8000;0.1490;-0.2085;
-19.5000;0.1538;-0.2013;
-19.2000;0.1571;-0.1989;
-18.9000;0.1530;-0.2013;
-18.6000;0.1473;-0.2156;
-18.3000;0.1514;-0.2108;
-18.0000;0.1522;-0.2037;
-17.7000;0.1530;-0.1989;
-17.4000;0.1563;-0.1893;
-17.1000;0.1555;-0.1797;
-16.8000;0.1547;-0.1845;
-16.5000;0.1441;-0.2204;
-16.2000;0.1530;-0.1989;
-15.9000;0.1538;-0.2013;
-15.6000;0.1490;-0.2204;
-15.3000;0.1522;-0.2204;
-15.0000;0.1555;-0.2037;
-14.7000;0.1604;-0.1941;
-14.4000;0.1555;-0.2037;
-14.1000;0.1538;-0.2061;
-13.8000;0.1547;-0.2156;
-13.5000;0.1522;-0.2108;
-13.2000;0.1530;-0.2085;
-12.9000;0.1538;-0.2085;
-12.6000;0.1538;-0.2061;
-12.3000;0.1547;-0.1989;
-12.0000;0.1506;-0.2013;
-11.7000;0.1522;-0.1965;
-11.4000;0.1522;-0.2013;
-11.1000;0.1547;-0.1965;
-10.8000;0.1538;-0.1989;
-10.5000;0.1481;-0.2156;
-10.2000;0.1538;-0.1941;
-9.9000;0.1514;-0.2013;
-9.6000;0.1538;-0.2013;
-9.3000;0.1506;-0.2085;
-9.0000;0.1538;-0.2108;
-8.7000;0.1530;-0.2204;
-8.4000;0.1538;-0.2156;
-8.1000;0.1571;-0.2108;
-7.8000;0.1522;-0.2180;
-7.5000;0.1522;-0.2228;
-7.2000;0.1538;-0.2085;
-6.9000;0.1538;-0.2037;
-6.6000;0.1522;-0.2037;
-6.3000;0.1538;-0.1965;
-6.0000;0.1514;-0.2037;
-5.7000;0.1538;-0.2037;
-5.4000;0.1538;-0.2037;
-5.1000;0.1538;-0.2108;
-4.8000;0.1538;-0.2013;
-4.5000;0.1522;-0.2132;
-4.2000;0.1538;-0.2037;
-3.9000;0.1530;-0.1989;
-3.6000;0.1514;-0.2037;
-3.3000;0.1555;-0.1893;
-3.0000;0.1522;-0.1893;
-2.7000;0.1522;-0.1869;
-2.4000;0.1514;-0.1917;
-2.1000;0.1538;-0.1845;
-1.8000;0.1408;-0.2204;
-1.5000;0.1579;-0.1797;
-1.2000;0.1538;-0.1941;
-0.9000;0.1530;-0.1965;
-0.6000;0.1547;-0.1965;
-0.3000;0.1563;-0.1941;
0.0000;0.1563;-0.1941;
0.3000;0.1547;-0.2061;
0.6000;0.1538;-0.1893;
0.9000;0.1555;-0.1677;
1.2000;0.1555;-0.1581;
1.5000;0.1538;-0.1438;
1.8000;0.1563;-0.1150;
2.1000;0.1579;-0.0934;
2.4000;0.1571;-0.0863;
2.7000;0.1587;-0.0767;
3.0000;0.1555;-0.0791;
3.3000;0.1571;-0.0647;
3.6000;0.1579;-0.0575;
3.9000;0.1563;-0.0551;
4.2000;0.1563;-0.0551;
4.5000;0.1587;-0.0503;
4.8000;0.1579;-0.0479;
5.1000;0.1587;-0.0455;
5.4000;0.1636;-0.0264;
5.7000;0.1636;-0.0144;
6.0000;0.1587;-0.0359;
6.3000;0.1587;-0.0335;
6.6000;0.1587;-0.0335;
6.9000;0.1595;-0.0359;
7.2000;0.1652;-0.0120;
7.5000;0.1604;-0.0240;
7.8000;0.1587;-0.0264;
8.1000;0.1579;-0.0240;
8.4000;0.1587;-0.0288;
8.7000;0.1587;-0.0311;
9.0000;0.1587;-0.0288;
9.3000;0.1595;-0.0264;
9.6000;0.1595;-0.0311;
9.9000;0.1579;-0.0311;
10.2000;0.1595;-0.0407;
10.5000;0.1587;-0.0527;
10.8000;0.1579;-0.0575;
11.1000;0.1555;-0.0671;
11.4000;0.1571;-0.0551;
11.7000;0.1563;-0.0599;
12.0000;0.1595;-0.0503;
12.3000;0.1718;-0.0120;
12.6000;0.1579;-0.0551;
12.9000;0.1587;-0.0503;
13.2000;0.1579;-0.0455;
13.5000;0.1628;-0.0335;
13.8000;0.1579;-0.0527;
14.1000;0.1563;-0.0479;
14.4000;0.1579;-0.0383;
14.7000;0.1587;-0.0359;
15.0000;0.1587;-0.0431;
15.3000;0.1490;-0.0767;
15.6000;0.1555;-0.0719;
15.9000;0.1612;-0.0599;
16.2000;0.1538;-0.0767;
16.5000;0.1579;-0.0671;
16.8000;0.1579;-0.0647;
17.1000;0.1604;-0.0527;
17.4000;0.1579;-0.0575;
17.7000;0.1587;-0.0503;
18.0000;0.1587;-0.0383;
18.3000;0.1579;-0.0383;
18.6000;0.1587;-0.0359;
18.9000;0.1587;-0.0335;
19.2000;0.1587;-0.0288;
19.5000;0.1579;-0.0264;
19.8000;0.1587;-0.0216;
20.1000;0.1587;-0.0359;
20.4000;0.1595;-0.0431;
20.7000;0.1595;-0.0407;
21.0000;0.1555;-0.0503;
21.3000;0.1620;-0.0455;
21.6000;0.1620;-0.0359;
21.9000;0.1595;-0.0479;
22.2000;0.1522;-0.0575;
22.5000;0.1514;-0.0599;
22.8000;0.1587;-0.0431;
23.1000;0.1604;-0.0288;
23.4000;0.1563;-0.0479;
23.7000;0.1587;-0.0383;
24.0000;0.1595;-0.0383;
24.3000;0.1612;-0.0311;
24.6000;0.1538;-0.0575;
24.9000;0.1579;-0.0527;
25.2000;0.1595;-0.0479;
25.5000;0.1587;-0.0551;
25.8000;0.1579;-0.0503;
26.1000;0.1612;-0.0431;
26.4000;0.1595;-0.0383;
26.7000;0.1587;-0.0503;
27.0000;0.1595;-0.0599;
27.3000;0.1587;-0.0647;
27.6000;0.1604;-0.0527;
27.9000;0.1604;-0.0551;
28.2000;0.1595;-0.0599;
28.5000;0.1579;-0.0671;
28.8000;0.1571;-0.0551;
29.1000;0.1620;-0.0455;
29.4000;0.1595;-0.0551;
29.7000;0.1571;-0.0599;
30.0000;0.1579;-0.0647;
30.3000;0.1571;-0.0647;
30.6000;0.1595;-0.0551;
30.9000;0.1587;-0.0599;
31.2000;0.1579;-0.0479;
31.5000;0.1587;-0.0407;
31.8000;0.1636;-0.0264;
32.1000;0.1595;-0.0407;
32.4000;0.1595;-0.0335;
32.7000;0.1587;-0.0383;
33.0000;0.1604;-0.0431;
33.3000;0.1595;-0.0455;
33.6000;0.1595;-0.0455;
33.9000;0.1563;-0.0575;
34.2000;0.1595;-0.0551;
34.5000;0.1604;-0.0527;
34.8000;0.1587;-0.0575;
35.1000;0.1595;-0.0575;
35.4000;0.1563;-0.0767;
35.7000;0.1595;-0.0671;
36.0000;0.1579;-0.0767;
36.3000;0.1595;-0.0767;
36.6000;0.1547;-0.0815;
36.9000;0.1571;-0.0695;
37.2000;0.1587;-0.0623;
37.5000;0.1571;-0.0671;
37.8000;0.1587;-0.0623;
38.1000;0.1587;-0.0671;
38.4000;0.1514;-0.0863;
38.7000;0.1571;-0.0671;
39.0000;0.1595;-0.0623;
39.3000;0.1522;-0.0719;
39.6000;0.1587;-0.0575;
39.9000;0.1579;-0.0527;
40.2000;0.1587;-0.0431;
40.5000;0.1587;-0.0455;
40.8000;0.1587;-0.0359;
41.1000;0.1587;-0.0359;
41.4000;0.1579;-0.0455;
41.7000;0.1595;-0.0407;
42.0000;0.1563;-0.0599;
42.3000;0.1587;-0.0479;
42.6000;0.1571;-0.0503;
42.9000;0.1579;-0.0479;
43.2000;0.1587;-0.0407;
43.5000;0.1563;-0.0335;
43.8000;0.1587;-0.0311;
44.1000;0.1538;-0.0431;
44.4000;0.1595;-0.0288;
44.7000;0.1506;-0.0527;
45.0000;0.1579;-0.0359;
45.3000;0.1587;-0.0383;
45.6000;0.1579;-0.0383;
45.9000;0.1604;-0.0335;
46.2000;0.1644;-0.0192;
46.5000;0.1571;-0.0359;
46.8000;0.1661;-0.0216;
47.1000;0.1579;-0.0431;
47.4000;0.1612;-0.0288;
47.7000;0.1628;-0.0288;
48.0000;0.1587;-0.0455;
48.3000;0.1587;-0.0431;
48.6000;0.1595;-0.0335;
48.9000;0.1571;-0.0383;
49.2000;0.1579;-0.0383;
49.5000;0.1579;-0.0335;
49.8000;0.1604;-0.0288;
50.1000;0.1579;-0.0431;
50.4000;0.1620;-0.0383;
50.7000;0.1587;-0.0575;
51.0000;0.1555;-0.0623;
51.3000;0.1595;-0.0503;
51.6000;0.1555;-0.0575;
51.9000;0.1579;-0.0407;
52.2000;0.1587;-0.0431;
52.5000;0.1685;-0.0192;
52.8000;0.1571;-0.0455;
53.1000;0.1612;-0.0311;
53.4000;0.1595;-0.0335;
53.7000;0.1677;-0.0192;
54.0000;0.1595;-0.0335;
54.3000;0.1595;-0.0264;
54.6000;0.1465;-0.0599;
54.9000;0.1595;-0.0311;
55.2000;0.1612;-0.0288;
55.5000;0.1555;-0.0335;
55.8000;0.1661;-0.0048;
56.1000;0.1547;-0.0335;
56.4000;0.1579;-0.0311;
56.7000;0.1587;-0.0240;
57.0000;0.1571;-0.0288;
57.3000;0.1579;-0.0240;
57.6000;0.1547;-0.0288;
57.9000;0.1579;-0.0216;
58.2000;0.1595;-0.0216;
58.5000;0.1579;-0.0288;
58.8000;0.1587;-0.0288;
59.1000;0.1425;-0.0767;
59.4000;0.1587;-0.0407;
59.7000;0.1563;-0.0407;
60.0000;0.1522;-0.0527;
60.3000;0.1587;-0.0383;
60.6000;0.1490;-0.0743;
60.9000;0.1571;-0.0527;
61.2000;0.1595;-0.0383;
61.5000;0.1514;-0.0623;
61.8000;0.1595;-0.0383;
62.1000;0.1587;-0.0455;
62.4000;0.1579;-0.0527;
62.7000;0.1563;-0.0599;
63.0000;0.1563;-0.0623;
63.3000;0.1571;-0.0623;
63.6000;0.1595;-0.0503;
63.9000;0.1571;-0.0575;
64.2000;0.1571;-0.0575;
64.5000;0.1587;-0.0551;
64.8000;0.1571;-0.0527;
65.1000;0.1587;-0.0527;
65.4000;0.1579;-0.0455;
65.7000;0.1595;-0.0431;
66.0000;0.1587;-0.0479;
66.3000;0.1604;-0.0359;
66.6000;0.1571;-0.0479;
66.9000;0.1587;-0.0431;
67.2000;0.1595;-0.0479;
67.5000;0.1587;-0.0455;
67.8000;0.1595;-0.0479;
68.1000;0.1595;-0.0503;
68.4000;0.1612;-0.0479;
68.7000;0.1571;-0.0551;
69.0000;0.1579;-0.0527;
69.3000;0.1579;-0.0551;
69.6000;0.1644;-0.0479;
69.9000;0.1595;-0.0575;
70.2000;0.1506;-0.0839;
70.5000;0.1587;-0.0599;
70.8000;0.1587;-0.0623;
71.1000;0.1579;-0.0743;
71.4000;0.1498;-0.0910;
71.7000;0.1709;-0.0288;
72.0000;0.1587;-0.0599;
72.3000;0.1595;-0.0383;
72.6000;0.1579;-0.0383;
72.9000;0.1587;-0.0288;
73.2000;0.1587;-0.0383;
73.5000;0.1604;-0.0335;
73.8000;0.1571;-0.0551;
74.1000;0.1571;-0.0575;
74.4000;0.1636;-0.0503;
74.7000;0.1595;-0.0503;
75.0000;0.1587;-0.0455;
75.3000;0.1563;-0.0551;
75.6000;0.1571;-0.0431;
75.9000;0.1595;-0.0407;
76.2000;0.1595;-0.0288;
76.5000;0.1579;-0.0311;
76.8000;0.1644;-0.0264;
77.1000;0.1563;-0.0551;
77.4000;0.1571;-0.0455;
77.7000;0.1620;-0.0359;
78.0000;0.1587;-0.0407;
78.3000;0.1571;-0.0431;
78.6000;0.1652;-0.0264;
78.9000;0.1563;-0.0479;
79.2000;0.1571;-0.0455;
79.5000;0.1563;-0.0527;
79.8000;0.1579;-0.0551;
80.1000;0.1563;-0.0671;
80.4000;0.1604;-0.0647;
80.7000;0.1587;-0.0599;
81.0000;0.1587;-0.0599;
81.3000;0.1595;-0.0599;
81.6000;0.1579;-0.0671;
81.9000;0.1587;-0.0671;
82.2000;0.1685;-0.0431;
82.5000;0.1604;-0.0647;
82.8000;0.1571;-0.0815;
83.1000;0.1587;-0.0791;
83.4000;0.1579;-0.0767;
83.7000;0.1595;-0.0623;
84.0000;0.1579;-0.0647;
84.3000;0.1571;-0.0647;
84.6000;0.1693;-0.0335;
84.9000;0.1506;-0.0887;
85.2000;0.1587;-0.0767;
85.5000;0.1579;-0.0767;
85.8000;0.1587;-0.0743;
86.1000;0.1628;-0.0527;
86.4000;0.1555;-0.0671;
86.7000;0.1604;-0.0575;
87.0000;0.1595;-0.0575;
87.3000;0.1587;-0.0527;
87.6000;0.1587;-0.0551;
87.9000;0.1579;-0.0503;
88.2000;0.1693;-0.0168;
88.5000;0.1587;-0.0455;
88.8000;0.1571;-0.0575;
89.1000;0.1563;-0.0599;
89.4000;0.1579;-0.0599;
89.7000;0.1620;-0.0431;
90.0000;0.1538;-0.0551;
90.3000;0.1579;-0.0503;
90.6000;0.1677;-0.0216;
90.9000;0.1587;-0.0407;
91.2000;0.1563;-0.0479;
91.5000;0.1571;-0.0527;
91.8000;0.1595;-0.0407;
92.1000;0.1595;-0.0359;
92.4000;0.1579;-0.0335;
92.7000;0.1530;-0.0647;
93.0000;0.1587;-0.0431;
93.3000;0.1620;-0.0407;
93.6000;0.1595;-0.0407;
93.9000;0.1661;-0.0264;
94.2000;0.1579;-0.0503;
94.5000;0.1595;-0.0503;
94.8000;0.1595;-0.0575;
95.1000;0.1587;-0.0551;
95.4000;0.1595;-0.0455;
95.7000;0.1620;-0.0431;
96.0000;0.1587;-0.0479;
96.3000;0.1563;-0.0503;
96.6000;0.1587;-0.0479;
96.9000;0.1571;-0.0503;
97.2000;0.1620;-0.0455;
97.5000;0.1563;-0.0599;
97.8000;0.1595;-0.0551;
98.1000;0.1579;-0.0527;
98.4000;0.1579;-0.0479;
98.7000;0.1587;-0.0335;
99.0000;0.1587;-0.0240;
99.3000;0.1587;-0.0216;
99.6000;0.1595;-0.0240;
99.9000;0.1555;-0.0407;
100.2000;0.1579;-0.0455;
100.5000;0.1555;-0.0647;
100.8000;0.1595;-0.0503;
101.1000;0.1538;-0.0599;
101.4000;0.1457;-0.0887;
101.7000;0.1579;-0.0551;
102.0000;0.1579;-0.0551;
102.3000;0.1587;-0.0527;
102.6000;0.1595;-0.0503;
102.9000;0.1587;-0.0575;
103.2000;0.1579;-0.0527;
103.5000;0.1571;-0.0479;
103.8000;0.1579;-0.0503;
104.1000;0.1571;-0.0503;
104.4000;0.1587;-0.0431;
104.7000;0.1571;-0.0407;
105.0000;0.1587;-0.0431;
105.3000;0.1595;-0.0407;
105.6000;0.1579;-0.0479;
105.9000;0.1547;-0.0575;
106.2000;0.1571;-0.0431;
106.5000;0.1571;-0.0479;
106.8000;0.1579;-0.0503;
107.1000;0.1579;-0.0551;
107.4000;0.1595;-0.0551;
107.7000;0.1555;-0.0647;
108.0000;0.1579;-0.0623;
108.3000;0.1571;-0.0575;
108.6000;0.1514;-0.0719;
108.9000;0.1587;-0.0479;
109.2000;0.1571;-0.0479;
109.5000;0.1555;-0.0527;
109.8000;0.1579;-0.0479;
110.1000;0.1587;-0.0479;
110.4000;0.1571;-0.0479;
110.7000;0.1555;-0.0527;
111.0000;0.1563;-0.0503;
111.3000;0.1587;-0.0407;
111.6000;0.1595;-0.0407;
111.9000;0.1579;-0.0431;
112.2000;0.1563;-0.0431;
112.5000;0.1571;-0.0407;
112.8000;0.1481;-0.0671;
113.1000;0.1587;-0.0311;
113.4000;0.1587;-0.0335;
113.7000;0.1563;-0.0407;
114.0000;0.1587;-0.0311;
114.3000;0.1579;-0.0288;
114.6000;0.1587;-0.0335;
114.9000;0.1604;-0.0288;
115.2000;0.1579;-0.0407;
115.5000;0.1563;-0.0479;
115.8000;0.1652;-0.0311;
116.1000;0.1595;-0.0431;
116.4000;0.1579;-0.0431;
116.7000;0.1571;-0.0503;
117.0000;0.1571;-0.0527;
117.3000;0.1563;-0.0551;
117.6000;0.1587;-0.0455;
117.9000;0.1579;-0.0431;
118.2000;0.1571;-0.0455;
118.5000;0.1595;-0.0288;
118.8000;0.1644;-0.0311;
119.1000;0.1579;-0.0479;
119.4000;0.1604;-0.0455;
119.7000;0.1571;-0.0479;
120.0000;0.1563;-0.0455;
120.3000;0.1563;-0.0503;
120.6000;0.1587;-0.0455;
120.9000;0.1587;-0.0527;
121.2000;0.1579;-0.0527;
121.5000;0.1563;-0.0503;
121.8000;0.1587;-0.0407;
122.1000;0.1563;-0.0431;
122.4000;0.1587;-0.0335;
122.7000;0.1587;-0.0407;
123.0000;0.1587;-0.0455;
123.3000;0.1587;-0.0407;
123.6000;0.1579;-0.0359;
123.9000;0.1563;-0.0383;
124.2000;0.1612;-0.0335;
124.5000;0.1612;-0.0311;
124.8000;0.1587;-0.0240;
125.1000;0.1595;-0.0240;
125.4000;0.1652;-0.0192;
125.7000;0.1604;-0.0383;
126.0000;0.1579;-0.0431;
126.3000;0.1571;-0.0455;
126.6000;0.1571;-0.0359;
126.9000;0.1604;-0.0216;
127.2000;0.1571;-0.0335;
127.5000;0.1563;-0.0264;
127.8000;0.1555;-0.0335;
128.1000;0.1587;-0.0311;
128.4000;0.1547;-0.0383;
128.7000;0.1579;-0.0359;
129.0000;0.1587;-0.0359;
129.3000;0.1579;-0.0288;
129.6000;0.1547;-0.0311;
129.9000;0.1571;-0.0335;
130.2000;0.1579;-0.0335;
130.5000;0.1563;-0.0479;
130.8000;0.1579;-0.0503;
131.1000;0.1571;-0.0527;
131.4000;0.1538;-0.0527;
131.7000;0.1571;-0.0359;
132.0000;0.1579;-0.0383;
132.3000;0.1555;-0.0431;
132.6000;0.1579;-0.0288;
132.9000;0.1587;-0.0335;
133.2000;0.1506;-0.0623;
133.5000;0.1595;-0.0383;
133.8000;0.1587;-0.0455;
134.1000;0.1579;-0.0383;
134.4000;0.1571;-0.0407;
134.7000;0.1571;-0.0431;
135.0000;0.1579;-0.0383;
135.3000;0.1579;-0.0455;
135.6000;0.1563;-0.0479;
135.9000;0.1587;-0.0407;
136.2000;0.1530;-0.0647;
136.5000;0.1538;-0.0575;
136.8000;0.1547;-0.0599;
137.1000;0.1538;-0.0551;
137.4000;0.1571;-0.0455;
137.7000;0.1547;-0.0599;
138.0000;0.1579;-0.0455;
138.3000;0.1522;-0.0527;
138.6000;0.1563;-0.0479;
138.9000;0.1579;-0.0455;
139.2000;0.1563;-0.0527;
139.5000;0.1571;-0.0599;
139.8000;0.1571;-0.0527;
140.1000;0.1587;-0.0479;
140.4000;0.1587;-0.0503;
140.7000;0.1530;-0.0647;
141.0000;0.1587;-0.0527;
141.3000;0.1571;-0.0575;
141.6000;0.1579;-0.0527;
141.9000;0.1571;-0.0551;
142.2000;0.1587;-0.0383;
142.5000;0.1587;-0.0359;
142.8000;0.1563;-0.0407;
143.1000;0.1587;-0.0359;
143.4000;0.1587;-0.0240;
143.7000;0.1595;-0.0216;
144.0000;0.1587;-0.0192;
144.3000;0.1612;-0.0096;
144.6000;0.1587;-0.0240;
144.9000;0.1571;-0.0335;
145.2000;0.1595;-0.0288;
145.5000;0.1595;-0.0240;
145.8000;0.1587;-0.0335;
146.1000;0.1579;-0.0359;
146.4000;0.1547;-0.0479;
146.7000;0.1636;-0.0288;
147.0000;0.1579;-0.0407;
147.3000;0.1555;-0.0479;
147.6000;0.1587;-0.0407;
147.9000;0.1587;-0.0503;
148.2000;0.1555;-0.0575;
148.5000;0.1563;-0.0575;
148.8000;0.1579;-0.0551;
149.1000;0.1563;-0.0503;
149.4000;0.1587;-0.0455;
149.7000;0.1579;-0.0527;
150.0000;0.1579;-0.0407;
150.3000;0.1579;-0.0383;
150.6000;0.1579;-0.0359;
150.9000;0.1579;-0.0383;
151.2000;0.1579;-0.0383;
151.5000;0.1571;-0.0383;
151.8000;0.1595;-0.0240;
152.1000;0.1587;-0.0359;
152.4000;0.1669;-0.0168;
152.7000;0.1587;-0.0407;
153.0000;0.1636;-0.0264;
153.3000;0.1587;-0.0383;
153.6000;0.1595;-0.0335;
153.9000;0.1579;-0.0335;
154.2000;0.1595;-0.0383;
154.5000;0.1587;-0.0335;
154.8000;0.1555;-0.0407;
155.1000;0.1628;-0.0240;
155.4000;0.1587;-0.0431;
155.7000;0.1587;-0.0431;
156.0000;0.1587;-0.0455;
156.3000;0.1571;-0.0455;
156.6000;0.1555;-0.0479;
156.9000;0.1587;-0.0407;
157.2000;0.1595;-0.0359;
157.5000;0.1579;-0.0311;
157.8000;0.1587;-0.0359;
158.1000;0.1571;-0.0359;
158.4000;0.1587;-0.0455;
158.7000;0.1579;-0.0527;
159.0000;0.1571;-0.0455;
159.3000;0.1555;-0.0455;
159.6000;0.1661;-0.0168;
159.9000;0.1612;-0.0311;
160.2000;0.1587;-0.0479;
160.5000;0.1563;-0.0479;
160.8000;0.1628;-0.0311;
161.1000;0.1555;-0.0431;
161.4000;0.1579;-0.0335;
161.7000;0.1579;-0.0335;
162.0000;0.1595;-0.0288;
162.3000;0.1547;-0.0407;
162.6000;0.1571;-0.0431;
162.9000;0.1579;-0.0407;
163.2000;0.1636;-0.0264;
163.5000;0.1604;-0.0383;
163.8000;0.1612;-0.0359;
164.1000;0.1587;-0.0383;
164.4000;0.1612;-0.0311;
164.7000;0.1595;-0.0335;
165.0000;0.1587;-0.0359;
165.3000;0.1669;-0.0096;
165.6000;0.1587;-0.0216;
165.9000;0.1571;-0.0264;
166.2000;0.1595;-0.0288;
166.5000;0.1587;-0.0383;
166.8000;0.1604;-0.0288;
167.1000;0.1587;-0.0311;
167.4000;0.1612;-0.0359;
167.7000;0.1441;-0.0743;
168.0000;0.1571;-0.0455;
168.3000;0.1595;-0.0455;
168.6000;0.1644;-0.0383;
168.9000;0.1571;-0.0551;
169.2000;0.1612;-0.0455;
169.5000;0.1506;-0.0791;
169.8000;0.1636;-0.0383;
170.1000;0.1579;-0.0503;
170.4000;0.1579;-0.0455;
170.7000;0.1530;-0.0455;
171.0000;0.1579;-0.0288;
171.3000;0.1595;-0.0264;
171.6000;0.1595;-0.0311;
171.9000;0.1579;-0.0479;
172.2000;0.1661;-0.0288;
172.5000;0.1571;-0.0383;
172.8000;0.1547;-0.0479;
173.1000;0.1571;-0.0527;
173.4000;0.1587;-0.0503;
173.7000;0.1530;-0.0575;
174.0000;0.1612;-0.0359;
174.3000;0.1587;-0.0479;
174.6000;0.1595;-0.0455;
174.9000;0.1595;-0.0455;
175.2000;0.1587;-0.0383;
175.5000;0.1571;-0.0383;
175.8000;0.1571;-0.0383;
176.1000;0.1547;-0.0527;
176.4000;0.1547;-0.0575;
176.7000;0.1587;-0.0503;
177.0000;0.1587;-0.0599;
177.3000;0.1661;-0.0431;
177.6000;0.1587;-0.0599;
177.9000;0.1571;-0.0623;
178.2000;0.1604;-0.0503;
178.5000;0.1595;-0.0503;
178.8000;0.1571;-0.0479;
179.1000;0.1579;-0.0431;
179.4000;0.1571;-0.0335;
179.7000;0.1579;-0.0240;
180.0000;0.1595;-0.0240;
180.3000;0.1587;-0.0311;
180.6000;0.1547;-0.0335;
180.9000;0.1579;-0.0240;
181.2000;0.1579;-0.0240;
181.5000;0.1563;-0.0240;
181.8000;0.1555;-0.0311;
182.1000;0.1555;-0.0264;
182.4000;0.1579;-0.0120;
182.7000;0.1547;-0.0168;
183.0000;0.1530;-0.0264;
183.3000;0.1604;-0.0096;
183.6000;0.1579;-0.0192;
183.9000;0.1628;-0.0096;
184.2000;0.1563;-0.0216;
184.5000;0.1555;-0.0335;
184.8000;0.1538;-0.0335;
185.1000;0.1579;-0.0192;
185.4000;0.1579;-0.0216;
185.7000;0.1587;-0.0216;
186.0000;0.1563;-0.0216;
186.3000;0.1587;-0.0264;
186.6000;0.1628;-0.0216;
186.9000;0.1595;-0.0359;
187.2000;0.1579;-0.0527;
187.5000;0.1579;-0.0503;
187.8000;0.1563;-0.0551;
188.1000;0.1555;-0.0479;
188.4000;0.1563;-0.0359;
188.7000;0.1563;-0.0407;
189.0000;0.1579;-0.0383;
189.3000;0.1612;-0.0311;
189.6000;0.1547;-0.0407;
189.9000;0.1571;-0.0359;
190.2000;0.1555;-0.0407;
190.5000;0.1571;-0.0407;
190.8000;0.1595;-0.0383;
191.1000;0.1595;-0.0335;
191.4000;0.1579;-0.0335;
191.7000;0.1620;-0.0192;
192.0000;0.1595;-0.0240;
192.3000;0.1555;-0.0383;
192.6000;0.1628;-0.0216;
192.9000;0.1587;-0.0431;
193.2000;0.1579;-0.0503;
193.5000;0.1579;-0.0455;
193.8000;0.1522;-0.0623;
194.1000;0.1620;-0.0407;
194.4000;0.1571;-0.0455;
194.7000;0.1579;-0.0335;
195.0000;0.1579;-0.0383;
195.3000;0.1571;-0.0455;
195.6000;0.1555;-0.0479;
195.9000;0.1587;-0.0431;
196.2000;0.1563;-0.0407;
196.5000;0.1579;-0.0407;
196.8000;0.1563;-0.0431;
197.1000;0.1555;-0.0431;
197.4000;0.1595;-0.0311;
197.7000;0.1587;-0.0335;
198.0000;0.1522;-0.0383;
198.3000;0.1595;-0.0216;
198.6000;0.1571;-0.0264;
198.9000;0.1579;-0.0216;
199.2000;0.1587;-0.0240;
199.5000;0.1579;-0.0240;
199.8000;0.1571;-0.0264;
200.1000;0.1579;-0.0216;
200.4000;0.1473;-0.0575;
200.7000;0.1587;-0.0264;
201.0000;0.1579;-0.0311;
201.3000;0.1555;-0.0359;
201.6000;0.1579;-0.0335;
201.9000;0.1555;-0.0455;
202.2000;0.1571;-0.0407;
202.5000;0.1595;-0.0359;
202.8000;0.1579;-0.0359;
203.1000;0.1571;-0.0359;
203.4000;0.1571;-0.0264;
203.7000;0.1547;-0.0479;
204.0000;0.1579;-0.0431;
204.3000;0.1587;-0.0455;
204.6000;0.1579;-0.0527;
204.9000;0.1522;-0.0671;
205.2000;0.1587;-0.0359;
205.5000;0.1595;-0.0264;
205.8000;0.1579;-0.0311;
206.1000;0.1514;-0.0431;
206.4000;0.1579;-0.0311;
206.7000;0.1563;-0.0359;
207.0000;0.1587;-0.0383;
207.3000;0.1449;-0.0767;
207.6000;0.1579;-0.0407;
207.9000;0.1547;-0.0527;
208.2000;0.1571;-0.0359;
208.5000;0.1571;-0.0431;
208.8000;0.1538;-0.0599;
209.1000;0.1628;-0.0288;
209.4000;0.1587;-0.0311;
209.7000;0.1587;-0.0311;
210.0000;0.1563;-0.0431;
210.3000;0.1587;-0.0359;
210.6000;0.1473;-0.0767;
210.9000;0.1579;-0.0479;
211.2000;0.1571;-0.0503;
211.5000;0.1604;-0.0431;
211.8000;0.1636;-0.0311;
212.1000;0.1587;-0.0455;
212.4000;0.1563;-0.0455;
212.7000;0.1538;-0.0431;
213.0000;0.1490;-0.0599;
213.3000;0.1571;-0.0383;
213.6000;0.1571;-0.0407;
213.9000;0.1563;-0.0527;
214.2000;0.1571;-0.0479;
214.5000;0.1587;-0.0335;
214.8000;0.1563;-0.0431;
215.1000;0.1530;-0.0527;
215.4000;0.1563;-0.0359;
215.7000;0.1563;-0.0311;
216.0000;0.1571;-0.0240;
216.3000;0.1457;-0.0599;
216.6000;0.1579;-0.0311;
216.9000;0.1604;-0.0216;
217.2000;0.1579;-0.0240;
217.5000;0.1563;-0.0311;
217.8000;0.1555;-0.0407;
218.1000;0.1563;-0.0407;
218.4000;0.1490;-0.0623;
218.7000;0.1571;-0.0503;
219.0000;0.1571;-0.0479;
219.3000;0.1555;-0.0599;
219.6000;0.1579;-0.0503;
219.9000;0.1587;-0.0527;
220.2000;0.1579;-0.0479;
220.5000;0.1604;-0.0359;
220.8000;0.1604;-0.0335;
221.1000;0.1595;-0.0335;
221.4000;0.1563;-0.0359;
221.7000;0.1571;-0.0335;
222.0000;0.1595;-0.0264;
222.3000;0.1587;-0.0264;
222.6000;0.1604;-0.0288;
222.9000;0.1579;-0.0335;
223.2000;0.1571;-0.0431;
223.5000;0.1604;-0.0311;
223.8000;0.1579;-0.0383;
224.1000;0.1587;-0.0311;
224.4000;0.1506;-0.0623;
224.7000;0.1563;-0.0407;
225.0000;0.1587;-0.0288;
225.3000;0.1579;-0.0383;
225.6000;0.1620;-0.0359;
225.9000;0.1587;-0.0407;
226.2000;0.1547;-0.0575;
226.5000;0.1579;-0.0407;
226.8000;0.1595;-0.0383;
227.1000;0.1587;-0.0479;
227.4000;0.1563;-0.0527;
227.7000;0.1571;-0.0479;
228.0000;0.1579;-0.0431;
228.3000;0.1579;-0.0383;
228.6000;0.1579;-0.0359;
228.9000;0.1571;-0.0383;
229.2000;0.1530;-0.0455;
229.5000;0.1571;-0.0383;
229.8000;0.1538;-0.0455;
230.1000;0.1547;-0.0455;
230.4000;0.1563;-0.0527;
230.7000;0.1498;-0.0671;
231.0000;0.1563;-0.0503;
231.3000;0.1587;-0.0335;
231.6000;0.1571;-0.0288;
231.9000;0.1612;-0.0192;
232.2000;0.1579;-0.0264;
232.5000;0.1571;-0.0264;
232.8000;0.1465;-0.0623;
233.1000;0.1563;-0.0359;
233.4000;0.1579;-0.0288;
233.7000;0.1555;-0.0359;
234.0000;0.1604;-0.0264;
234.3000;0.1587;-0.0288;
234.6000;0.1587;-0.0335;
234.9000;0.1587;-0.0288;
235.2000;0.1547;-0.0383;
235.5000;0.1604;-0.0240;
235.8000;0.1579;-0.0311;
236.1000;0.1579;-0.0311;
236.4000;0.1595;-0.0240;
236.7000;0.1595;-0.0288;
237.0000;0.1579;-0.0311;
237.3000;0.1563;-0.0311;
237.6000;0.1571;-0.0264;
237.9000;0.1604;-0.0144;
238.2000;0.1579;-0.0192;
238.5000;0.1579;-0.0240;
238.8000;0.1571;-0.0311;
239.1000;0.1571;-0.0335;
239.4000;0.1612;-0.0168;
239.7000;0.1571;-0.0168;
240.0000;0.1579;-0.0216;
240.3000;0.1595;-0.0144;
240.6000;0.1571;-0.0240;
240.9000;0.1563;-0.0168;
241.2000;0.1579;-0.0216;
241.5000;0.1522;-0.0311;
241.8000;0.1579;-0.0192;
242.1000;0.1579;-0.0359;
242.4000;0.1587;-0.0240;
242.7000;0.1612;-0.0168;
243.0000;0.1595;-0.0144;
243.3000;0.1579;-0.0192;
243.6000;0.1587;-0.0168;
243.9000;0.1571;-0.0120;
244.2000;0.1587;-0.0192;
244.5000;0.1571;-0.0311;
244.8000;0.1579;-0.0264;
245.1000;0.1579;-0.0288;
245.4000;0.1587;-0.0216;
245.7000;0.1587;-0.0120;
246.0000;0.1571;-0.0120;
246.3000;0.1563;-0.0168;
246.6000;0.1563;-0.0192;
246.9000;0.1587;-0.0096;
247.2000;0.1579;-0.0072;
247.5000;0.1571;-0.0120;
247.8000;0.1571;-0.0096;
248.1000;0.1587;0.0000;
248.4000;0.1579;-0.0072;
248.7000;0.1563;-0.0192;
249.0000;0.1563;-0.0192;
249.3000;0.1579;-0.0216;
249.6000;0.1579;-0.0192;
249.9000;0.1571;-0.0192;
250.2000;0.1587;-0.0120;
250.5000;0.1587;-0.0216;
250.8000;0.1587;-0.0240;
251.1000;0.1595;-0.0192;
251.4000;0.1490;-0.0551;
251.7000;0.1571;-0.0407;
252.0000;0.1587;-0.0335;
252.3000;0.1579;-0.0311;
252.6000;0.1571;-0.0359;
252.9000;0.1587;-0.0311;
253.2000;0.1490;-0.0455;
253.5000;0.1636;-0.0096;
253.8000;0.1547;-0.0288;
254.1000;0.1538;-0.0288;
254.4000;0.1604;-0.0120;
254.7000;0.1595;-0.0192;
255.0000;0.1571;-0.0264;
255.3000;0.1595;-0.0240;
255.6000;0.1595;-0.0288;
255.9000;0.1628;-0.0144;
256.2000;0.1457;-0.0575;
256.5000;0.1595;-0.0240;
256.8000;0.1587;-0.0311;
257.1000;0.1579;-0.0383;
257.4000;0.1457;-0.0647;
257.7000;0.1571;-0.0311;
258.0000;0.1579;-0.0264;
258.3000;0.1571;-0.0192;
258.6000;0.1579;-0.0168;
258.9000;0.1571;-0.0240;
259.2000;0.1563;-0.0288;
259.5000;0.1514;-0.0503;
259.8000;0.1579;-0.0240;
260.1000;0.1595;-0.0192;
260.4000;0.1604;-0.0120;
260.7000;0.1571;-0.0216;
261.0000;0.1563;-0.0240;
261.3000;0.1628;0.0048;
261.6000;0.1620;-0.0024;
261.9000;0.1571;-0.0192;
262.2000;0.1555;-0.0240;
262.5000;0.1563;-0.0264;
262.8000;0.1555;-0.0192;
263.1000;0.1579;-0.0120;
263.4000;0.1595;-0.0072;
263.7000;0.1652;0.0048;
264.0000;0.1595;-0.0144;
264.3000;0.1547;-0.0264;
264.6000;0.1498;-0.0359;
264.9000;0.1595;-0.0144;
265.2000;0.1612;-0.0048;
265.5000;0.1571;-0.0144;
265.8000;0.1433;-0.0479;
266.1000;0.1571;-0.0216;
266.4000;0.1571;-0.0240;
266.7000;0.1604;-0.0216;
267.0000;0.1571;-0.0264;
267.3000;0.1628;-0.0072;
267.6000;0.1547;-0.0264;
267.9000;0.1563;-0.0144;
268.2000;0.1563;-0.0072;
268.5000;0.1579;-0.0096;
268.8000;0.1563;-0.0192;
269.1000;0.1587;-0.0216;
269.4000;0.1595;-0.0168;
269.7000;0.1587;-0.0216;
270.0000;0.1579;-0.0216;
270.3000;0.1612;-0.0216;
270.6000;0.1571;-0.0335;
270.9000;0.1571;-0.0359;
271.2000;0.1587;-0.0359;
271.5000;0.1579;-0.0431;
271.8000;0.1579;-0.0407;
272.1000;0.1555;-0.0335;
272.4000;0.1571;-0.0335;
272.7000;0.1571;-0.0288;
273.0000;0.1595;-0.0216;
273.3000;0.1604;-0.0240;
273.6000;0.1579;-0.0288;
273.9000;0.1587;-0.0216;
274.2000;0.1579;-0.0240;
274.5000;0.1571;-0.0288;
274.8000;0.1571;-0.0359;
275.1000;0.1571;-0.0359;
275.4000;0.1587;-0.0407;
275.7000;0.1555;-0.0383;
276.0000;0.1563;-0.0383;
276.3000;0.1587;-0.0288;
276.6000;0.1579;-0.0240;
276.9000;0.1587;-0.0240;
277.2000;0.1563;-0.0264;
277.5000;0.1506;-0.0359;
277.8000;0.1579;-0.0144;
278.1000;0.1595;-0.0072;
278.4000;0.1579;-0.0144;
278.7000;0.1538;-0.0144;
279.0000;0.1571;-0.0096;
279.3000;0.1595;-0.0144;
279.6000;0.1571;-0.0240;
279.9000;0.1644;-0.0072;
280.2000;0.1587;-0.0216;
280.5000;0.1587;-0.0264;
280.8000;0.1595;-0.0264;
281.1000;0.1571;-0.0383;
281.4000;0.1571;-0.0311;
281.7000;0.1498;-0.0479;
282.0000;0.1587;-0.0240;
282.3000;0.1571;-0.0264;
282.6000;0.1604;-0.0168;
282.9000;0.1587;-0.0216;
283.2000;0.1579;-0.0216;
283.5000;0.1530;-0.0407;
283.8000;0.1530;-0.0407;
284.1000;0.1587;-0.0240;
284.4000;0.1530;-0.0311;
284.7000;0.1595;-0.0168;
285.0000;0.1644;0.0024;
285.3000;0.1563;-0.0240;
285.6000;0.1563;-0.0240;
285.9000;0.1579;-0.0216;
286.2000;0.1555;-0.0264;
286.5000;0.1547;-0.0383;
286.8000;0.1457;-0.0695;
287.1000;0.1530;-0.0431;
287.4000;0.1579;-0.0311;
287.7000;0.1563;-0.0431;
288.0000;0.1555;-0.0407;
288.3000;0.1522;-0.0431;
288.6000;0.1522;-0.0455;
288.9000;0.1571;-0.0311;
289.2000;0.1587;-0.0288;
289.5000;0.1612;-0.0311;
289.8000;0.1636;-0.0216;
290.1000;0.1644;-0.0096;
290.4000;0.1595;-0.0240;
290.7000;0.1587;-0.0288;
291.0000;0.1579;-0.0288;
291.3000;0.1579;-0.0311;
291.6000;0.1555;-0.0288;
291.9000;0.1571;-0.0168;
292.2000;0.1571;-0.0216;
292.5000;0.1579;-0.0192;
292.8000;0.1587;-0.0216;
293.1000;0.1571;-0.0216;
293.4000;0.1587;-0.0120;
293.7000;0.1563;-0.0144;
294.0000;0.1587;-0.0096;
294.3000;0.1579;-0.0120;
294.6000;0.1571;-0.0144;
294.9000;0.1555;-0.0240;
295.2000;0.1555;-0.0216;
295.5000;0.1571;-0.0144;
295.8000;0.1571;-0.0144;
296.1000;0.1571;-0.0144;
296.4000;0.1595;-0.0096;
296.7000;0.1595;-0.0048;
297.0000;0.1620;-0.0048;
297.3000;0.1595;-0.0120;
297.6000;0.1547;-0.0264;
297.9000;0.1571;-0.0240;
298.2000;0.1595;-0.0240;
298.5000;0.1571;-0.0264;
298.8000;0.1579;-0.0168;
299.1000;0.1547;-0.0240;
299.4000;0.1587;-0.0144;
299.7000;0.1587;-0.0120;
300.0000;0.1579;-0.0120;
300.3000;0.1579;-0.0096;
300.6000;0.1604;-0.0072;
300.9000;0.1595;-0.0144;
301.2000;0.1587;-0.0144;
301.5000;0.1644;-0.0024;
301.8000;0.1571;-0.0288;
302.1000;0.1636;-0.0168;
302.4000;0.1604;-0.0264;
302.7000;0.1579;-0.0264;
303.0000;0.1595;-0.0240;
303.3000;0.1652;-0.0096;
303.6000;0.1555;-0.0311;
303.9000;0.1595;-0.0192;
304.2000;0.1669;-0.0096;
304.5000;0.1652;-0.0240;
304.8000;0.1587;-0.0311;
305.1000;0.1604;-0.0216;
305.4000;0.1587;-0.0288;
305.7000;0.1522;-0.0455;
306.0000;0.1587;-0.0311;
306.3000;0.1644;-0.0144;
306.6000;0.1563;-0.0335;
306.9000;0.1506;-0.0431;
307.2000;0.1604;-0.0168;
307.5000;0.1587;-0.0168;
307.8000;0.1563;-0.0288;
308.1000;0.1587;-0.0192;
308.4000;0.1555;-0.0192;
308.7000;0.1571;-0.0120;
309.0000;0.1571;-0.0144;
309.3000;0.1587;-0.0120;
309.6000;0.1547;-0.0144;
309.9000;0.1571;-0.0120;
310.2000;0.1579;-0.0072;
310.5000;0.1547;-0.0072;
310.8000;0.1563;-0.0072;
311.1000;0.1555;-0.0072;
311.4000;0.1571;0.0000;
311.7000;0.1563;-0.0048;
312.0000;0.1563;-0.0048;
312.3000;0.1595;-0.0024;
312.6000;0.1604;-0.0048;
312.9000;0.1587;-0.0072;
313.2000;0.1587;-0.0024;
313.5000;0.1555;-0.0120;
313.8000;0.1587;0.0000;
314.1000;0.1571;-0.0072;
314.4000;0.1579;-0.0048;
314.7000;0.1555;-0.0072;
315.0000;0.1620;0.0072;
315.3000;0.1563;0.0024;
315.6000;0.1563;-0.0144;
315.9000;0.1579;-0.0120;
316.2000;0.1563;-0.0168;
316.5000;0.1579;-0.0192;
316.8000;0.1587;-0.0192;
317.1000;0.1595;-0.0168;
317.4000;0.1587;-0.0144;
317.7000;0.1604;0.0000;
318.0000;0.1579;0.0000;
318.3000;0.1579;-0.0048;
318.6000;0.1571;-0.0024;
318.9000;0.1555;-0.0024;
319.2000;0.1604;0.0048;
319.5000;0.1555;-0.0096;
319.8000;0.1636;0.0120;
320.1000;0.1571;-0.0024;
320.4000;0.1604;0.0000;
320.7000;0.1579;-0.0024;
321.0000;0.1538;-0.0168;
321.3000;0.1555;-0.0096;
321.6000;0.1538;-0.0216;
321.9000;0.1547;-0.0168;
322.2000;0.1555;-0.0120;
322.5000;0.1587;-0.0072;
322.8000;0.1644;0.0024;
323.1000;0.1587;-0.0048;
323.4000;0.1587;-0.0048;
323.7000;0.1563;-0.0096;
324.0000;0.1571;-0.0048;
324.3000;0.1587;-0.0072;
324.6000;0.1547;-0.0048;
324.9000;0.1547;0.0024;
325.2000;0.1571;0.0024;
325.5000;0.1522;-0.0168;
325.8000;0.1530;-0.0192;
326.1000;0.1547;-0.0192;
326.4000;0.1538;-0.0240;
326.7000;0.1612;0.0120;
327.0000;0.1579;0.0096;
327.3000;0.1571;-0.0024;
327.6000;0.1579;-0.0024;
327.9000;0.1595;0.0096;
328.2000;0.1538;-0.0144;
328.5000;0.1636;0.0120;
328.8000;0.1595;0.0024;
329.1000;0.1563;-0.0144;
329.4000;0.1579;-0.0096;
329.7000;0.1571;-0.0192;
330.0000;0.1579;-0.0144;
330.3000;0.1595;-0.0096;
330.6000;0.1587;-0.0096;
330.9000;0.1571;-0.0024;
331.2000;0.1571;0.0000;
331.5000;0.1555;0.0000;
331.8000;0.1571;0.0000;
332.1000;0.1571;-0.0072;
332.4000;0.1604;0.0000;
332.7000;0.1579;-0.0072;
333.0000;0.1587;-0.0048;
333.3000;0.1587;-0.0168;
333.6000;0.1555;-0.0216;
333.9000;0.1595;-0.0120;
334.2000;0.1595;-0.0168;
334.5000;0.1669;0.0072;
334.8000;0.1579;-0.0144;
335.1000;0.1555;-0.0192;
335.4000;0.1571;-0.0192;
335.7000;0.1571;-0.0216;
336.0000;0.1579;-0.0288;
336.3000;0.1595;-0.0192;
336.6000;0.1571;-0.0144;
336.9000;0.1571;-0.0168;
337.2000;0.1563;-0.0192;
337.5000;0.1538;-0.0264;
337.8000;0.1579;-0.0264;
338.1000;0.1571;-0.0288;
338.4000;0.1587;-0.0216;
338.7000;0.1595;-0.0240;
339.0000;0.1563;-0.0192;
339.3000;0.1595;-0.0096;
339.6000;0.1571;-0.0144;
339.9000;0.1587;-0.0096;
340.2000;0.1587;-0.0168;
340.5000;0.1587;-0.0192;
340.8000;0.1563;-0.0288;
341.1000;0.1734;0.0192;
341.4000;0.1547;-0.0311;
341.7000;0.1595;-0.0072;
342.0000;0.1579;-0.0168;
342.3000;0.1579;-0.0144;
342.6000;0.1547;-0.0288;
342.9000;0.1571;-0.0168;
343.2000;0.1547;-0.0192;
343.5000;0.1612;-0.0120;
343.8000;0.1547;-0.0168;
344.1000;0.1571;-0.0192;
344.4000;0.1595;-0.0192;
344.7000;0.1571;-0.0216;
345.0000;0.1579;-0.0120;
345.3000;0.1579;-0.0144;
345.6000;0.1538;-0.0192;
345.9000;0.1587;-0.0096;
346.2000;0.1571;-0.0168;
346.5000;0.1587;-0.0120;
346.8000;0.1547;-0.0168;
347.1000;0.1555;-0.0120;
347.4000;0.1506;-0.0240;
347.7000;0.1571;0.0024;
348.0000;0.1555;-0.0048;
348.3000;0.1563;0.0048;
348.6000;0.1555;0.0000;
348.9000;0.1563;-0.0024;
349.2000;0.1620;0.0120;
349.5000;0.1547;-0.0120;
349.8000;0.1595;-0.0096;
350.1000;0.1587;-0.0072;
350.4000;0.1587;-0.0096;
350.7000;0.1538;-0.0240;
351.0000;0.1514;-0.0311;
351.3000;0.1587;-0.0072;
351.6000;0.1563;-0.0120;
351.9000;0.1563;-0.0096;
352.2000;0.1587;-0.0072;
352.5000;0.1563;-0.0072;
352.8000;0.1579;-0.0024;
353.1000;0.1571;-0.0144;
353.4000;0.1571;-0.0192;
353.7000;0.1530;-0.0168;
354.0000;0.1579;-0.0096;
354.3000;0.1563;-0.0072;
354.6000;0.1587;0.0048;
354.9000;0.1563;0.0048;
355.2000;0.1644;0.0216;
355.5000;0.1563;0.0096;
355.8000;0.1571;-0.0024;
356.1000;0.1595;0.0000;
356.4000;0.1571;-0.0024;
356.7000;0.1571;-0.0072;
357.0000;0.1579;-0.0168;
357.3000;0.1620;-0.0072;
357.6000;0.1587;-0.0096;
357.9000;0.1555;-0.0264;
358.2000;0.1587;-0.0216;
358.5000;0.1449;-0.0575;
358.8000;0.1563;-0.0335;
359.1000;0.1587;-0.0335;
359.4000;0.1563;-0.0407;
359.7000;0.1579;-0.0311;
360.0000;0.1579;-0.0288;
360.3000;0.1563;-0.0288;
360.6000;0.1555;-0.0359;
360.9000;0.1555;-0.0288;
361.2000;0.1579;-0.0240;
361.5000;0.1595;-0.0216;
361.8000;0.1595;-0.0192;
362.1000;0.1587;-0.0144;
362.4000;0.1538;-0.0264;
362.7000;0.1555;-0.0192;
363.0000;0.1587;-0.0072;
363.3000;0.1604;-0.0048;
363.6000;0.1571;-0.0120;
363.9000;0.1587;-0.0096;
364.2000;0.1498;-0.0288;
364.5000;0.1571;-0.0168;
364.8000;0.1579;-0.0192;
365.1000;0.1587;-0.0240;
365.4000;0.1587;-0.0168;
365.7000;0.1547;-0.0216;
366.0000;0.1628;0.0048;
366.3000;0.1579;-0.0096;
366.6000;0.1465;-0.0407;
366.9000;0.1587;-0.0096;
367.2000;0.1555;-0.0120;
367.5000;0.1563;-0.0192;
367.8000;0.1587;-0.0120;
368.1000;0.1571;-0.0240;
368.4000;0.1595;-0.0216;
368.7000;0.1571;-0.0264;
369.0000;0.1563;-0.0335;
369.3000;0.1571;-0.0311;
369.6000;0.1555;-0.0335;
369.9000;0.1555;-0.0335;
370.2000;0.1571;-0.0335;
370.5000;0.1571;-0.0311;
370.8000;0.1563;-0.0335;
371.1000;0.1579;-0.0288;
371.4000;0.1555;-0.0407;
371.7000;0.1579;-0.0311;
372.0000;0.1595;-0.0216;
372.3000;0.1579;-0.0168;
372.6000;0.1595;-0.0216;
372.9000;0.1579;-0.0240;
373.2000;0.1595;-0.0168;
373.5000;0.1587;-0.0216;
373.8000;0.1538;-0.0359;
374.1000;0.1579;-0.0216;
374.4000;0.1506;-0.0359;
374.7000;0.1571;-0.0240;
375.0000;0.1579;-0.0335;
375.3000;0.1595;-0.0311;
375.6000;0.1579;-0.0335;
375.9000;0.1604;-0.0288;
376.2000;0.1612;-0.0240;
376.5000;0.1538;-0.0407;
376.8000;0.1571;-0.0216;
377.1000;0.1579;-0.0264;
377.4000;0.1612;-0.0216;
377.7000;0.1571;-0.0216;
378.0000;0.1571;-0.0240;
378.3000;0.1595;-0.0192;
378.6000;0.1587;-0.0240;
378.9000;0.1571;-0.0240;
379.2000;0.1595;-0.0120;
379.5000;0.1563;-0.0288;
379.8000;0.1579;-0.0311;
380.1000;0.1555;-0.0311;
380.4000;0.1587;-0.0264;
380.7000;0.1571;-0.0216;
381.0000;0.1563;-0.0264;
381.3000;0.1538;-0.0407;
381.6000;0.1587;-0.0311;
381.9000;0.1579;-0.0264;
382.2000;0.1547;-0.0335;
382.5000;0.1514;-0.0431;
382.8000;0.1579;-0.0168;
383.1000;0.1579;-0.0024;
383.4000;0.1701;0.0240;
383.7000;0.1579;-0.0192;
384.0000;0.1587;-0.0240;
384.3000;0.1490;-0.0503;
384.6000;0.1579;-0.0383;
384.9000;0.1571;-0.0311;
385.2000;0.1587;-0.0264;
385.5000;0.1595;-0.0311;
385.8000;0.1595;-0.0335;
386.1000;0.1563;-0.0383;
386.4000;0.1555;-0.0359;
386.7000;0.1506;-0.0527;
387.0000;0.1595;-0.0288;
387.3000;0.1579;-0.0311;
387.6000;0.1587;-0.0240;
387.9000;0.1530;-0.0383;
388.2000;0.1571;-0.0264;
388.5000;0.1538;-0.0407;
388.8000;0.1620;-0.0168;
389.1000;0.1579;-0.0216;
389.4000;0.1530;-0.0407;
389.7000;0.1579;-0.0359;
390.0000;0.1587;-0.0383;
390.3000;0.1579;-0.0407;
390.6000;0.1571;-0.0359;
390.9000;0.1555;-0.0407;
391.2000;0.1587;-0.0216;
391.5000;0.1612;-0.0192;
391.8000;0.1473;-0.0575;
392.1000;0.1563;-0.0288;
392.4000;0.1595;-0.0240;
392.7000;0.1587;-0.0240;
393.0000;0.1579;-0.0311;
393.3000;0.1571;-0.0240;
393.6000;0.1587;-0.0120;
393.9000;0.1587;-0.0144;
394.2000;0.1522;-0.0264;
394.5000;0.1579;-0.0168;
394.8000;0.1595;-0.0120;
395.1000;0.1579;-0.0096;
395.4000;0.1563;-0.0216;
395.7000;0.1571;-0.0120;
396.0000;0.1620;0.0024;
396.3000;0.1595;-0.0168;
396.6000;0.1506;-0.0383;
396.9000;0.1563;-0.0192;
397.2000;0.1595;-0.0144;
397.5000;0.1620;-0.0120;
397.8000;0.1587;-0.0192;
398.1000;0.1555;-0.0216;
398.4000;0.1530;-0.0335;
398.7000;0.1669;-0.0024;
399.0000;0.1587;-0.0168;
399.3000;0.1587;-0.0216;
399.6000;0.1514;-0.0383;
399.9000;0.1587;-0.0144;
400.2000;0.1579;-0.0192;
400.5000;0.1571;-0.0192;
400.8000;0.1579;-0.0216;
401.1000;0.1595;-0.0264;
401.4000;0.1571;-0.0240;
401.7000;0.1555;-0.0216;
402.0000;0.1579;-0.0216;
402.3000;0.1514;-0.0383;
402.6000;0.1563;-0.0216;
402.9000;0.1579;-0.0192;
403.2000;0.1571;-0.0216;
403.5000;0.1587;-0.0120;
403.8000;0.1547;-0.0192;
404.1000;0.1661;-0.0024;
404.4000;0.1571;-0.0216;
404.7000;0.1579;-0.0288;
405.0000;0.1636;-0.0144;
405.3000;0.1555;-0.0311;
405.6000;0.1579;-0.0240;
405.9000;0.1579;-0.0144;
406.2000;0.1612;-0.0096;
406.5000;0.1587;-0.0144;
406.8000;0.1587;-0.0120;
407.1000;0.1579;-0.0216;
407.4000;0.1571;-0.0192;
407.7000;0.1579;-0.0168;
408.0000;0.1563;-0.0120;
408.3000;0.1595;-0.0168;
408.6000;0.1579;-0.0240;
408.9000;0.1571;-0.0383;
409.2000;0.1571;-0.0407;
409.5000;0.1579;-0.0383;
409.8000;0.1555;-0.0455;
410.1000;0.1587;-0.0359;
410.4000;0.1563;-0.0431;
410.7000;0.1595;-0.0288;
411.0000;0.1612;-0.0168;
411.3000;0.1555;-0.0264;
411.6000;0.1571;-0.0192;
411.9000;0.1587;-0.0168;
412.2000;0.1571;-0.0216;
412.5000;0.1595;-0.0168;
412.8000;0.1538;-0.0264;
413.1000;0.1563;-0.0240;
413.4000;0.1555;-0.0311;
413.7000;0.1555;-0.0288;
414.0000;0.1563;-0.0335;
414.3000;0.1644;-0.0072;
414.6000;0.1563;-0.0335;
414.9000;0.1563;-0.0311;
415.2000;0.1587;-0.0288;
415.5000;0.1587;-0.0311;
415.8000;0.1571;-0.0288;
416.1000;0.1579;-0.0264;
416.4000;0.1571;-0.0216;
416.7000;0.1563;-0.0288;
417.0000;0.1547;-0.0288;
417.3000;0.1587;-0.0192;
417.6000;0.1563;-0.0264;
417.9000;0.1547;-0.0359;
418.2000;0.1530;-0.0264;
418.5000;0.1604;-0.0048;
418.8000;0.1563;-0.0144;
419.1000;0.1563;-0.0168;
419.4000;0.1595;-0.0120;
419.7000;0.1604;-0.0096;
420.0000;0.1571;-0.0240;
420.3000;0.1563;-0.0240;
420.6000;0.1481;-0.0359;
420.9000;0.1579;-0.0192;
421.2000;0.1571;-0.0216;
421.5000;0.1579;-0.0264;
421.8000;0.1644;-0.0120;
422.1000;0.1595;-0.0264;
422.4000;0.1538;-0.0407;
422.7000;0.1530;-0.0431;
423.0000;0.1563;-0.0311;
423.3000;0.1620;-0.0144;
423.6000;0.1555;-0.0264;
423.9000;0.1571;-0.0264;
424.2000;0.1587;-0.0216;
424.5000;0.1587;-0.0216;
424.8000;0.1547;-0.0288;
425.1000;0.1579;-0.0240;
425.4000;0.1563;-0.0288;
425.7000;0.1571;-0.0192;
426.0000;0.1555;-0.0240;
426.3000;0.1563;-0.0192;
426.6000;0.1547;-0.0192;
426.9000;0.1563;-0.0120;
427.2000;0.1587;-0.0192;
427.5000;0.1563;-0.0288;
427.8000;0.1587;-0.0264;
428.1000;0.1522;-0.0479;
428.4000;0.1563;-0.0335;
428.7000;0.1579;-0.0359;
429.0000;0.1587;-0.0383;
429.3000;0.1449;-0.0767;
429.6000;0.1571;-0.0455;
429.9000;0.1571;-0.0455;
430.2000;0.1563;-0.0503;
430.5000;0.1612;-0.0407;
430.8000;0.1571;-0.0503;
431.1000;0.1595;-0.0431;
431.4000;0.1571;-0.0455;
431.7000;0.1571;-0.0455;
432.0000;0.1571;-0.0503;
432.3000;0.1604;-0.0407;
432.6000;0.1604;-0.0311;
432.9000;0.1563;-0.0431;
433.2000;0.1579;-0.0383;
433.5000;0.1644;-0.0240;
433.8000;0.1498;-0.0551;
434.1000;0.1563;-0.0407;
434.4000;0.1571;-0.0407;
434.7000;0.1595;-0.0359;
435.0000;0.1579;-0.0335;
435.3000;0.1530;-0.0455;
435.6000;0.1571;-0.0335;
435.9000;0.1579;-0.0288;
436.2000;0.1612;-0.0240;
436.5000;0.1481;-0.0551;
436.8000;0.1685;-0.0072;
437.1000;0.1538;-0.0455;
437.4000;0.1644;-0.0216;
437.7000;0.1555;-0.0383;
438.0000;0.1538;-0.0359;
438.3000;0.1555;-0.0407;
438.6000;0.1563;-0.0383;
438.9000;0.1563;-0.0383;
439.2000;0.1563;-0.0431;
439.5000;0.1498;-0.0599;
439.8000;0.1547;-0.0407;
440.1000;0.1563;-0.0383;
440.4000;0.1563;-0.0455;
440.7000;0.1571;-0.0455;
441.0000;0.1579;-0.0431;
441.3000;0.1693;-0.0072;
441.6000;0.1571;-0.0455;
441.9000;0.1571;-0.0431;
442.2000;0.1595;-0.0431;
442.5000;0.1547;-0.0527;
442.8000;0.1579;-0.0335;
443.1000;0.1563;-0.0311;
443.4000;0.1555;-0.0383;
443.7000;0.1563;-0.0335;
444.0000;0.1571;-0.0431;
444.3000;0.1579;-0.0359;
444.6000;0.1555;-0.0431;
444.9000;0.1571;-0.0383;
445.2000;0.1514;-0.0575;
445.5000;0.1563;-0.0431;
445.8000;0.1579;-0.0407;
446.1000;0.1587;-0.0264;
446.4000;0.1587;-0.0288;
446.7000;0.1587;-0.0216;
447.0000;0.1530;-0.0311;
447.3000;0.1571;-0.0168;
447.6000;0.1595;-0.0192;
447.9000;0.1587;-0.0192;
448.2000;0.1587;-0.0240;
448.5000;0.1571;-0.0216;
448.8000;0.1587;-0.0168;
449.1000;0.1547;-0.0168;
449.4000;0.1587;-0.0240;
449.7000;0.1563;-0.0383;
450.0000;0.1579;-0.0335;
450.3000;0.1669;-0.0144;
450.6000;0.1587;-0.0335;
450.9000;0.1571;-0.0383;
451.2000;0.1595;-0.0359;
451.5000;0.1595;-0.0288;
451.8000;0.1595;-0.0168;
452.1000;0.1579;-0.0144;
452.4000;0.1547;-0.0264;
452.7000;0.1579;-0.0192;
453.0000;0.1587;-0.0144;
453.3000;0.1563;-0.0192;
453.6000;0.1571;-0.0192;
453.9000;0.1563;-0.0216;
454.2000;0.1555;-0.0168;
454.5000;0.1563;-0.0120;
454.8000;0.1563;-0.0120;
455.1000;0.1571;-0.0096;
455.4000;0.1669;0.0120;
455.7000;0.1555;-0.0240;
456.0000;0.1547;-0.0288;
456.3000;0.1563;-0.0264;
456.6000;0.1522;-0.0383;
456.9000;0.1587;-0.0240;
457.2000;0.1579;-0.0240;
457.5000;0.1579;-0.0192;
457.8000;0.1547;-0.0264;
458.1000;0.1604;-0.0072;
458.4000;0.1530;-0.0311;
458.7000;0.1547;-0.0288;
459.0000;0.1587;-0.0264;
459.3000;0.1587;-0.0264;
459.6000;0.1595;-0.0264;
459.9000;0.1579;-0.0335;
460.2000;0.1563;-0.0359;
460.5000;0.1677;-0.0096;
460.8000;0.1571;-0.0335;
461.1000;0.1620;-0.0264;
461.4000;0.1571;-0.0359;
461.7000;0.1579;-0.0383;
462.0000;0.1571;-0.0407;
462.3000;0.1563;-0.0431;
462.6000;0.1571;-0.0431;
462.9000;0.1571;-0.0431;
463.2000;0.1522;-0.0479;
463.5000;0.1595;-0.0431;
463.8000;0.1587;-0.0431;
464.1000;0.1587;-0.0503;
464.4000;0.1604;-0.0383;
464.7000;0.1644;-0.0240;
465.0000;0.1587;-0.0383;
465.3000;0.1571;-0.0383;
465.6000;0.1563;-0.0407;
465.9000;0.1587;-0.0335;
466.2000;0.1514;-0.0479;
466.5000;0.1555;-0.0479;
466.8000;0.1571;-0.0431;
467.1000;0.1587;-0.0431;
467.4000;0.1571;-0.0431;
467.7000;0.1636;-0.0240;
468.0000;0.1563;-0.0359;
468.3000;0.1571;-0.0359;
468.6000;0.1604;-0.0264;
468.9000;0.1530;-0.0407;
469.2000;0.1530;-0.0431;
469.5000;0.1579;-0.0359;
469.8000;0.1595;-0.0335;
470.1000;0.1579;-0.0335;
470.4000;0.1604;-0.0096;
470.7000;0.1547;-0.0216;
471.0000;0.1652;0.0072;
471.3000;0.1530;-0.0192;
471.6000;0.1490;-0.0407;
471.9000;0.1571;-0.0144;
472.2000;0.1538;-0.0216;
472.5000;0.1571;-0.0144;
472.8000;0.1563;-0.0240;
473.1000;0.1514;-0.0383;
473.4000;0.1522;-0.0359;
473.7000;0.1587;-0.0216;
474.0000;0.1579;-0.0383;
474.3000;0.1530;-0.0503;
474.6000;0.1587;-0.0359;
474.9000;0.1579;-0.0359;
475.2000;0.1571;-0.0311;
475.5000;0.1587;-0.0240;
475.8000;0.1563;-0.0311;
476.1000;0.1555;-0.0240;
476.4000;0.1579;-0.0144;
476.7000;0.1587;-0.0120;
477.0000;0.1579;-0.0264;
477.3000;0.1571;-0.0311;
477.6000;0.1555;-0.0240;
477.9000;0.1571;-0.0240;
478.2000;0.1555;-0.0264;
478.5000;0.1555;-0.0168;
478.8000;0.1522;-0.0216;
479.1000;0.1595;0.0048;
479.4000;0.1595;0.0072;
479.7000;0.1555;-0.0120;
480.0000;0.1579;-0.0072;
480.3000;0.1571;-0.0144;
480.6000;0.1571;-0.0240;
480.9000;0.1579;-0.0192;
481.2000;0.1587;-0.0144;
481.5000;0.1579;-0.0168;
481.8000;0.1555;-0.0192;
482.1000;0.1579;-0.0120;
482.4000;0.1563;-0.0192;
482.7000;0.1587;-0.0096;
483.0000;0.1571;-0.0168;
483.3000;0.1587;-0.0144;
483.6000;0.1571;-0.0168;
483.9000;0.1595;-0.0240;
484.2000;0.1571;-0.0311;
484.5000;0.1555;-0.0359;
484.8000;0.1677;0.0072;
485.1000;0.1579;-0.0288;
485.4000;0.1620;-0.0216;
485.7000;0.1571;-0.0383;
486.0000;0.1579;-0.0383;
486.3000;0.1587;-0.0288;
486.6000;0.1563;-0.0264;
486.9000;0.1571;-0.0264;
487.2000;0.1571;-0.0407;
487.5000;0.1636;-0.0240;
487.8000;0.1400;-0.0815;
488.1000;0.1506;-0.0479;
488.4000;0.1604;-0.0192;
488.7000;0.1726;0.0144;
489.0000;0.1579;-0.0216;
489.3000;0.1538;-0.0288;
489.6000;0.1498;-0.0431;
489.9000;0.1636;0.0000;
490.2000;0.1620;-0.0120;
490.5000;0.1579;-0.0168;
490.8000;0.1612;-0.0048;
491.1000;0.1563;-0.0216;
491.4000;0.1555;-0.0264;
491.7000;0.1595;-0.0311;
492.0000;0.1587;-0.0311;
492.3000;0.1563;-0.0383;
492.6000;0.1563;-0.0383;
492.9000;0.1587;-0.0359;
493.2000;0.1522;-0.0503;
493.5000;0.1571;-0.0359;
493.8000;0.1571;-0.0407;
494.1000;0.1628;-0.0216;
494.4000;0.1579;-0.0359;
494.7000;0.1555;-0.0359;
495.0000;0.1538;-0.0455;
495.3000;0.1628;-0.0168;
495.6000;0.1595;-0.0359;
495.9000;0.1563;-0.0359;
496.2000;0.1481;-0.0575;
496.5000;0.1490;-0.0647;
496.8000;0.1579;-0.0431;
497.1000;0.1506;-0.0671;
497.4000;0.1595;-0.0431;
497.7000;0.1571;-0.0479;
498.0000;0.1571;-0.0455;
498.3000;0.1563;-0.0407;
498.6000;0.1547;-0.0503;
498.9000;0.1571;-0.0503;
499.2000;0.1555;-0.0431;
499.5000;0.1579;-0.0311;
499.8000;0.1595;-0.0359;
500.1000;0.1587;-0.0455;
500.4000;0.1563;-0.0503;
500.7000;0.1587;-0.0431;
501.0000;0.1595;-0.0455;
501.3000;0.1563;-0.0455;
501.6000;0.1579;-0.0503;
501.9000;0.1579;-0.0503;
502.2000;0.1579;-0.0455;
502.5000;0.1547;-0.0503;
502.8000;0.1563;-0.0431;
503.1000;0.1571;-0.0359;
503.4000;0.1604;-0.0335;
503.7000;0.1579;-0.0455;
504.0000;0.1571;-0.0551;
504.3000;0.1587;-0.0551;
504.6000;0.1579;-0.0575;
504.9000;0.1563;-0.0599;
505.2000;0.1587;-0.0599;
505.5000;0.1555;-0.0503;
505.8000;0.1571;-0.0407;
506.1000;0.1579;-0.0383;
506.4000;0.1571;-0.0335;
506.7000;0.1595;-0.0311;
507.0000;0.1579;-0.0311;
507.3000;0.1685;-0.0096;
507.6000;0.1604;-0.0240;
507.9000;0.1563;-0.0288;
508.2000;0.1555;-0.0288;
508.5000;0.1579;-0.0216;
508.8000;0.1579;-0.0335;
509.1000;0.1587;-0.0431;
509.4000;0.1571;-0.0455;
509.7000;0.1571;-0.0359;
510.0000;0.1579;-0.0407;
510.3000;0.1563;-0.0431;
510.6000;0.1563;-0.0503;
510.9000;0.1547;-0.0599;
511.2000;0.1579;-0.0551;
511.5000;0.1579;-0.0503;
511.8000;0.1530;-0.0551;
512.1000;0.1506;-0.0575;
512.4000;0.1571;-0.0431;
512.7000;0.1799;0.0240;
513.0000;0.1579;-0.0455;
513.3000;0.1587;-0.0407;
513.6000;0.1538;-0.0599;
513.9000;0.1612;-0.0383;
514.2000;0.1563;-0.0575;
514.5000;0.1514;-0.0695;
514.8000;0.1530;-0.0623;
515.1000;0.1571;-0.0551;
515.4000;0.1612;-0.0479;
515.7000;0.1555;-0.0623;
516.0000;0.1563;-0.0647;
516.3000;0.1563;-0.0719;
516.6000;0.1563;-0.0671;
516.9000;0.1579;-0.0623;
517.2000;0.1579;-0.0599;
517.5000;0.1595;-0.0455;
517.8000;0.1587;-0.0455;
518.1000;0.1636;-0.0264;
518.4000;0.1563;-0.0527;
518.7000;0.1571;-0.0455;
519.0000;0.1620;-0.0288;
519.3000;0.1490;-0.0647;
519.6000;0.1587;-0.0359;
519.9000;0.1571;-0.0383;
520.2000;0.1620;-0.0192;
520.5000;0.1563;-0.0455;
520.8000;0.1555;-0.0503;
521.1000;0.1547;-0.0455;
521.4000;0.1587;-0.0335;
521.7000;0.1587;-0.0359;
522.0000;0.1563;-0.0431;
522.3000;0.1555;-0.0407;
522.6000;0.1587;-0.0335;
522.9000;0.1579;-0.0383;
523.2000;0.1563;-0.0407;
523.5000;0.1547;-0.0455;
523.8000;0.1579;-0.0455;
524.1000;0.1579;-0.0455;
524.4000;0.1563;-0.0479;
524.7000;0.1563;-0.0503;
525.0000;0.1579;-0.0431;
525.3000;0.1579;-0.0311;
525.6000;0.1579;-0.0407;
525.9000;0.1547;-0.0455;
526.2000;0.1555;-0.0503;
526.5000;0.1587;-0.0431;
526.8000;0.1547;-0.0503;
527.1000;0.1604;-0.0407;
527.4000;0.1579;-0.0431;
527.7000;0.1579;-0.0335;
528.0000;0.1595;-0.0311;
528.3000;0.1571;-0.0383;
528.6000;0.1538;-0.0503;
528.9000;0.1571;-0.0359;
529.2000;0.1595;-0.0311;
529.5000;0.1652;-0.0168;
529.8000;0.1555;-0.0335;
530.1000;0.1579;-0.0359;
530.4000;0.1506;-0.0479;
530.7000;0.1595;-0.0311;
531.0000;0.1587;-0.0359;
531.3000;0.1579;-0.0503;
531.6000;0.1547;-0.0551;
531.9000;0.1571;-0.0551;
532.2000;0.1587;-0.0575;
532.5000;0.1547;-0.0695;
532.8000;0.1571;-0.0647;
533.1000;0.1571;-0.0455;
533.4000;0.1579;-0.0431;
533.7000;0.1563;-0.0455;
534.0000;0.1571;-0.0479;
534.3000;0.1628;-0.0407;
534.6000;0.1563;-0.0551;
534.9000;0.1538;-0.0695;
535.2000;0.1571;-0.0503;
535.5000;0.1595;-0.0479;
535.8000;0.1563;-0.0527;
536.1000;0.1579;-0.0359;
536.4000;0.1595;-0.0311;
536.7000;0.1612;-0.0264;
537.0000;0.1563;-0.0359;
537.3000;0.1506;-0.0503;
537.6000;0.1563;-0.0455;
537.9000;0.1595;-0.0407;
538.2000;0.1571;-0.0455;
538.5000;0.1571;-0.0503;
538.8000;0.1530;-0.0695;
539.1000;0.1571;-0.0551;
539.4000;0.1547;-0.0647;
539.7000;0.1538;-0.0647;
540.0000;0.1587;-0.0551;
540.3000;0.1563;-0.0575;
540.6000;0.1595;-0.0527;
540.9000;0.1571;-0.0647;
541.2000;0.1571;-0.0719;
541.5000;0.1538;-0.0719;
541.8000;0.1571;-0.0623;
542.1000;0.1555;-0.0623;
542.4000;0.1563;-0.0575;
542.7000;0.1587;-0.0503;
543.0000;0.1563;-0.0407;
543.3000;0.1555;-0.0503;
543.6000;0.1571;-0.0359;
543.9000;0.1587;-0.0335;
544.2000;0.1587;-0.0335;
544.5000;0.1579;-0.0335;
544.8000;0.1579;-0.0407;
545.1000;0.1563;-0.0359;
545.4000;0.1620;-0.0192;
545.7000;0.1579;-0.0383;
546.0000;0.1595;-0.0335;
546.3000;0.1579;-0.0407;
546.6000;0.1587;-0.0335;
546.9000;0.1555;-0.0383;
547.2000;0.1571;-0.0335;
547.5000;0.1563;-0.0407;
547.8000;0.1555;-0.0431;
548.1000;0.1579;-0.0359;
548.4000;0.1555;-0.0455;
548.7000;0.1563;-0.0455;
549.0000;0.1571;-0.0407;
549.3000;0.1571;-0.0335;
549.6000;0.1612;-0.0240;
549.9000;0.1563;-0.0383;
550.2000;0.1579;-0.0311;
550.5000;0.1563;-0.0264;
550.8000;0.1571;-0.0311;
551.1000;0.1563;-0.0407;
551.4000;0.1538;-0.0359;
551.7000;0.1555;-0.0407;
552.0000;0.1555;-0.0407;
552.3000;0.1587;-0.0383;
552.6000;0.1538;-0.0479;
552.9000;0.1563;-0.0311;
553.2000;0.1563;-0.0431;
553.5000;0.1563;-0.0407;
553.8000;0.1604;-0.0288;
554.1000;0.1595;-0.0216;
554.4000;0.1685;0.0096;
554.7000;0.1571;-0.0144;
555.0000;0.1506;-0.0311;
555.3000;0.1587;-0.0144;
555.6000;0.1595;-0.0120;
555.9000;0.1587;-0.0264;
556.2000;0.1547;-0.0383;
556.5000;0.1587;-0.0335;
556.8000;0.1571;-0.0359;
557.1000;0.1563;-0.0383;
557.4000;0.1587;-0.0383;
557.7000;0.1571;-0.0503;
558.0000;0.1571;-0.0431;
558.3000;0.1538;-0.0455;
558.6000;0.1579;-0.0311;
558.9000;0.1628;-0.0216;
559.2000;0.1571;-0.0311;
559.5000;0.1579;-0.0311;
559.8000;0.1571;-0.0240;
560.1000;0.1652;-0.0024;
560.4000;0.1587;-0.0192;
560.7000;0.1563;-0.0216;
561.0000;0.1587;-0.0216;
561.3000;0.1579;-0.0264;
561.6000;0.1571;-0.0335;
561.9000;0.1587;-0.0311;
562.2000;0.1563;-0.0288;
562.5000;0.1563;-0.0264;
562.8000;0.1571;-0.0288;
563.1000;0.1595;-0.0216;
563.4000;0.1620;-0.0240;
563.7000;0.1571;-0.0359;
564.0000;0.1579;-0.0311;
564.3000;0.1571;-0.0407;
564.6000;0.1587;-0.0407;
564.9000;0.1563;-0.0503;
565.2000;0.1604;-0.0383;
565.5000;0.1563;-0.0431;
565.8000;0.1571;-0.0359;
566.1000;0.1579;-0.0383;
566.4000;0.1587;-0.0383;
566.7000;0.1579;-0.0431;
567.0000;0.1587;-0.0407;
567.3000;0.1579;-0.0407;
567.6000;0.1579;-0.0383;
567.9000;0.1563;-0.0359;
568.2000;0.1571;-0.0311;
568.5000;0.1441;-0.0623;
568.8000;0.1563;-0.0216;
569.1000;0.1579;-0.0192;
569.4000;0.1571;-0.0288;
569.7000;0.1571;-0.0311;
570.0000;0.1555;-0.0311;
570.3000;0.1571;-0.0407;
570.6000;0.1563;-0.0431;
570.9000;0.1571;-0.0359;
571.2000;0.1579;-0.0383;
571.5000;0.1571;-0.0407;
571.8000;0.1677;-0.0096;
572.1000;0.1571;-0.0479;
572.4000;0.1571;-0.0479;
572.7000;0.1571;-0.0479;
573.0000;0.1571;-0.0407;
573.3000;0.1579;-0.0455;
573.6000;0.1555;-0.0455;
573.9000;0.1579;-0.0479;
574.2000;0.1587;-0.0407;
574.5000;0.1563;-0.0407;
574.8000;0.1563;-0.0431;
575.1000;0.1571;-0.0359;
575.4000;0.1571;-0.0455;
575.7000;0.1587;-0.0431;
576.0000;0.1563;-0.0479;
576.3000;0.1579;-0.0455;
576.6000;0.1701;-0.0144;
576.9000;0.1579;-0.0503;
577.2000;0.1579;-0.0575;
577.5000;0.1538;-0.0671;
577.8000;0.1579;-0.0479;
578.1000;0.1587;-0.0455;
578.4000;0.1571;-0.0551;
578.7000;0.1652;-0.0335;
579.0000;0.1563;-0.0623;
579.3000;0.1563;-0.0671;
579.6000;0.1563;-0.0623;
579.9000;0.1563;-0.0647;
580.2000;0.1669;-0.0288;
580.5000;0.1571;-0.0551;
580.8000;0.1587;-0.0623;
581.1000;0.1579;-0.0599;
581.4000;0.1563;-0.0671;
581.7000;0.1571;-0.0623;
582.0000;0.1579;-0.0599;
582.3000;0.1587;-0.0479;
582.6000;0.1579;-0.0527;
582.9000;0.1644;-0.0335;
583.2000;0.1587;-0.0407;
583.5000;0.1579;-0.0359;
583.8000;0.1628;-0.0264;
584.1000;0.1587;-0.0264;
584.4000;0.1481;-0.0431;
584.7000;0.1563;-0.0192;
585.0000;0.1579;-0.0240;
585.3000;0.1490;-0.0503;
585.6000;0.1563;-0.0264;
585.9000;0.1579;-0.0335;
586.2000;0.1530;-0.0431;
586.5000;0.1579;-0.0383;
586.8000;0.1604;-0.0335;
587.1000;0.1571;-0.0383;
587.4000;0.1628;-0.0264;
587.7000;0.1538;-0.0383;
588.0000;0.1547;-0.0455;
588.3000;0.1579;-0.0359;
588.6000;0.1579;-0.0407;
588.9000;0.1571;-0.0479;
589.2000;0.1636;-0.0335;
589.5000;0.1612;-0.0407;
589.8000;0.1579;-0.0575;
590.1000;0.1636;-0.0359;
590.4000;0.1506;-0.0743;
590.7000;0.1563;-0.0647;
591.0000;0.1555;-0.0623;
591.3000;0.1563;-0.0719;
591.6000;0.1579;-0.0599;
591.9000;0.1555;-0.0647;
592.2000;0.1563;-0.0599;
592.5000;0.1563;-0.0575;
592.8000;0.1563;-0.0551;
593.1000;0.1595;-0.0455;
593.4000;0.1636;-0.0311;
593.7000;0.1579;-0.0383;
594.0000;0.1571;-0.0479;
594.3000;0.1563;-0.0407;
594.6000;0.1571;-0.0455;
594.9000;0.1514;-0.0551;
595.2000;0.1579;-0.0431;
595.5000;0.1547;-0.0575;
595.8000;0.1555;-0.0575;
596.1000;0.1587;-0.0575;
596.4000;0.1563;-0.0695;
596.7000;0.1579;-0.0695;
597.0000;0.1571;-0.0695;
597.3000;0.1563;-0.0767;
597.6000;0.1506;-0.0958;
597.9000;0.1555;-0.0719;
598.2000;0.1571;-0.0671;
598.5000;0.1571;-0.0623;
598.8000;0.1579;-0.0599;
599.1000;0.1563;-0.0479;
599.4000;0.1571;-0.0503;
599.7000;0.1555;-0.0551;
600.0000;0.1555;-0.0527;
600.3000;0.1563;-0.0575;
600.6000;0.1555;-0.0575;
600.9000;0.1563;-0.0647;
601.2000;0.1555;-0.0767;
601.5000;0.1579;-0.0839;
601.8000;0.1530;-0.1078;
602.1000;0.1547;-0.1198;
602.4000;0.1538;-0.1366;
602.7000;0.1547;-0.1414;
603.0000;0.1547;-0.1438;
603.3000;0.1465;-0.1725;
603.6000;0.1506;-0.1773;
603.9000;0.1514;-0.1869;
604.2000;0.1465;-0.1989;
604.5000;0.1522;-0.1965;
604.8000;0.1514;-0.2013;
605.1000;0.1514;-0.2037;
605.4000;0.1506;-0.2085;
605.7000;0.1425;-0.2324;
606.0000;0.1506;-0.2132;
606.3000;0.1506;-0.2132;
606.6000;0.1400;-0.2516;
606.9000;0.1498;-0.2300;
607.2000;0.1465;-0.2372;
607.5000;0.1490;-0.2420;
607.8000;0.1498;-0.2420;
608.1000;0.1490;-0.2468;
608.4000;0.1449;-0.2588;
608.7000;0.1579;-0.2228;
609.0000;0.1506;-0.2396;
609.3000;0.1490;-0.2372;
609.6000;0.1457;-0.2420;
609.9000;0.1433;-0.2540;
610.2000;0.1514;-0.2444;
610.5000;0.1457;-0.2588;
610.8000;0.1481;-0.2516;
611.1000;0.1457;-0.2564;
611.4000;0.1441;-0.2588;
611.7000;0.1481;-0.2516;
612.0000;0.1514;-0.2372;
612.3000;0.1441;-0.2564;
612.6000;0.1425;-0.2636;
612.9000;0.1481;-0.2540;
613.2000;0.1449;-0.2707;
613.5000;0.1457;-0.2731;
613.8000;0.1465;-0.2707;
614.1000;0.1555;-0.2492;
614.4000;0.1473;-0.2636;
614.7000;0.1506;-0.2492;
615.0000;0.1490;-0.2540;
615.3000;0.1473;-0.2636;
615.6000;0.1481;-0.2636;
615.9000;0.1522;-0.2492;
616.2000;0.1457;-0.2660;
616.5000;0.1530;-0.2540;
616.8000;0.1449;-0.2731;
617.1000;0.1498;-0.2660;
617.4000;0.1473;-0.2660;
617.7000;0.1457;-0.2731;
618.0000;0.1522;-0.2612;
618.3000;0.1473;-0.2636;
618.6000;0.1457;-0.2588;
618.9000;0.1473;-0.2516;
619.2000;0.1522;-0.2420;
619.5000;0.1490;-0.2540;
619.8000;0.1473;-0.2612;
620.1000;0.1571;-0.2492;
620.4000;0.1457;-0.2779;
620.7000;0.1465;-0.2827;
621.0000;0.1473;-0.2803;
621.3000;0.1473;-0.2851;
621.6000;0.1506;-0.2707;
621.9000;0.1473;-0.2731;
622.2000;0.1473;-0.2707;
622.5000;0.1449;-0.2851;
622.8000;0.1473;-0.2803;
623.1000;0.1449;-0.2755;
623.4000;0.1490;-0.2707;
623.7000;0.1473;-0.2684;
624.0000;0.1473;-0.2612;
624.3000;0.1433;-0.2660;
624.6000;0.1384;-0.2779;
624.9000;0.1465;-0.2468;
625.2000;0.1457;-0.2612;
625.5000;0.1481;-0.2588;
625.8000;0.1465;-0.2731;
626.1000;0.1514;-0.2564;
626.4000;0.1465;-0.2779;
626.7000;0.1473;-0.2803;
627.0000;0.1457;-0.2851;
627.3000;0.1547;-0.2588;
627.6000;0.1441;-0.2851;
627.9000;0.1433;-0.2875;
628.2000;0.1490;-0.2612;
628.5000;0.1481;-0.2588;
628.8000;0.1481;-0.2516;
629.1000;0.1481;-0.2516;
629.4000;0.1433;-0.2779;
629.7000;0.1457;-0.2731;
630.0000;0.1449;-0.2875;
630.3000;0.1563;-0.2612;
630.6000;0.1530;-0.2684;
630.9000;0.1465;-0.2827;
631.2000;0.1457;-0.2803;
631.5000;0.1457;-0.2755;
631.8000;0.1465;-0.2755;
632.1000;0.1441;-0.2827;
632.4000;0.1465;-0.2827;
632.7000;0.1498;-0.2731;
633.0000;0.1457;-0.2827;
633.3000;0.1441;-0.2899;
633.6000;0.1457;-0.2803;
633.9000;0.1433;-0.2875;
634.2000;0.1465;-0.2779;
634.5000;0.1473;-0.2660;
634.8000;0.1481;-0.2731;
635.1000;0.1465;-0.2731;
635.4000;0.1490;-0.2731;
635.7000;0.1449;-0.2827;
636.0000;0.1514;-0.2707;
636.3000;0.1490;-0.2779;
636.6000;0.1490;-0.2731;
636.9000;0.1481;-0.2731;
637.2000;0.1457;-0.2707;
637.5000;0.1465;-0.2660;
637.8000;0.1457;-0.2684;
638.1000;0.1473;-0.2684;
638.4000;0.1441;-0.2731;
638.7000;0.1481;-0.2684;
639.0000;0.1473;-0.2684;
639.3000;0.1465;-0.2755;
639.6000;0.1481;-0.2731;
639.9000;0.1514;-0.2588;
640.2000;0.1498;-0.2731;
640.5000;0.1327;-0.3139;
640.8000;0.1481;-0.2803;
641.1000;0.1490;-0.2827;
641.4000;0.1481;-0.2731;
641.7000;0.1457;-0.2779;
642.0000;0.1530;-0.2636;
642.3000;0.1490;-0.2779;
642.6000;0.1473;-0.2803;
642.9000;0.1473;-0.2731;
643.2000;0.1481;-0.2803;
643.5000;0.1465;-0.2875;
643.8000;0.1465;-0.2827;
644.1000;0.1433;-0.2923;
644.4000;0.1538;-0.2660;
644.7000;0.1359;-0.3091;
645.0000;0.1547;-0.2564;
645.3000;0.1433;-0.2779;
645.6000;0.1547;-0.2564;
645.9000;0.1465;-0.2731;
646.2000;0.1481;-0.2588;
646.5000;0.1433;-0.2803;
646.8000;0.1473;-0.2684;
647.1000;0.1441;-0.2707;
647.4000;0.1465;-0.2660;
647.7000;0.1384;-0.2899;
648.0000;0.1481;-0.2755;
648.3000;0.1481;-0.2731;
648.6000;0.1465;-0.2731;
648.9000;0.1449;-0.2827;
649.2000;0.1481;-0.2851;
649.5000;0.1473;-0.2803;
649.8000;0.1465;-0.2779;
650.1000;0.1457;-0.2731;
650.4000;0.1441;-0.2827;
650.7000;0.1465;-0.2803;
651.0000;0.1465;-0.2779;
651.3000;0.1465;-0.2731;
651.6000;0.1457;-0.2731;
651.9000;0.1465;-0.2779;
652.2000;0.1473;-0.2875;
652.5000;0.1465;-0.2875;
652.8000;0.1465;-0.2827;
653.1000;0.1465;-0.2707;
653.4000;0.1514;-0.2588;
653.7000;0.1514;-0.2564;
654.0000;0.1481;-0.2636;
654.3000;0.1351;-0.2923;
654.6000;0.1449;-0.2707;
654.9000;0.1416;-0.2875;
655.2000;0.1400;-0.2971;
655.5000;0.1465;-0.2803;
655.8000;0.1522;-0.2588;
656.1000;0.1441;-0.2779;
656.4000;0.1457;-0.2731;
656.7000;0.1416;-0.2899;
657.0000;0.1457;-0.2803;
657.3000;0.1457;-0.2851;
657.6000;0.1490;-0.2827;
657.9000;0.1538;-0.2636;
658.2000;0.1473;-0.2851;
658.5000;0.1449;-0.2827;
658.8000;0.1449;-0.2779;
659.1000;0.1457;-0.2731;
659.4000;0.1457;-0.2707;
659.7000;0.1473;-0.2707;
660.0000;0.1449;-0.2827;
660.3000;0.1473;-0.2779;
660.6000;0.1473;-0.2731;
660.9000;0.1490;-0.2707;
661.2000;0.1465;-0.2779;
661.5000;0.1490;-0.2707;
661.8000;0.1473;-0.2755;
662.1000;0.1465;-0.2779;
662.4000;0.1490;-0.2707;
662.7000;0.1449;-0.2731;
663.0000;0.1473;-0.2731;
663.3000;0.1457;-0.2755;
663.6000;0.1457;-0.2636;
663.9000;0.1473;-0.2540;
664.2000;0.1441;-0.2588;
664.5000;0.1473;-0.2516;
664.8000;0.1449;-0.2492;
665.1000;0.1457;-0.2516;
665.4000;0.1441;-0.2564;
665.7000;0.1498;-0.2444;
666.0000;0.1457;-0.2612;
666.3000;0.1481;-0.2540;
666.6000;0.1490;-0.2492;
666.9000;0.1473;-0.2612;
667.2000;0.1473;-0.2660;
667.5000;0.1490;-0.2564;
667.8000;0.1457;-0.2660;
668.1000;0.1473;-0.2636;
668.4000;0.1449;-0.2707;
668.7000;0.1441;-0.2731;
669.0000;0.1473;-0.2660;
669.3000;0.1457;-0.2684;
669.6000;0.1416;-0.2851;
669.9000;0.1465;-0.2731;
670.2000;0.1425;-0.2803;
670.5000;0.1441;-0.2707;
670.8000;0.1416;-0.2827;
671.1000;0.1457;-0.2707;
671.4000;0.1449;-0.2731;
671.7000;0.1433;-0.2660;
672.0000;0.1498;-0.2612;
672.3000;0.1473;-0.2588;
672.6000;0.1473;-0.2684;
672.9000;0.1473;-0.2707;
673.2000;0.1457;-0.2779;
673.5000;0.1457;-0.2755;
673.8000;0.1481;-0.2684;
674.1000;0.1481;-0.2660;
674.4000;0.1481;-0.2612;
674.7000;0.1465;-0.2636;
675.0000;0.1481;-0.2660;
675.3000;0.1465;-0.2612;
675.6000;0.1473;-0.2588;
675.9000;0.1490;-0.2540;
676.2000;0.1416;-0.2779;
676.5000;0.1457;-0.2612;
676.8000;0.1490;-0.2516;
677.1000;0.1465;-0.2492;
677.4000;0.1449;-0.2540;
677.7000;0.1473;-0.2516;
678.0000;0.1481;-0.2492;
678.3000;0.1392;-0.2731;
678.6000;0.1498;-0.2516;
678.9000;0.1506;-0.2516;
679.2000;0.1506;-0.2588;
679.5000;0.1465;-0.2636;
679.8000;0.1465;-0.2636;
680.1000;0.1490;-0.2612;
680.4000;0.1449;-0.2731;
680.7000;0.1441;-0.2684;
681.0000;0.1457;-0.2564;
681.3000;0.1473;-0.2540;
681.6000;0.1441;-0.2540;
681.9000;0.1481;-0.2420;
682.2000;0.1457;-0.2492;
682.5000;0.1473;-0.2588;
682.8000;0.1530;-0.2348;
683.1000;0.1490;-0.2540;
683.4000;0.1465;-0.2684;
683.7000;0.1481;-0.2516;
684.0000;0.1498;-0.2468;
684.3000;0.1449;-0.2636;
684.6000;0.1449;-0.2684;
684.9000;0.1481;-0.2731;
685.2000;0.1465;-0.2755;
685.5000;0.1416;-0.2923;
685.8000;0.1473;-0.2755;
686.1000;0.1473;-0.2707;
686.4000;0.1522;-0.2468;
686.7000;0.1473;-0.2612;
687.0000;0.1449;-0.2660;
687.3000;0.1595;-0.2228;
687.6000;0.1490;-0.2516;
687.9000;0.1473;-0.2612;
688.2000;0.1473;-0.2660;
688.5000;0.1481;-0.2660;
688.8000;0.1449;-0.2827;
689.1000;0.1465;-0.2707;
689.4000;0.1473;-0.2755;
689.7000;0.1490;-0.2684;
690.0000;0.1481;-0.2588;
690.3000;0.1473;-0.2636;
690.6000;0.1473;-0.2684;
690.9000;0.1449;-0.2803;
691.2000;0.1473;-0.2707;
691.5000;0.1457;-0.2660;
691.8000;0.1368;-0.2851;
692.1000;0.1457;-0.2516;
692.4000;0.1457;-0.2588;
692.7000;0.1465;-0.2612;
693.0000;0.1473;-0.2612;
693.3000;0.1457;-0.2540;
693.6000;0.1425;-0.2684;
693.9000;0.1473;-0.2540;
694.2000;0.1441;-0.2636;
694.5000;0.1465;-0.2612;
694.8000;0.1465;-0.2612;
695.1000;0.1465;-0.2612;
695.4000;0.1547;-0.2396;
695.7000;0.1433;-0.2731;
696.0000;0.1465;-0.2660;
696.3000;0.1490;-0.2564;
696.6000;0.1465;-0.2636;
696.9000;0.1441;-0.2684;
697.2000;0.1425;-0.2707;
697.5000;0.1433;-0.2684;
697.8000;0.1449;-0.2660;
698.1000;0.1473;-0.2588;
698.4000;0.1449;-0.2636;
698.7000;0.1449;-0.2612;
699.0000;0.1498;-0.2516;
699.3000;0.1490;-0.2516;
699.6000;0.1465;-0.2540;
699.9000;0.1449;-0.2564;
700.2000;0.1473;-0.2564;
700.5000;0.1481;-0.2564;
700.8000;0.1481;-0.2516;
701.1000;0.1457;-0.2540;
701.4000;0.1465;-0.2564;
701.7000;0.1555;-0.2348;
702.0000;0.1449;-0.2588;
702.3000;0.1473;-0.2540;
702.6000;0.1473;-0.2516;
702.9000;0.1400;-0.2779;
703.2000;0.1547;-0.2444;
703.5000;0.1465;-0.2612;
703.8000;0.1376;-0.2803;
704.1000;0.1465;-0.2444;
704.4000;0.1457;-0.2492;
704.7000;0.1473;-0.2516;
705.0000;0.1473;-0.2540;
705.3000;0.1457;-0.2588;
705.6000;0.1490;-0.2612;
705.9000;0.1465;-0.2636;
706.2000;0.1457;-0.2684;
706.5000;0.1465;-0.2636;
706.8000;0.1473;-0.2684;
707.1000;0.1481;-0.2636;
707.4000;0.1457;-0.2612;
707.7000;0.1465;-0.2612;
708.0000;0.1465;-0.2588;
708.3000;0.1392;-0.2875;
708.6000;0.1473;-0.2731;
708.9000;0.1473;-0.2660;
709.2000;0.1457;-0.2588;
709.5000;0.1652;-0.2132;
709.8000;0.1465;-0.2684;
710.1000;0.1465;-0.2731;
710.4000;0.1457;-0.2731;
710.7000;0.1473;-0.2660;
711.0000;0.1473;-0.2588;
711.3000;0.1473;-0.2660;
711.6000;0.1465;-0.2636;
711.9000;0.1473;-0.2540;
712.2000;0.1457;-0.2492;
712.5000;0.1465;-0.2540;
712.8000;0.1449;-0.2588;
713.1000;0.1457;-0.2540;
713.4000;0.1481;-0.2444;
713.7000;0.1449;-0.2468;
714.0000;0.1465;-0.2468;
714.3000;0.1481;-0.2444;
714.6000;0.1522;-0.2372;
714.9000;0.1425;-0.2540;
715.2000;0.1465;-0.2372;
715.5000;0.1465;-0.2444;
715.8000;0.1441;-0.2588;
716.1000;0.1473;-0.2540;
716.4000;0.1481;-0.2492;
716.7000;0.1563;-0.2348;
717.0000;0.1473;-0.2468;
717.3000;0.1449;-0.2540;
717.6000;0.1457;-0.2540;
717.9000;0.1457;-0.2612;
718.2000;0.1473;-0.2588;
718.5000;0.1587;-0.2372;
718.8000;0.1587;-0.2444;
719.1000;0.1457;-0.2755;
719.4000;0.1457;-0.2851;
719.7000;0.1473;-0.2731;
720.0000;0.1465;-0.2803;
720.3000;0.1563;-0.2444;
720.6000;0.1449;-0.2707;
720.9000;0.1481;-0.2612;
721.2000;0.1514;-0.2516;
721.5000;0.1465;-0.2612;
721.8000;0.1481;-0.2636;
722.1000;0.1465;-0.2636;
722.4000;0.1563;-0.2396;
722.7000;0.1457;-0.2660;
723.0000;0.1376;-0.2827;
723.3000;0.1441;-0.2636;
723.6000;0.1506;-0.2468;
723.9000;0.1441;-0.2588;
724.2000;0.1473;-0.2444;
724.5000;0.1465;-0.2516;
724.8000;0.1449;-0.2636;
725.1000;0.1555;-0.2324;
725.4000;0.1433;-0.2636;
725.7000;0.1473;-0.2516;
726.0000;0.1465;-0.2516;
726.3000;0.1547;-0.2420;
726.6000;0.1465;-0.2612;
726.9000;0.1522;-0.2444;
727.2000;0.1473;-0.2564;
727.5000;0.1481;-0.2564;
727.8000;0.1457;-0.2636;
728.1000;0.1473;-0.2731;
728.4000;0.1481;-0.2731;
728.7000;0.1457;-0.2707;
729.0000;0.1433;-0.2755;
729.3000;0.1449;-0.2755;
729.6000;0.1449;-0.2707;
729.9000;0.1465;-0.2684;
730.2000;0.1441;-0.2684;
730.5000;0.1425;-0.2707;
730.8000;0.1441;-0.2731;
731.1000;0.1465;-0.2636;
731.4000;0.1457;-0.2660;
731.7000;0.1457;-0.2660;
732.0000;0.1457;-0.2636;
732.3000;0.1465;-0.2612;
732.6000;0.1498;-0.2612;
732.9000;0.1449;-0.2636;
733.2000;0.1481;-0.2588;
733.5000;0.1465;-0.2660;
733.8000;0.1457;-0.2636;
734.1000;0.1359;-0.2851;
734.4000;0.1449;-0.2588;
734.7000;0.1457;-0.2540;
735.0000;0.1449;-0.2612;
735.3000;0.1457;-0.2540;
735.6000;0.1343;-0.2947;
735.9000;0.1416;-0.2755;
736.2000;0.1465;-0.2564;
736.5000;0.1473;-0.2516;
736.8000;0.1457;-0.2540;
737.1000;0.1490;-0.2396;
737.4000;0.1441;-0.2516;
737.7000;0.1449;-0.2564;
738.0000;0.1530;-0.2564;
738.3000;0.1473;-0.2612;
738.6000;0.1359;-0.2947;
738.9000;0.1473;-0.2612;
739.2000;0.1481;-0.2636;
739.5000;0.1457;-0.2827;
739.8000;0.1441;-0.2899;
740.1000;0.1481;-0.2875;
740.4000;0.1457;-0.2851;
740.7000;0.1335;-0.3091;
741.0000;0.1465;-0.2779;
741.3000;0.1449;-0.2779;
741.6000;0.1384;-0.2875;
741.9000;0.1530;-0.2588;
742.2000;0.1530;-0.2588;
742.5000;0.1457;-0.2731;
742.8000;0.1481;-0.2636;
743.1000;0.1481;-0.2564;
743.4000;0.1473;-0.2588;
743.7000;0.1457;-0.2588;
744.0000;0.1481;-0.2468;
744.3000;0.1538;-0.2372;
744.6000;0.1457;-0.2707;
744.9000;0.1465;-0.2660;
745.2000;0.1457;-0.2707;
745.5000;0.1457;-0.2755;
745.8000;0.1465;-0.2731;
746.1000;0.1433;-0.2803;
746.4000;0.1481;-0.2779;
746.7000;0.1457;-0.2803;
747.0000;0.1481;-0.2684;
747.3000;0.1449;-0.2755;
747.6000;0.1433;-0.2755;
747.9000;0.1490;-0.2707;
748.2000;0.1514;-0.2612;
748.5000;0.1465;-0.2684;
748.8000;0.1465;-0.2636;
749.1000;0.1465;-0.2636;
749.4000;0.1481;-0.2516;
749.7000;0.1473;-0.2564;
750.0000;0.1498;-0.2516;
750.3000;0.1457;-0.2636;
750.6000;0.1473;-0.2564;
750.9000;0.1449;-0.2636;
751.2000;0.1473;-0.2612;
751.5000;0.1465;-0.2612;
751.8000;0.1425;-0.2707;
752.1000;0.1449;-0.2588;
752.4000;0.1449;-0.2707;
752.7000;0.1473;-0.2755;
753.0000;0.1481;-0.2612;
753.3000;0.1530;-0.2468;
753.6000;0.1441;-0.2731;
753.9000;0.1457;-0.2731;
754.2000;0.1400;-0.2803;
754.5000;0.1465;-0.2660;
754.8000;0.1481;-0.2636;
755.1000;0.1457;-0.2588;
755.4000;0.1425;-0.2707;
755.7000;0.1449;-0.2684;
756.0000;0.1457;-0.2636;
756.3000;0.1441;-0.2684;
756.6000;0.1571;-0.2300;
756.9000;0.1457;-0.2564;
757.2000;0.1449;-0.2564;
757.5000;0.1465;-0.2612;
757.8000;0.1441;-0.2707;
758.1000;0.1481;-0.2684;
758.4000;0.1555;-0.2444;
758.7000;0.1473;-0.2755;
759.0000;0.1457;-0.2779;
759.3000;0.1473;-0.2684;
759.6000;0.1522;-0.2468;
759.9000;0.1449;-0.2755;
760.2000;0.1457;-0.2707;
760.5000;0.1425;-0.2779;
760.8000;0.1498;-0.2564;
761.1000;0.1522;-0.2540;
761.4000;0.1506;-0.2540;
761.7000;0.1433;-0.2707;
762.0000;0.1408;-0.2803;
762.3000;0.1457;-0.2684;
762.6000;0.1522;-0.2516;
762.9000;0.1457;-0.2636;
763.2000;0.1490;-0.2468;
763.5000;0.1473;-0.2540;
763.8000;0.1473;-0.2612;
764.1000;0.1490;-0.2636;
764.4000;0.1433;-0.2779;
764.7000;0.1465;-0.2660;
765.0000;0.1465;-0.2612;
765.3000;0.1473;-0.2612;
765.6000;0.1522;-0.2540;
765.9000;0.1392;-0.2899;
766.2000;0.1465;-0.2731;
766.5000;0.1490;-0.2612;
766.8000;0.1465;-0.2684;
767.1000;0.1408;-0.2899;
767.4000;0.1392;-0.2995;
767.7000;0.1498;-0.2803;
768.0000;0.1400;-0.3067;
768.3000;0.1457;-0.2923;
768.6000;0.1441;-0.2971;
768.9000;0.1465;-0.2851;
769.2000;0.1449;-0.2923;
769.5000;0.1425;-0.2995;
769.8000;0.1457;-0.2923;
770.1000;0.1481;-0.2875;
770.4000;0.1384;-0.3067;
770.7000;0.1465;-0.2851;
771.0000;0.1473;-0.2851;
771.3000;0.1465;-0.2779;
771.6000;0.1490;-0.2684;
771.9000;0.1457;-0.2731;
772.2000;0.1465;-0.2731;
772.5000;0.1481;-0.2684;
772.8000;0.1449;-0.2755;
773.1000;0.1465;-0.2660;
773.4000;0.1522;-0.2492;
773.7000;0.1425;-0.2636;
774.0000;0.1490;-0.2540;
774.3000;0.1465;-0.2731;
774.6000;0.1449;-0.2755;
774.9000;0.1473;-0.2660;
775.2000;0.1473;-0.2636;
775.5000;0.1433;-0.2707;
775.8000;0.1481;-0.2684;
776.1000;0.1498;-0.2636;
776.4000;0.1490;-0.2707;
776.7000;0.1506;-0.2684;
777.0000;0.1457;-0.2731;
777.3000;0.1433;-0.2755;
777.6000;0.1473;-0.2564;
777.9000;0.1449;-0.2731;
778.2000;0.1473;-0.2564;
778.5000;0.1490;-0.2468;
778.8000;0.1481;-0.2612;
779.1000;0.1530;-0.2540;
779.4000;0.1498;-0.2612;
779.7000;0.1457;-0.2588;
780.0000;0.1425;-0.2636;
780.3000;0.1335;-0.2899;
780.6000;0.1473;-0.2564;
780.9000;0.1441;-0.2564;
781.2000;0.1481;-0.2540;
781.5000;0.1449;-0.2684;
781.8000;0.1319;-0.2995;
782.1000;0.1441;-0.2731;
782.4000;0.1473;-0.2636;
782.7000;0.1441;-0.2707;
783.0000;0.1481;-0.2540;
783.3000;0.1457;-0.2516;
783.6000;0.1457;-0.2540;
783.9000;0.1449;-0.2588;
784.2000;0.1457;-0.2588;
784.5000;0.1457;-0.2660;
784.8000;0.1473;-0.2636;
785.1000;0.1449;-0.2684;
785.4000;0.1498;-0.2564;
785.7000;0.1465;-0.2588;
786.0000;0.1473;-0.2636;
786.3000;0.1473;-0.2612;
786.6000;0.1481;-0.2660;
786.9000;0.1473;-0.2660;
787.2000;0.1514;-0.2516;
787.5000;0.1498;-0.2492;
787.8000;0.1506;-0.2444;
788.1000;0.1481;-0.2540;
788.4000;0.1465;-0.2588;
788.7000;0.1449;-0.2588;
789.0000;0.1481;-0.2468;
789.3000;0.1465;-0.2444;
789.6000;0.1465;-0.2468;
789.9000;0.1473;-0.2564;
790.2000;0.1490;-0.2468;
790.5000;0.1465;-0.2492;
790.8000;0.1441;-0.2588;
791.1000;0.1278;-0.3115;
791.4000;0.1465;-0.2588;
791.7000;0.1465;-0.2588;
792.0000;0.1465;-0.2612;
792.3000;0.1563;-0.2300;
792.6000;0.1457;-0.2516;
792.9000;0.1465;-0.2540;
793.2000;0.1465;-0.2588;
793.5000;0.1457;-0.2564;
793.8000;0.1449;-0.2492;
794.1000;0.1547;-0.2324;
794.4000;0.1481;-0.2468;
794.7000;0.1473;-0.2516;
795.0000;0.1457;-0.2540;
795.3000;0.1449;-0.2612;
795.6000;0.1481;-0.2707;
795.9000;0.1481;-0.2731;
796.2000;0.1441;-0.2779;
796.5000;0.1465;-0.2660;
796.8000;0.1457;-0.2684;
797.1000;0.1530;-0.2588;
797.4000;0.1473;-0.2755;
797.7000;0.1473;-0.2851;
798.0000;0.1384;-0.3043;
798.3000;0.1481;-0.2827;
798.6000;0.1449;-0.2899;
798.9000;0.1473;-0.2851;
799.2000;0.1563;-0.2588;
799.5000;0.1465;-0.2803;
799.8000;0.1481;-0.2731;
800.1000;0.1481;-0.2731;
800.4000;0.1441;-0.2851;
800.7000;0.1481;-0.2731;
801.0000;0.1457;-0.2707;
801.3000;0.1473;-0.2636;
801.6000;0.1449;-0.2684;
801.9000;0.1506;-0.2636;
802.2000;0.1465;-0.2755;
802.5000;0.1465;-0.2851;
802.8000;0.1473;-0.2947;
803.1000;0.1400;-0.3139;
803.4000;0.1425;-0.2995;
803.7000;0.1465;-0.2899;
804.0000;0.1465;-0.2947;
804.3000;0.1490;-0.2707;
804.6000;0.1465;-0.2660;
804.9000;0.1465;-0.2612;
805.2000;0.1490;-0.2660;
805.5000;0.1457;-0.2707;
805.8000;0.1481;-0.2636;
806.1000;0.1473;-0.2636;
806.4000;0.1473;-0.2707;
806.7000;0.1465;-0.2731;
807.0000;0.1522;-0.2516;
807.3000;0.1514;-0.2468;
807.6000;0.1465;-0.2540;
807.9000;0.1465;-0.2564;
808.2000;0.1441;-0.2612;
808.5000;0.1473;-0.2492;
808.8000;0.1457;-0.2492;
809.1000;0.1473;-0.2540;
809.4000;0.1465;-0.2684;
809.7000;0.1530;-0.2516;
810.0000;0.1433;-0.2851;
810.3000;0.1449;-0.2803;
810.6000;0.1465;-0.2684;
810.9000;0.1457;-0.2660;
811.2000;0.1457;-0.2707;
811.5000;0.1457;-0.2779;
811.8000;0.1473;-0.2779;
812.1000;0.1449;-0.2731;
812.4000;0.1473;-0.2707;
812.7000;0.1465;-0.2707;
813.0000;0.1473;-0.2636;
813.3000;0.1473;-0.2612;
813.6000;0.1473;-0.2636;
813.9000;0.1465;-0.2564;
814.2000;0.1441;-0.2684;
814.5000;0.1433;-0.2707;
814.8000;0.1473;-0.2636;
815.1000;0.1473;-0.2636;
815.4000;0.1433;-0.2636;
815.7000;0.1465;-0.2492;
816.0000;0.1473;-0.2516;
816.3000;0.1449;-0.2564;
816.6000;0.1465;-0.2564;
816.9000;0.1465;-0.2540;
817.2000;0.1457;-0.2612;
817.5000;0.1449;-0.2707;
817.8000;0.1481;-0.2707;
818.1000;0.1465;-0.2707;
818.4000;0.1449;-0.2660;
818.7000;0.1465;-0.2612;
819.0000;0.1441;-0.2731;
819.3000;0.1481;-0.2660;
819.6000;0.1465;-0.2684;
819.9000;0.1465;-0.2684;
820.2000;0.1376;-0.2971;
820.5000;0.1457;-0.2707;
820.8000;0.1465;-0.2660;
821.1000;0.1465;-0.2588;
821.4000;0.1449;-0.2636;
821.7000;0.1457;-0.2660;
822.0000;0.1457;-0.2612;
822.3000;0.1473;-0.2612;
822.6000;0.1473;-0.2564;
822.9000;0.1465;-0.2636;
823.2000;0.1465;-0.2564;
823.5000;0.1465;-0.2684;
823.8000;0.1457;-0.2684;
824.1000;0.1441;-0.2707;
824.4000;0.1473;-0.2612;
824.7000;0.1465;-0.2684;
825.0000;0.1465;-0.2660;
825.3000;0.1465;-0.2684;
825.6000;0.1457;-0.2731;
825.9000;0.1457;-0.2731;
826.2000;0.1441;-0.2851;
826.5000;0.1465;-0.2707;
826.8000;0.1433;-0.2851;
827.1000;0.1457;-0.2755;
827.4000;0.1457;-0.2779;
827.7000;0.1416;-0.3019;
828.0000;0.1465;-0.2875;
828.3000;0.1465;-0.2827;
828.6000;0.1465;-0.2827;
828.9000;0.1481;-0.2731;
829.2000;0.1490;-0.2612;
829.5000;0.1465;-0.2731;
829.8000;0.1465;-0.2803;
830.1000;0.1481;-0.2755;
830.4000;0.1465;-0.2875;
830.7000;0.1473;-0.2875;
831.0000;0.1465;-0.2851;
831.3000;0.1449;-0.2899;
831.6000;0.1449;-0.2851;
831.9000;0.1473;-0.2851;
832.2000;0.1457;-0.2851;
832.5000;0.1465;-0.2779;
832.8000;0.1490;-0.2731;
833.1000;0.1465;-0.2899;
833.4000;0.1465;-0.2851;
833.7000;0.1473;-0.2875;
834.0000;0.1490;-0.2851;
834.3000;0.1465;-0.2827;
834.6000;0.1286;-0.3235;
834.9000;0.1425;-0.2875;
835.2000;0.1359;-0.3139;
835.5000;0.1514;-0.2707;
835.8000;0.1449;-0.2899;
836.1000;0.1514;-0.2755;
836.4000;0.1465;-0.2803;
836.7000;0.1400;-0.2947;
837.0000;0.1465;-0.2707;
837.3000;0.1465;-0.2803;
837.6000;0.1457;-0.2803;
837.9000;0.1449;-0.2707;
838.2000;0.1481;-0.2707;
838.5000;0.1481;-0.2755;
838.8000;0.1457;-0.2875;
839.1000;0.1465;-0.2947;
839.4000;0.1514;-0.2875;
839.7000;0.1473;-0.2947;
840.0000;0.1481;-0.2923;
840.3000;0.1530;-0.2660;
840.6000;0.1481;-0.2899;
840.9000;0.1481;-0.2779;
841.2000;0.1457;-0.2803;
841.5000;0.1449;-0.2875;
841.8000;0.1457;-0.2875;
842.1000;0.1473;-0.2851;
842.4000;0.1490;-0.2755;
842.7000;0.1465;-0.2827;
843.0000;0.1465;-0.2875;
843.3000;0.1441;-0.2995;
843.6000;0.1473;-0.2947;
843.9000;0.1498;-0.2875;
844.2000;0.1465;-0.2851;
844.5000;0.1473;-0.2827;
844.8000;0.1530;-0.2660;
845.1000;0.1490;-0.2827;
845.4000;0.1457;-0.2899;
845.7000;0.1530;-0.2803;
846.0000;0.1465;-0.2947;
846.3000;0.1465;-0.2899;
846.6000;0.1490;-0.2803;
846.9000;0.1473;-0.2827;
847.2000;0.1498;-0.2731;
847.5000;0.1425;-0.2875;
847.8000;0.1449;-0.2875;
848.1000;0.1473;-0.2875;
848.4000;0.1473;-0.2851;
848.7000;0.1473;-0.2851;
849.0000;0.1457;-0.2851;
849.3000;0.1441;-0.2899;
849.6000;0.1449;-0.2827;
849.9000;0.1457;-0.2875;
850.2000;0.1481;-0.2851;
850.5000;0.1465;-0.2827;
850.8000;0.1457;-0.2899;
851.1000;0.1465;-0.2827;
851.4000;0.1473;-0.2803;
851.7000;0.1522;-0.2731;
852.0000;0.1506;-0.2707;
852.3000;0.1473;-0.2803;
852.6000;0.1473;-0.2851;
852.9000;0.1449;-0.2971;
853.2000;0.1457;-0.2947;
853.5000;0.1457;-0.3019;
853.8000;0.1425;-0.3043;
854.1000;0.1481;-0.2875;
854.4000;0.1457;-0.2923;
854.7000;0.1473;-0.2899;
855.0000;0.1498;-0.2851;
855.3000;0.1490;-0.2803;
855.6000;0.1465;-0.2899;
855.9000;0.1563;-0.2684;
856.2000;0.1441;-0.2947;
856.5000;0.1473;-0.2827;
856.8000;0.1408;-0.2971;
857.1000;0.1465;-0.2875;
857.4000;0.1506;-0.2731;
857.7000;0.1465;-0.2851;
858.0000;0.1449;-0.2875;
858.3000;0.1481;-0.2851;
858.6000;0.1481;-0.2803;
858.9000;0.1473;-0.2875;
859.2000;0.1498;-0.2779;
859.5000;0.1408;-0.2947;
859.8000;0.1376;-0.3091;
860.1000;0.1465;-0.2923;
860.4000;0.1449;-0.2875;
860.7000;0.1449;-0.2851;
861.0000;0.1441;-0.2947;
861.3000;0.1351;-0.3091;
861.6000;0.1457;-0.2851;
861.9000;0.1514;-0.2755;
862.2000;0.1457;-0.2947;
862.5000;0.1441;-0.2947;
862.8000;0.1465;-0.2947;
863.1000;0.1441;-0.2971;
863.4000;0.1441;-0.2947;
863.7000;0.1384;-0.3019;
864.0000;0.1481;-0.2779;
864.3000;0.1449;-0.2851;
864.6000;0.1465;-0.2779;
864.9000;0.1441;-0.2827;
865.2000;0.1457;-0.2684;
865.5000;0.1449;-0.2731;
865.8000;0.1433;-0.2803;
866.1000;0.1433;-0.2851;
866.4000;0.1441;-0.2851;
866.7000;0.1465;-0.2827;
867.0000;0.1457;-0.2827;
867.3000;0.1465;-0.2851;
867.6000;0.1465;-0.2851;
867.9000;0.1465;-0.2899;
868.2000;0.1473;-0.2923;
868.5000;0.1465;-0.2971;
868.8000;0.1457;-0.2947;
869.1000;0.1465;-0.2875;
869.4000;0.1481;-0.2827;
869.7000;0.1465;-0.2803;
870.0000;0.1449;-0.2827;
870.3000;0.1449;-0.2827;
870.6000;0.1433;-0.2851;
870.9000;0.1465;-0.2803;
871.2000;0.1465;-0.2803;
871.5000;0.1490;-0.2803;
871.8000;0.1473;-0.2851;
872.1000;0.1473;-0.2803;
872.4000;0.1465;-0.2875;
872.7000;0.1498;-0.2731;
873.0000;0.1498;-0.2684;
873.3000;0.1538;-0.2492;
873.6000;0.1481;-0.2684;
873.9000;0.1441;-0.2779;
874.2000;0.1441;-0.2636;
874.5000;0.1514;-0.2468;
874.8000;0.1433;-0.2731;
875.1000;0.1449;-0.2731;
875.4000;0.1400;-0.2875;
875.7000;0.1522;-0.2612;
876.0000;0.1473;-0.2803;
876.3000;0.1490;-0.2779;
876.6000;0.1457;-0.2803;
876.9000;0.1457;-0.2875;
877.2000;0.1473;-0.2827;
877.5000;0.1449;-0.2827;
877.8000;0.1498;-0.2755;
878.1000;0.1449;-0.2851;
878.4000;0.1481;-0.2803;
878.7000;0.1473;-0.2803;
879.0000;0.1473;-0.2779;
879.3000;0.1449;-0.2803;
879.6000;0.1449;-0.2731;
879.9000;0.1416;-0.2755;
880.2000;0.1465;-0.2755;
880.5000;0.1473;-0.2827;
880.8000;0.1441;-0.2923;
881.1000;0.1522;-0.2684;
881.4000;0.1449;-0.2851;
881.7000;0.1449;-0.2923;
882.0000;0.1465;-0.2755;
882.3000;0.1473;-0.2731;
882.6000;0.1416;-0.2923;
882.9000;0.1449;-0.2827;
883.2000;0.1571;-0.2468;
883.5000;0.1473;-0.2731;
883.8000;0.1433;-0.2827;
884.1000;0.1359;-0.2947;
884.4000;0.1425;-0.2851;
884.7000;0.1498;-0.2684;
885.0000;0.1522;-0.2636;
885.3000;0.1449;-0.2851;
885.6000;0.1457;-0.2899;
885.9000;0.1465;-0.2779;
886.2000;0.1416;-0.2923;
886.5000;0.1473;-0.2875;
886.8000;0.1449;-0.2827;
887.1000;0.1473;-0.2731;
887.4000;0.1416;-0.2779;
887.7000;0.1457;-0.2636;
888.0000;0.1490;-0.2540;
888.3000;0.1408;-0.2755;
888.6000;0.1498;-0.2612;
888.9000;0.1457;-0.2684;
889.2000;0.1457;-0.2731;
889.5000;0.1465;-0.2755;
889.8000;0.1457;-0.2875;
890.1000;0.1457;-0.2827;
890.4000;0.1425;-0.2899;
890.7000;0.1457;-0.2779;
891.0000;0.1433;-0.2779;
891.3000;0.1465;-0.2779;
891.6000;0.1457;-0.2779;
891.9000;0.1506;-0.2684;
892.2000;0.1481;-0.2779;
892.5000;0.1473;-0.2875;
892.8000;0.1441;-0.2923;
893.1000;0.1449;-0.2851;
893.4000;0.1473;-0.2875;
893.7000;0.1457;-0.2971;
894.0000;0.1465;-0.3019;
894.3000;0.1481;-0.2923;
894.6000;0.1571;-0.2779;
894.9000;0.1465;-0.3067;
895.2000;0.1465;-0.3091;
895.5000;0.1465;-0.2995;
895.8000;0.1457;-0.3019;
896.1000;0.1473;-0.2995;
896.4000;0.1481;-0.3019;
896.7000;0.1465;-0.3043;
897.0000;0.1465;-0.3019;
897.3000;0.1522;-0.2851;
897.6000;0.1441;-0.3091;
897.9000;0.1481;-0.2971;
898.2000;0.1457;-0.3019;
898.5000;0.1433;-0.3115;
898.8000;0.1441;-0.3115;
899.1000;0.1465;-0.3043;
899.4000;0.1400;-0.3139;
899.7000;0.1376;-0.3163;
900.0000;0.1498;-0.2803;
900.3000;0.1449;-0.2971;
900.6000;0.1473;-0.3019;
900.9000;0.1481;-0.3043;
901.2000;0.1400;-0.3211;
901.5000;0.1465;-0.2971;
901.8000;0.1530;-0.2779;
902.1000;0.1441;-0.3019;
902.4000;0.1465;-0.2995;
902.7000;0.1465;-0.3043;
903.0000;0.1457;-0.3043;
903.3000;0.1425;-0.3115;
903.6000;0.1465;-0.3043;
903.9000;0.1473;-0.2995;
904.2000;0.1563;-0.2803;
904.5000;0.1473;-0.2995;
904.8000;0.1465;-0.2995;
905.1000;0.1481;-0.2971;
905.4000;0.1457;-0.3043;
905.7000;0.1498;-0.2947;
906.0000;0.1416;-0.3187;
906.3000;0.1481;-0.3115;
906.6000;0.1481;-0.3163;
906.9000;0.1457;-0.3211;
907.2000;0.1498;-0.3139;
907.5000;0.1449;-0.3187;
907.8000;0.1481;-0.2995;
908.1000;0.1457;-0.2923;
908.4000;0.1457;-0.2923;
908.7000;0.1457;-0.2875;
909.0000;0.1465;-0.2827;
909.3000;0.1522;-0.2707;
909.6000;0.1498;-0.2779;
909.9000;0.1465;-0.2827;
910.2000;0.1490;-0.2779;
910.5000;0.1441;-0.2899;
910.8000;0.1441;-0.2899;
911.1000;0.1400;-0.3043;
911.4000;0.1441;-0.2947;
911.7000;0.1457;-0.2875;
912.0000;0.1457;-0.2875;
912.3000;0.1433;-0.2923;
912.6000;0.1473;-0.2827;
912.9000;0.1457;-0.2851;
913.2000;0.1514;-0.2779;
913.5000;0.1481;-0.2803;
913.8000;0.1449;-0.2923;
914.1000;0.1473;-0.2851;
914.4000;0.1522;-0.2684;
914.7000;0.1481;-0.2779;
915.0000;0.1465;-0.2779;
915.3000;0.1481;-0.2684;
915.6000;0.1465;-0.2779;
915.9000;0.1368;-0.3115;
916.2000;0.1441;-0.2803;
916.5000;0.1506;-0.2803;
916.8000;0.1457;-0.2923;
917.1000;0.1441;-0.2995;
917.4000;0.1441;-0.3043;
917.7000;0.1465;-0.2971;
918.0000;0.1563;-0.2588;
918.3000;0.1538;-0.2588;
918.6000;0.1490;-0.2755;
918.9000;0.1465;-0.2875;
919.2000;0.1465;-0.2947;
919.5000;0.1465;-0.2803;
919.8000;0.1571;-0.2564;
920.1000;0.1465;-0.2803;
920.4000;0.1481;-0.2660;
920.7000;0.1465;-0.2755;
921.0000;0.1473;-0.2779;
921.3000;0.1457;-0.2731;
921.6000;0.1465;-0.2731;
921.9000;0.1457;-0.2755;
922.2000;0.1433;-0.2851;
922.5000;0.1441;-0.2779;
922.8000;0.1457;-0.2803;
923.1000;0.1465;-0.2827;
923.4000;0.1441;-0.2947;
923.7000;0.1449;-0.2947;
924.0000;0.1465;-0.2923;
924.3000;0.1441;-0.2899;
924.6000;0.1465;-0.2755;
924.9000;0.1473;-0.2755;
925.2000;0.1457;-0.2779;
925.5000;0.1465;-0.2803;
925.8000;0.1392;-0.3091;
926.1000;0.1522;-0.2803;
926.4000;0.1473;-0.2923;
926.7000;0.1465;-0.2827;
927.0000;0.1514;-0.2707;
927.3000;0.1425;-0.2947;
927.6000;0.1449;-0.2875;
927.9000;0.1457;-0.2875;
928.2000;0.1449;-0.2827;
928.5000;0.1473;-0.2755;
928.8000;0.1457;-0.2851;
929.1000;0.1449;-0.2875;
929.4000;0.1473;-0.2803;
929.7000;0.1457;-0.2827;
930.0000;0.1481;-0.2875;
930.3000;0.1514;-0.2875;
930.6000;0.1465;-0.2947;
930.9000;0.1392;-0.3163;
931.2000;0.1457;-0.2947;
931.5000;0.1425;-0.2947;
931.8000;0.1530;-0.2851;
932.1000;0.1547;-0.2827;
932.4000;0.1457;-0.2947;
932.7000;0.1457;-0.3019;
933.0000;0.1441;-0.3091;
933.3000;0.1384;-0.3259;
933.6000;0.1457;-0.3043;
933.9000;0.1465;-0.3043;
934.2000;0.1465;-0.3043;
934.5000;0.1498;-0.2851;
934.8000;0.1514;-0.2755;
935.1000;0.1465;-0.2827;
935.4000;0.1449;-0.2851;
935.7000;0.1449;-0.2851;
936.0000;0.1473;-0.2779;
936.3000;0.1465;-0.2779;
936.6000;0.1449;-0.2899;
936.9000;0.1457;-0.2803;
937.2000;0.1522;-0.2803;
937.5000;0.1473;-0.2875;
937.8000;0.1457;-0.2851;
938.1000;0.1457;-0.2803;
938.4000;0.1449;-0.2851;
938.7000;0.1473;-0.2851;
939.0000;0.1465;-0.2923;
939.3000;0.1465;-0.2923;
939.6000;0.1457;-0.2995;
939.9000;0.1473;-0.2995;
940.2000;0.1473;-0.2899;
940.5000;0.1579;-0.2612;
940.8000;0.1498;-0.2875;
941.1000;0.1465;-0.2875;
941.4000;0.1457;-0.2899;
941.7000;0.1473;-0.2827;
942.0000;0.1465;-0.2875;
942.3000;0.1490;-0.2827;
942.6000;0.1481;-0.2827;
942.9000;0.1473;-0.2851;
943.2000;0.1481;-0.2779;
943.5000;0.1457;-0.2851;
943.8000;0.1457;-0.2851;
944.1000;0.1457;-0.2803;
944.4000;0.1473;-0.2803;
944.7000;0.1457;-0.2779;
945.0000;0.1473;-0.2707;
945.3000;0.1465;-0.2803;
945.6000;0.1457;-0.2827;
945.9000;0.1457;-0.2755;
946.2000;0.1433;-0.2803;
946.5000;0.1449;-0.2731;
946.8000;0.1465;-0.2803;
947.1000;0.1481;-0.2684;
947.4000;0.1457;-0.2707;
947.7000;0.1449;-0.2803;
948.0000;0.1490;-0.2636;
948.3000;0.1465;-0.2636;
948.6000;0.1612;-0.2228;
948.9000;0.1465;-0.2636;
949.2000;0.1473;-0.2636;
949.5000;0.1408;-0.2851;
949.8000;0.1490;-0.2684;
950.1000;0.1465;-0.2731;
950.4000;0.1522;-0.2612;
950.7000;0.1506;-0.2660;
951.0000;0.1473;-0.2755;
951.3000;0.1465;-0.2731;
951.6000;0.1522;-0.2588;
951.9000;0.1457;-0.2899;
952.2000;0.1490;-0.2731;
952.5000;0.1481;-0.2684;
952.8000;0.1522;-0.2612;
953.1000;0.1604;-0.2348;
953.4000;0.1481;-0.2707;
953.7000;0.1449;-0.2731;
954.0000;0.1392;-0.2851;
954.3000;0.1473;-0.2707;
954.6000;0.1449;-0.2827;
954.9000;0.1441;-0.2923;
955.2000;0.1473;-0.2803;
955.5000;0.1538;-0.2636;
955.8000;0.1408;-0.2947;
956.1000;0.1433;-0.2803;
956.4000;0.1465;-0.2707;
956.7000;0.1490;-0.2564;
957.0000;0.1481;-0.2660;
957.3000;0.1514;-0.2540;
957.6000;0.1473;-0.2707;
957.9000;0.1457;-0.2684;
958.2000;0.1522;-0.2516;
958.5000;0.1473;-0.2612;
958.8000;0.1441;-0.2660;
959.1000;0.1449;-0.2636;
959.4000;0.1465;-0.2588;
959.7000;0.1457;-0.2636;
960.0000;0.1457;-0.2684;
960.3000;0.1530;-0.2564;
960.6000;0.1490;-0.2731;
960.9000;0.1506;-0.2588;
961.2000;0.1522;-0.2468;
961.5000;0.1498;-0.2516;
961.8000;0.1481;-0.2588;
962.1000;0.1449;-0.2660;
962.4000;0.1481;-0.2588;
962.7000;0.1465;-0.2731;
963.0000;0.1498;-0.2612;
963.3000;0.1425;-0.2851;
963.6000;0.1465;-0.2707;
963.9000;0.1457;-0.2779;
964.2000;0.1473;-0.2660;
964.5000;0.1473;-0.2612;
964.8000;0.1457;-0.2636;
965.1000;0.1457;-0.2707;
965.4000;0.1465;-0.2755;
965.7000;0.1425;-0.2947;
966.0000;0.1465;-0.2851;
966.3000;0.1465;-0.2755;
966.6000;0.1392;-0.2923;
966.9000;0.1465;-0.2779;
967.2000;0.1457;-0.2731;
967.5000;0.1392;-0.2851;
967.8000;0.1457;-0.2684;
968.1000;0.1498;-0.2588;
968.4000;0.1490;-0.2755;
968.7000;0.1465;-0.2875;
969.0000;0.1449;-0.2923;
969.3000;0.1465;-0.2827;
969.6000;0.1481;-0.2660;
969.9000;0.1473;-0.2684;
970.2000;0.1457;-0.2755;
970.5000;0.1481;-0.2660;
970.8000;0.1481;-0.2636;
971.1000;0.1481;-0.2612;
971.4000;0.1457;-0.2731;
971.7000;0.1465;-0.2684;
972.0000;0.1473;-0.2660;
972.3000;0.1441;-0.2612;
972.6000;0.1563;-0.2276;
972.9000;0.1473;-0.2612;
973.2000;0.1465;-0.2684;
973.5000;0.1408;-0.2827;
973.8000;0.1457;-0.2612;
974.1000;0.1473;-0.2636;
974.4000;0.1449;-0.2731;
974.7000;0.1359;-0.3091;
975.0000;0.1481;-0.2779;
975.3000;0.1473;-0.2851;
975.6000;0.1481;-0.2827;
975.9000;0.1433;-0.2875;
976.2000;0.1481;-0.2779;
976.5000;0.1449;-0.2923;
976.8000;0.1441;-0.2827;
977.1000;0.1449;-0.2899;
977.4000;0.1449;-0.2947;
977.7000;0.1473;-0.2947;
978.0000;0.1416;-0.2995;
978.3000;0.1587;-0.2588;
978.6000;0.1506;-0.2827;
978.9000;0.1522;-0.2827;
979.2000;0.1457;-0.2899;
979.5000;0.1465;-0.2899;
979.8000;0.1481;-0.2851;
980.1000;0.1465;-0.2803;
980.4000;0.1465;-0.2827;
980.7000;0.1457;-0.2875;
981.0000;0.1481;-0.2875;
981.3000;0.1457;-0.2875;
981.6000;0.1449;-0.2803;
981.9000;0.1392;-0.2995;
982.2000;0.1473;-0.2827;
982.5000;0.1433;-0.2947;
982.8000;0.1473;-0.2779;
983.1000;0.1457;-0.2803;
983.4000;0.1416;-0.2923;
983.7000;0.1449;-0.2803;
984.0000;0.1441;-0.2827;
984.3000;0.1465;-0.2684;
984.6000;0.1457;-0.2779;
984.9000;0.1465;-0.2803;
985.2000;0.1481;-0.2707;
985.5000;0.1465;-0.2707;
985.8000;0.1457;-0.2731;
986.1000;0.1473;-0.2755;
986.4000;0.1433;-0.2779;
986.7000;0.1490;-0.2636;
987.0000;0.1473;-0.2660;
987.3000;0.1481;-0.2492;
987.6000;0.1530;-0.2324;
987.9000;0.1457;-0.2564;
988.2000;0.1465;-0.2612;
988.5000;0.1571;-0.2324;
988.8000;0.1490;-0.2564;
989.1000;0.1514;-0.2492;
989.4000;0.1498;-0.2612;
989.7000;0.1359;-0.3067;
990.0000;0.1481;-0.2731;
990.3000;0.1490;-0.2612;
990.6000;0.1481;-0.2684;
990.9000;0.1416;-0.2803;
991.2000;0.1473;-0.2636;
991.5000;0.1555;-0.2372;
991.8000;0.1425;-0.2588;
992.1000;0.1335;-0.2923;
992.4000;0.1457;-0.2540;
992.7000;0.1457;-0.2564;
993.0000;0.1481;-0.2588;
993.3000;0.1441;-0.2660;
993.6000;0.1449;-0.2612;
993.9000;0.1465;-0.2612;
994.2000;0.1490;-0.2612;
994.5000;0.1481;-0.2612;
994.8000;0.1506;-0.2636;
995.1000;0.1457;-0.2779;
995.4000;0.1473;-0.2731;
995.7000;0.1457;-0.2755;
996.0000;0.1465;-0.2731;
996.3000;0.1449;-0.2875;
996.6000;0.1392;-0.3043;
996.9000;0.1465;-0.2875;
997.2000;0.1465;-0.2923;
997.5000;0.1449;-0.2971;
997.8000;0.1465;-0.3019;
998.1000;0.1481;-0.2923;
998.4000;0.1457;-0.2995;
998.7000;0.1449;-0.2947;
999.0000;0.1473;-0.2851;
999.3000;0.1400;-0.3019;
999.6000;0.1490;-0.2707;
999.9000;0.1449;-0.2827;
1000.2000;0.1433;-0.2851;
1000.5000;0.1465;-0.2731;
1000.8000;0.1441;-0.2803;
1001.1000;0.1449;-0.2779;
1001.4000;0.1449;-0.2851;
1001.7000;0.1481;-0.2779;
1002.0000;0.1465;-0.2827;
1002.3000;0.1416;-0.2875;
1002.6000;0.1457;-0.2755;
1002.9000;0.1473;-0.2803;
1003.2000;0.1465;-0.2779;
1003.5000;0.1433;-0.2827;
1003.8000;0.1457;-0.2731;
1004.1000;0.1449;-0.2731;
1004.4000;0.1441;-0.2636;
1004.7000;0.1465;-0.2660;
1005.0000;0.1449;-0.2731;
1005.3000;0.1449;-0.2588;
1005.6000;0.1465;-0.2612;
1005.9000;0.1465;-0.2636;
1006.2000;0.1433;-0.2684;
1006.5000;0.1457;-0.2636;
1006.8000;0.1498;-0.2564;
1007.1000;0.1465;-0.2684;
1007.4000;0.1465;-0.2660;
1007.7000;0.1449;-0.2731;
1008.0000;0.1457;-0.2731;
1008.3000;0.1465;-0.2755;
1008.6000;0.1465;-0.2731;
1008.9000;0.1473;-0.2779;
1009.2000;0.1481;-0.2779;
1009.5000;0.1449;-0.2827;
1009.8000;0.1465;-0.2707;
1010.1000;0.1457;-0.2755;
1010.4000;0.1514;-0.2516;
1010.7000;0.1481;-0.2612;
1011.0000;0.1465;-0.2612;
1011.3000;0.1465;-0.2612;
1011.6000;0.1457;-0.2707;
1011.9000;0.1506;-0.2588;
1012.2000;0.1481;-0.2660;
1012.5000;0.1481;-0.2636;
1012.8000;0.1481;-0.2684;
1013.1000;0.1433;-0.2731;
1013.4000;0.1498;-0.2516;
1013.7000;0.1465;-0.2636;
1014.0000;0.1490;-0.2612;
1014.3000;0.1449;-0.2731;
1014.6000;0.1465;-0.2731;
1014.9000;0.1425;-0.2803;
1015.2000;0.1481;-0.2684;
1015.5000;0.1449;-0.2731;
1015.8000;0.1441;-0.2707;
1016.1000;0.1473;-0.2636;
1016.4000;0.1457;-0.2612;
1016.7000;0.1473;-0.2540;
1017.0000;0.1481;-0.2468;
1017.3000;0.1473;-0.2444;
1017.6000;0.1473;-0.2468;
1017.9000;0.1465;-0.2468;
1018.2000;0.1449;-0.2540;
1018.5000;0.1457;-0.2492;
1018.8000;0.1465;-0.2516;
1019.1000;0.1473;-0.2540;
1019.4000;0.1449;-0.2612;
1019.7000;0.1473;-0.2540;
1020.0000;0.1473;-0.2492;
1020.3000;0.1473;-0.2468;
1020.6000;0.1457;-0.2492;
1020.9000;0.1465;-0.2564;
1021.2000;0.1457;-0.2468;
1021.5000;0.1441;-0.2516;
1021.8000;0.1514;-0.2372;
1022.1000;0.1490;-0.2588;
1022.4000;0.1465;-0.2707;
1022.7000;0.1465;-0.2684;
1023.0000;0.1490;-0.2636;
1023.3000;0.1465;-0.2636;
1023.6000;0.1473;-0.2540;
1023.9000;0.1465;-0.2564;
1024.2000;0.1416;-0.2684;
1024.5000;0.1449;-0.2660;
1024.8000;0.1449;-0.2636;
1025.1000;0.1449;-0.2660;
1025.4000;0.1457;-0.2660;
1025.7000;0.1457;-0.2612;
1026.0000;0.1433;-0.2684;
1026.3000;0.1530;-0.2516;
1026.6000;0.1481;-0.2731;
1026.9000;0.1449;-0.2731;
1027.2000;0.1457;-0.2731;
1027.5000;0.1473;-0.2660;
1027.8000;0.1514;-0.2636;
1028.1000;0.1490;-0.2660;
1028.4000;0.1473;-0.2731;
1028.7000;0.1481;-0.2636;
1029.0000;0.1465;-0.2636;
1029.3000;0.1465;-0.2660;
1029.6000;0.1465;-0.2660;
1029.9000;0.1449;-0.2636;
1030.2000;0.1465;-0.2636;
1030.5000;0.1473;-0.2660;
1030.8000;0.1465;-0.2684;
1031.1000;0.1473;-0.2684;
1031.4000;0.1457;-0.2684;
1031.7000;0.1473;-0.2588;
1032.0000;0.1449;-0.2612;
1032.3000;0.1457;-0.2612;
1032.6000;0.1473;-0.2588;
1032.9000;0.1473;-0.2636;
1033.2000;0.1457;-0.2684;
1033.5000;0.1449;-0.2588;
1033.8000;0.1392;-0.2707;
1034.1000;0.1498;-0.2588;
1034.4000;0.1457;-0.2612;
1034.7000;0.1506;-0.2420;
1035.0000;0.1465;-0.2588;
1035.3000;0.1481;-0.2540;
1035.6000;0.1465;-0.2660;
1035.9000;0.1400;-0.2803;
1036.2000;0.1522;-0.2492;
1036.5000;0.1514;-0.2588;
1036.8000;0.1612;-0.2252;
1037.1000;0.1449;-0.2803;
1037.4000;0.1465;-0.2731;
1037.7000;0.1465;-0.2755;
1038.0000;0.1522;-0.2684;
1038.3000;0.1465;-0.2779;
1038.6000;0.1465;-0.2779;
1038.9000;0.1457;-0.2779;
1039.2000;0.1441;-0.2707;
1039.5000;0.1465;-0.2612;
1039.8000;0.1530;-0.2444;
1040.1000;0.1465;-0.2588;
1040.4000;0.1473;-0.2636;
1040.7000;0.1465;-0.2731;
1041.0000;0.1457;-0.2684;
1041.3000;0.1465;-0.2564;
1041.6000;0.1408;-0.2660;
1041.9000;0.1441;-0.2636;
1042.2000;0.1481;-0.2564;
1042.5000;0.1457;-0.2612;
1042.8000;0.1555;-0.2348;
1043.1000;0.1473;-0.2612;
1043.4000;0.1465;-0.2636;
1043.7000;0.1425;-0.2731;
1044.0000;0.1473;-0.2588;
1044.3000;0.1481;-0.2588;
1044.6000;0.1449;-0.2707;
1044.9000;0.1465;-0.2660;
1045.2000;0.1481;-0.2612;
1045.5000;0.1449;-0.2731;
1045.8000;0.1465;-0.2612;
1046.1000;0.1481;-0.2612;
1046.4000;0.1441;-0.2707;
1046.7000;0.1473;-0.2755;
1047.0000;0.1433;-0.2779;
1047.3000;0.1425;-0.2803;
1047.6000;0.1506;-0.2684;
1047.9000;0.1441;-0.2875;
1048.2000;0.1457;-0.2923;
1048.5000;0.1465;-0.2851;
1048.8000;0.1490;-0.2731;
1049.1000;0.1498;-0.2660;
1049.4000;0.1481;-0.2684;
1049.7000;0.1522;-0.2660;
1050.0000;0.1457;-0.2851;
1050.3000;0.1416;-0.2995;
1050.6000;0.1433;-0.2827;
1050.9000;0.1433;-0.2851;
1051.2000;0.1433;-0.2923;
1051.5000;0.1441;-0.2971;
1051.8000;0.1457;-0.2875;
1052.1000;0.1473;-0.2755;
1052.4000;0.1433;-0.2875;
1052.7000;0.1465;-0.2851;
1053.0000;0.1473;-0.2947;
1053.3000;0.1481;-0.2947;
1053.6000;0.1457;-0.3043;
1053.9000;0.1506;-0.2947;
1054.2000;0.1538;-0.2875;
1054.5000;0.1465;-0.3043;
1054.8000;0.1368;-0.3187;
1055.1000;0.1441;-0.2947;
1055.4000;0.1473;-0.2851;
1055.7000;0.1538;-0.2660;
1056.0000;0.1465;-0.2851;
1056.3000;0.1465;-0.2899;
1056.6000;0.1473;-0.2779;
1056.9000;0.1465;-0.2731;
1057.2000;0.1498;-0.2636;
1057.5000;0.1473;-0.2755;
1057.8000;0.1449;-0.2779;
1058.1000;0.1449;-0.2660;
1058.4000;0.1473;-0.2540;
1058.7000;0.1473;-0.2540;
1059.0000;0.1449;-0.2684;
1059.3000;0.1490;-0.2707;
1059.6000;0.1473;-0.2731;
1059.9000;0.1416;-0.2947;
1060.2000;0.1433;-0.2851;
1060.5000;0.1465;-0.2779;
1060.8000;0.1449;-0.2827;
1061.1000;0.1490;-0.2731;
1061.4000;0.1490;-0.2684;
1061.7000;0.1449;-0.2660;
1062.0000;0.1425;-0.2731;
1062.3000;0.1449;-0.2636;
1062.6000;0.1473;-0.2731;
1062.9000;0.1457;-0.2779;
1063.2000;0.1457;-0.2779;
1063.5000;0.1465;-0.2803;
1063.8000;0.1457;-0.2923;
1064.1000;0.1449;-0.2851;
1064.4000;0.1465;-0.2827;
1064.7000;0.1473;-0.2779;
1065.0000;0.1522;-0.2660;
1065.3000;0.1481;-0.2851;
1065.6000;0.1457;-0.2947;
1065.9000;0.1449;-0.2923;
1066.2000;0.1490;-0.2827;
1066.5000;0.1449;-0.2947;
1066.8000;0.1425;-0.3043;
1067.1000;0.1465;-0.3043;
1067.4000;0.1425;-0.3091;
1067.7000;0.1441;-0.3163;
1068.0000;0.1449;-0.3139;
1068.3000;0.1465;-0.3043;
1068.6000;0.1400;-0.3187;
1068.9000;0.1481;-0.2995;
1069.2000;0.1490;-0.2995;
1069.5000;0.1473;-0.2947;
1069.8000;0.1490;-0.2827;
1070.1000;0.1498;-0.2779;
1070.4000;0.1465;-0.2947;
1070.7000;0.1465;-0.2923;
1071.0000;0.1465;-0.2971;
1071.3000;0.1465;-0.2923;
1071.6000;0.1400;-0.3211;
1071.9000;0.1473;-0.2995;
1072.2000;0.1433;-0.3067;
1072.5000;0.1457;-0.3019;
1072.8000;0.1490;-0.2923;
1073.1000;0.1465;-0.2971;
1073.4000;0.1481;-0.2923;
1073.7000;0.1441;-0.2995;
1074.0000;0.1465;-0.2851;
1074.3000;0.1457;-0.2851;
1074.6000;0.1465;-0.2803;
1074.9000;0.1473;-0.2731;
1075.2000;0.1473;-0.2731;
1075.5000;0.1465;-0.2779;
1075.8000;0.1481;-0.2755;
1076.1000;0.1465;-0.2803;
1076.4000;0.1449;-0.2899;
1076.7000;0.1465;-0.2851;
1077.0000;0.1441;-0.3019;
1077.3000;0.1473;-0.2971;
1077.6000;0.1481;-0.2923;
1077.9000;0.1481;-0.2899;
1078.2000;0.1465;-0.2923;
1078.5000;0.1433;-0.3043;
1078.8000;0.1514;-0.2851;
1079.1000;0.1465;-0.2827;
1079.4000;0.1465;-0.2851;
1079.7000;0.1441;-0.2923;
1080.0000;0.1449;-0.2899;
1080.3000;0.1481;-0.2827;
1080.6000;0.1416;-0.2971;
1080.9000;0.1449;-0.2875;
1081.2000;0.1449;-0.2851;
1081.5000;0.1538;-0.2588;
1081.8000;0.1538;-0.2588;
1082.1000;0.1425;-0.2875;
1082.4000;0.1433;-0.2827;
1082.7000;0.1359;-0.3043;
1083.0000;0.1457;-0.2851;
1083.3000;0.1481;-0.2827;
1083.6000;0.1465;-0.2803;
1083.9000;0.1473;-0.2779;
1084.2000;0.1506;-0.2755;
1084.5000;0.1481;-0.2755;
1084.8000;0.1457;-0.2827;
1085.1000;0.1473;-0.2779;
1085.4000;0.1449;-0.2851;
1085.7000;0.1465;-0.2779;
1086.0000;0.1465;-0.2851;
1086.3000;0.1465;-0.2731;
1086.6000;0.1457;-0.2803;
1086.9000;0.1465;-0.2827;
1087.2000;0.1400;-0.3043;
1087.5000;0.1555;-0.2755;
1087.8000;0.1514;-0.2971;
1088.1000;0.1473;-0.3019;
1088.4000;0.1473;-0.2971;
1088.7000;0.1449;-0.3019;
1089.0000;0.1449;-0.3067;
1089.3000;0.1506;-0.2947;
1089.6000;0.1465;-0.2947;
1089.9000;0.1449;-0.2875;
1090.2000;0.1465;-0.2803;
1090.5000;0.1457;-0.2755;
1090.8000;0.1465;-0.2731;
1091.1000;0.1473;-0.2707;
1091.4000;0.1441;-0.2707;
1091.7000;0.1473;-0.2684;
1092.0000;0.1481;-0.2660;
1092.3000;0.1441;-0.2755;
1092.6000;0.1473;-0.2684;
1092.9000;0.1457;-0.2684;
1093.2000;0.1490;-0.2707;
1093.5000;0.1433;-0.2803;
1093.8000;0.1441;-0.2779;
1094.1000;0.1457;-0.2731;
1094.4000;0.1457;-0.2803;
1094.7000;0.1473;-0.2755;
1095.0000;0.1473;-0.2779;
1095.3000;0.1449;-0.2875;
1095.6000;0.1449;-0.2803;
1095.9000;0.1457;-0.2779;
1096.2000;0.1481;-0.2636;
1096.5000;0.1506;-0.2588;
1096.8000;0.1481;-0.2660;
1097.1000;0.1449;-0.2779;
1097.4000;0.1490;-0.2684;
1097.7000;0.1490;-0.2707;
1098.0000;0.1465;-0.2731;
1098.3000;0.1506;-0.2588;
1098.6000;0.1416;-0.2779;
1098.9000;0.1408;-0.2875;
1099.2000;0.1449;-0.2731;
1099.5000;0.1465;-0.2755;
1099.8000;0.1457;-0.2755;
1100.1000;0.1465;-0.2755;
1100.4000;0.1433;-0.2827;
1100.7000;0.1449;-0.2731;
1101.0000;0.1465;-0.2707;
1101.3000;0.1441;-0.2684;
1101.6000;0.1449;-0.2707;
1101.9000;0.1481;-0.2612;
1102.2000;0.1481;-0.2468;
1102.5000;0.1457;-0.2492;
1102.8000;0.1441;-0.2588;
1103.1000;0.1465;-0.2588;
1103.4000;0.1473;-0.2588;
1103.7000;0.1490;-0.2660;
1104.0000;0.1473;-0.2684;
1104.3000;0.1433;-0.2755;
1104.6000;0.1449;-0.2684;
1104.9000;0.1465;-0.2636;
1105.2000;0.1522;-0.2588;
1105.5000;0.1514;-0.2612;
1105.8000;0.1457;-0.2755;
1106.1000;0.1416;-0.2899;
1106.4000;0.1465;-0.2660;
1106.7000;0.1441;-0.2612;
1107.0000;0.1465;-0.2564;
1107.3000;0.1473;-0.2588;
1107.6000;0.1473;-0.2636;
1107.9000;0.1449;-0.2827;
1108.2000;0.1457;-0.2755;
1108.5000;0.1514;-0.2636;
1108.8000;0.1465;-0.2684;
1109.1000;0.1498;-0.2492;
1109.4000;0.1457;-0.2564;
1109.7000;0.1449;-0.2588;
1110.0000;0.1473;-0.2492;
1110.3000;0.1481;-0.2468;
1110.6000;0.1457;-0.2540;
1110.9000;0.1449;-0.2588;
1111.2000;0.1441;-0.2588;
1111.5000;0.1465;-0.2540;
1111.8000;0.1465;-0.2540;
1112.1000;0.1465;-0.2564;
1112.4000;0.1473;-0.2636;
1112.7000;0.1465;-0.2660;
1113.0000;0.1457;-0.2636;
1113.3000;0.1449;-0.2755;
1113.6000;0.1465;-0.2779;
1113.9000;0.1457;-0.2803;
1114.2000;0.1481;-0.2851;
1114.5000;0.1465;-0.2875;
1114.8000;0.1465;-0.2803;
1115.1000;0.1563;-0.2612;
1115.4000;0.1433;-0.2899;
1115.7000;0.1441;-0.2923;
1116.0000;0.1449;-0.2947;
1116.3000;0.1441;-0.2971;
1116.6000;0.1498;-0.2851;
1116.9000;0.1465;-0.2947;
1117.2000;0.1449;-0.2971;
1117.5000;0.1457;-0.2803;
1117.8000;0.1465;-0.2803;
1118.1000;0.1441;-0.2851;
1118.4000;0.1473;-0.2803;
1118.7000;0.1481;-0.2827;
1119.0000;0.1449;-0.2851;
1119.3000;0.1441;-0.2851;
1119.6000;0.1506;-0.2684;
1119.9000;0.1449;-0.2875;
1120.2000;0.1465;-0.2803;
1120.5000;0.1587;-0.2516;
1120.8000;0.1457;-0.2851;
1121.1000;0.1449;-0.2779;
1121.4000;0.1571;-0.2540;
1121.7000;0.1408;-0.2995;
1122.0000;0.1465;-0.2851;
1122.3000;0.1465;-0.2803;
1122.6000;0.1465;-0.2827;
1122.9000;0.1473;-0.2851;
1123.2000;0.1449;-0.2875;
1123.5000;0.1400;-0.2947;
1123.8000;0.1628;-0.2420;
1124.1000;0.1498;-0.2779;
1124.4000;0.1587;-0.2516;
1124.7000;0.1425;-0.2947;
1125.0000;0.1465;-0.2803;
1125.3000;0.1465;-0.2755;
1125.6000;0.1473;-0.2731;
1125.9000;0.1465;-0.2755;
1126.2000;0.1481;-0.2731;
1126.5000;0.1522;-0.2636;
1126.8000;0.1481;-0.2779;
1127.1000;0.1473;-0.2851;
1127.4000;0.1465;-0.2875;
1127.7000;0.1473;-0.2875;
1128.0000;0.1473;-0.2851;
1128.3000;0.1498;-0.2851;
1128.6000;0.1449;-0.2971;
1128.9000;0.1465;-0.2995;
1129.2000;0.1473;-0.2971;
1129.5000;0.1465;-0.2995;
1129.8000;0.1449;-0.3019;
1130.1000;0.1433;-0.3091;
1130.4000;0.1481;-0.2971;
1130.7000;0.1506;-0.2755;
1131.0000;0.1457;-0.2827;
1131.3000;0.1465;-0.2875;
1131.6000;0.1473;-0.2803;
1131.9000;0.1473;-0.2731;
1132.2000;0.1457;-0.2731;
1132.5000;0.1547;-0.2492;
1132.8000;0.1457;-0.2731;
1133.1000;0.1473;-0.2731;
1133.4000;0.1457;-0.2827;
1133.7000;0.1522;-0.2731;
1134.0000;0.1449;-0.2851;
1134.3000;0.1481;-0.2875;
1134.6000;0.1473;-0.2899;
1134.9000;0.1481;-0.2851;
1135.2000;0.1465;-0.2995;
1135.5000;0.1522;-0.2731;
1135.8000;0.1498;-0.2779;
1136.1000;0.1465;-0.2851;
1136.4000;0.1473;-0.2875;
1136.7000;0.1457;-0.2827;
1137.0000;0.1465;-0.2803;
1137.3000;0.1449;-0.2875;
1137.6000;0.1457;-0.2875;
1137.9000;0.1441;-0.2995;
1138.2000;0.1473;-0.2947;
1138.5000;0.1481;-0.2851;
1138.8000;0.1514;-0.2755;
1139.1000;0.1587;-0.2468;
1139.4000;0.1457;-0.2707;
1139.7000;0.1449;-0.2803;
1140.0000;0.1490;-0.2636;
1140.3000;0.1481;-0.2636;
1140.6000;0.1465;-0.2660;
1140.9000;0.1473;-0.2660;
1141.2000;0.1498;-0.2612;
1141.5000;0.1457;-0.2660;
1141.8000;0.1457;-0.2660;
1142.1000;0.1473;-0.2612;
1142.4000;0.1498;-0.2636;
1142.7000;0.1457;-0.2660;
1143.0000;0.1449;-0.2731;
1143.3000;0.1457;-0.2731;
1143.6000;0.1457;-0.2707;
1143.9000;0.1481;-0.2636;
1144.2000;0.1376;-0.2875;
1144.5000;0.1441;-0.2707;
1144.8000;0.1465;-0.2755;
1145.1000;0.1457;-0.2755;
1145.4000;0.1457;-0.2755;
1145.7000;0.1457;-0.2803;
1146.0000;0.1473;-0.2755;
1146.3000;0.1481;-0.2707;
1146.6000;0.1555;-0.2468;
1146.9000;0.1457;-0.2731;
1147.2000;0.1465;-0.2636;
1147.5000;0.1441;-0.2660;
1147.8000;0.1465;-0.2684;
1148.1000;0.1465;-0.2588;
1148.4000;0.1473;-0.2660;
1148.7000;0.1449;-0.2731;
1149.0000;0.1457;-0.2707;
1149.3000;0.1473;-0.2636;
1149.6000;0.1473;-0.2612;
1149.9000;0.1457;-0.2612;
1150.2000;0.1457;-0.2684;
1150.5000;0.1473;-0.2588;
1150.8000;0.1465;-0.2588;
1151.1000;0.1473;-0.2636;
1151.4000;0.1481;-0.2636;
1151.7000;0.1465;-0.2684;
1152.0000;0.1473;-0.2660;
1152.3000;0.1465;-0.2660;
1152.6000;0.1530;-0.2420;
1152.9000;0.1465;-0.2588;
1153.2000;0.1457;-0.2540;
1153.5000;0.1473;-0.2612;
1153.8000;0.1457;-0.2684;
1154.1000;0.1465;-0.2684;
1154.4000;0.1441;-0.2707;
1154.7000;0.1457;-0.2707;
1155.0000;0.1498;-0.2564;
1155.3000;0.1457;-0.2612;
1155.6000;0.1465;-0.2636;
1155.9000;0.1481;-0.2564;
1156.2000;0.1319;-0.3043;
1156.5000;0.1481;-0.2707;
1156.8000;0.1587;-0.2492;
1157.1000;0.1481;-0.2851;
1157.4000;0.1473;-0.2851;
1157.7000;0.1465;-0.2875;
1158.0000;0.1465;-0.2875;
1158.3000;0.1498;-0.2731;
1158.6000;0.1441;-0.2947;
1158.9000;0.1457;-0.2971;
1159.2000;0.1490;-0.2899;
1159.5000;0.1465;-0.2899;
1159.8000;0.1465;-0.2803;
1160.1000;0.1441;-0.2851;
1160.4000;0.1465;-0.2779;
1160.7000;0.1481;-0.2684;
1161.0000;0.1449;-0.2803;
1161.3000;0.1457;-0.2827;
1161.6000;0.1473;-0.2875;
1161.9000;0.1465;-0.2923;
1162.2000;0.1441;-0.2899;
1162.5000;0.1441;-0.2803;
1162.8000;0.1490;-0.2684;
1163.1000;0.1473;-0.2660;
1163.4000;0.1441;-0.2779;
1163.7000;0.1457;-0.2803;
1164.0000;0.1449;-0.2803;
1164.3000;0.1465;-0.2731;
1164.6000;0.1473;-0.2636;
1164.9000;0.1457;-0.2660;
1165.2000;0.1465;-0.2612;
1165.5000;0.1465;-0.2636;
1165.8000;0.1465;-0.2731;
1166.1000;0.1473;-0.2731;
1166.4000;0.1473;-0.2731;
1166.7000;0.1465;-0.2636;
1167.0000;0.1465;-0.2588;
1167.3000;0.1473;-0.2612;
1167.6000;0.1473;-0.2660;
1167.9000;0.1457;-0.2684;
1168.2000;0.1457;-0.2636;
1168.5000;0.1465;-0.2516;
1168.8000;0.1425;-0.2636;
1169.1000;0.1457;-0.2540;
1169.4000;0.1506;-0.2468;
1169.7000;0.1465;-0.2612;
1170.0000;0.1473;-0.2636;
1170.3000;0.1457;-0.2755;
1170.6000;0.1473;-0.2707;
1170.9000;0.1457;-0.2755;
1171.2000;0.1481;-0.2636;
1171.5000;0.1481;-0.2612;
1171.8000;0.1457;-0.2684;
1172.1000;0.1465;-0.2660;
1172.4000;0.1481;-0.2540;
1172.7000;0.1547;-0.2372;
1173.0000;0.1498;-0.2612;
1173.3000;0.1490;-0.2707;
1173.6000;0.1449;-0.2851;
1173.9000;0.1457;-0.2851;
1174.2000;0.1441;-0.2779;
1174.5000;0.1473;-0.2707;
1174.8000;0.1506;-0.2588;
1175.1000;0.1449;-0.2636;
1175.4000;0.1457;-0.2684;
1175.7000;0.1473;-0.2660;
1176.0000;0.1449;-0.2779;
1176.3000;0.1433;-0.2827;
1176.6000;0.1473;-0.2803;
1176.9000;0.1449;-0.2875;
1177.2000;0.1457;-0.2779;
1177.5000;0.1441;-0.2684;
1177.8000;0.1449;-0.2684;
1178.1000;0.1473;-0.2684;
1178.4000;0.1490;-0.2588;
1178.7000;0.1457;-0.2731;
1179.0000;0.1522;-0.2588;
1179.3000;0.1587;-0.2372;
1179.6000;0.1449;-0.2827;
1179.9000;0.1408;-0.2947;
1180.2000;0.1473;-0.2803;
1180.5000;0.1465;-0.2803;
1180.8000;0.1433;-0.2851;
1181.1000;0.1457;-0.2707;
1181.4000;0.1465;-0.2660;
1181.7000;0.1522;-0.2444;
1182.0000;0.1408;-0.2803;
1182.3000;0.1457;-0.2660;
1182.6000;0.1465;-0.2660;
1182.9000;0.1465;-0.2707;
1183.2000;0.1449;-0.2731;
1183.5000;0.1465;-0.2684;
1183.8000;0.1425;-0.2851;
1184.1000;0.1473;-0.2779;
1184.4000;0.1465;-0.2755;
1184.7000;0.1457;-0.2731;
1185.0000;0.1481;-0.2684;
1185.3000;0.1457;-0.2731;
1185.6000;0.1465;-0.2731;
1185.9000;0.1465;-0.2803;
1186.2000;0.1425;-0.2923;
1186.5000;0.1490;-0.2731;
1186.8000;0.1473;-0.2827;
1187.1000;0.1473;-0.2947;
1187.4000;0.1481;-0.2923;
1187.7000;0.1579;-0.2660;
1188.0000;0.1465;-0.2899;
1188.3000;0.1441;-0.2923;
1188.6000;0.1465;-0.2827;
1188.9000;0.1490;-0.2731;
1189.2000;0.1473;-0.2827;
1189.5000;0.1449;-0.2827;
1189.8000;0.1506;-0.2660;
1190.1000;0.1449;-0.2803;
1190.4000;0.1433;-0.2779;
1190.7000;0.1473;-0.2707;
1191.0000;0.1425;-0.2827;
1191.3000;0.1465;-0.2731;
1191.6000;0.1457;-0.2755;
1191.9000;0.1465;-0.2803;
1192.2000;0.1465;-0.2851;
1192.5000;0.1530;-0.2660;
1192.8000;0.1473;-0.2803;
1193.1000;0.1441;-0.2947;
1193.4000;0.1481;-0.2731;
1193.7000;0.1490;-0.2684;
1194.0000;0.1457;-0.2755;
1194.3000;0.1457;-0.2779;
1194.6000;0.1490;-0.2731;
1194.9000;0.1465;-0.2803;
1195.2000;0.1587;-0.2420;
1195.5000;0.1457;-0.2827;
1195.8000;0.1449;-0.2875;
1196.1000;0.1457;-0.2899;
1196.4000;0.1457;-0.2851;
1196.7000;0.1498;-0.2731;
1197.0000;0.1473;-0.2755;
1197.3000;0.1425;-0.2851;
1197.6000;0.1465;-0.2731;
1197.9000;0.1457;-0.2707;
1198.2000;0.1433;-0.2707;
1198.5000;0.1490;-0.2564;
1198.8000;0.1490;-0.2660;
1199.1000;0.1449;-0.2755;
1199.4000;0.1547;-0.2540;
1199.7000;0.1465;-0.2827;
1200.0000;0.1595;-0.2492;
1200.3000;0.1522;-0.2636;
1200.6000;0.1490;-0.2660;
1200.9000;0.1473;-0.2684;
1201.2000;0.1351;-0.3067;
1201.5000;0.1530;-0.2468;
1201.8000;0.1473;-0.2684;
1202.1000;0.1433;-0.2684;
1202.4000;0.1359;-0.2971;
1202.7000;0.1457;-0.2707;
1203.0000;0.1465;-0.2731;
1203.3000;0.1457;-0.2803;
1203.6000;0.1465;-0.2851;
1203.9000;0.1465;-0.2875;
1204.2000;0.1498;-0.2851;
1204.5000;0.1449;-0.2899;
1204.8000;0.1433;-0.2827;
1205.1000;0.1473;-0.2731;
1205.4000;0.1465;-0.2755;
1205.7000;0.1457;-0.2707;
1206.0000;0.1449;-0.2636;
1206.3000;0.1465;-0.2684;
1206.6000;0.1473;-0.2612;
1206.9000;0.1465;-0.2636;
1207.2000;0.1449;-0.2660;
1207.5000;0.1441;-0.2755;
1207.8000;0.1473;-0.2731;
1208.1000;0.1433;-0.2779;
1208.4000;0.1457;-0.2731;
1208.7000;0.1465;-0.2755;
1209.0000;0.1490;-0.2755;
1209.3000;0.1457;-0.2755;
1209.6000;0.1465;-0.2851;
1209.9000;0.1465;-0.2827;
1210.2000;0.1498;-0.2731;
1210.5000;0.1498;-0.2779;
1210.8000;0.1498;-0.2971;
1211.1000;0.1416;-0.3235;
1211.4000;0.1465;-0.3091;
1211.7000;0.1465;-0.3067;
1212.0000;0.1449;-0.3139;
1212.3000;0.1465;-0.3115;
1212.6000;0.1473;-0.3067;
1212.9000;0.1473;-0.3067;
1213.2000;0.1457;-0.3115;
1213.5000;0.1481;-0.2971;
1213.8000;0.1457;-0.2947;
1214.1000;0.1433;-0.2947;
1214.4000;0.1522;-0.2707;
1214.7000;0.1473;-0.2851;
1215.0000;0.1384;-0.3187;
1215.3000;0.1441;-0.2923;
1215.6000;0.1490;-0.2803;
1215.9000;0.1473;-0.2803;
1216.2000;0.1522;-0.2660;
1216.5000;0.1473;-0.2779;
1216.8000;0.1465;-0.2851;
1217.1000;0.1457;-0.2851;
1217.4000;0.1465;-0.2827;
1217.7000;0.1441;-0.2899;
1218.0000;0.1425;-0.2851;
1218.3000;0.1449;-0.2851;
1218.6000;0.1457;-0.2803;
1218.9000;0.1449;-0.2923;
1219.2000;0.1416;-0.2971;
1219.5000;0.1481;-0.2851;
1219.8000;0.1481;-0.2731;
1220.1000;0.1465;-0.2636;
1220.4000;0.1441;-0.2684;
1220.7000;0.1481;-0.2540;
1221.0000;0.1457;-0.2660;
1221.3000;0.1416;-0.2875;
1221.6000;0.1490;-0.2707;
1221.9000;0.1473;-0.2731;
1222.2000;0.1457;-0.2803;
1222.5000;0.1490;-0.2779;
1222.8000;0.1465;-0.2731;
1223.1000;0.1441;-0.2803;
1223.4000;0.1473;-0.2684;
1223.7000;0.1473;-0.2660;
1224.0000;0.1465;-0.2588;
1224.3000;0.1465;-0.2564;
1224.6000;0.1490;-0.2516;
1224.9000;0.1465;-0.2588;
1225.2000;0.1473;-0.2564;
1225.5000;0.1473;-0.2492;
1225.8000;0.1473;-0.2492;
1226.1000;0.1433;-0.2636;
1226.4000;0.1457;-0.2588;
1226.7000;0.1457;-0.2612;
1227.0000;0.1481;-0.2612;
1227.3000;0.1473;-0.2636;
1227.6000;0.1465;-0.2588;
1227.9000;0.1465;-0.2660;
1228.2000;0.1449;-0.2707;
1228.5000;0.1465;-0.2684;
1228.8000;0.1465;-0.2660;
1229.1000;0.1465;-0.2684;
1229.4000;0.1465;-0.2660;
1229.7000;0.1473;-0.2660;
1230.0000;0.1449;-0.2707;
1230.3000;0.1457;-0.2779;
1230.6000;0.1473;-0.2707;
1230.9000;0.1465;-0.2755;
1231.2000;0.1473;-0.2684;
1231.5000;0.1449;-0.2660;
1231.8000;0.1579;-0.2300;
1232.1000;0.1473;-0.2588;
1232.4000;0.1465;-0.2612;
1232.7000;0.1449;-0.2707;
1233.0000;0.1490;-0.2636;
1233.3000;0.1449;-0.2731;
1233.6000;0.1441;-0.2731;
1233.9000;0.1465;-0.2588;
1234.2000;0.1457;-0.2707;
1234.5000;0.1449;-0.2779;
1234.8000;0.1449;-0.2779;
1235.1000;0.1547;-0.2492;
1235.4000;0.1457;-0.2827;
1235.7000;0.1465;-0.2803;
1236.0000;0.1465;-0.2707;
1236.3000;0.1449;-0.2684;
1236.6000;0.1530;-0.2492;
1236.9000;0.1457;-0.2731;
1237.2000;0.1392;-0.2899;
1237.5000;0.1449;-0.2803;
1237.8000;0.1457;-0.2851;
1238.1000;0.1457;-0.2899;
1238.4000;0.1425;-0.2995;
1238.7000;0.1457;-0.2827;
1239.0000;0.1457;-0.2803;
1239.3000;0.1441;-0.2899;
1239.6000;0.1457;-0.2875;
1239.9000;0.1465;-0.2851;
1240.2000;0.1490;-0.2755;
1240.5000;0.1425;-0.2971;
1240.8000;0.1465;-0.2875;
1241.1000;0.1473;-0.2851;
1241.4000;0.1498;-0.2755;
1241.7000;0.1465;-0.2851;
1242.0000;0.1465;-0.2923;
1242.3000;0.1441;-0.2971;
1242.6000;0.1473;-0.2827;
1242.9000;0.1473;-0.2779;
1243.2000;0.1457;-0.2851;
1243.5000;0.1465;-0.2779;
1243.8000;0.1449;-0.2755;
1244.1000;0.1449;-0.2684;
1244.4000;0.1457;-0.2636;
1244.7000;0.1400;-0.2803;
1245.0000;0.1473;-0.2540;
1245.3000;0.1449;-0.2612;
1245.6000;0.1555;-0.2252;
1245.9000;0.1465;-0.2468;
1246.2000;0.1457;-0.2468;
1246.5000;0.1522;-0.2420;
1246.8000;0.1457;-0.2612;
1247.1000;0.1481;-0.2588;
1247.4000;0.1465;-0.2588;
1247.7000;0.1473;-0.2540;
1248.0000;0.1490;-0.2588;
1248.3000;0.1473;-0.2636;
1248.6000;0.1490;-0.2612;
1248.9000;0.1473;-0.2660;
1249.2000;0.1490;-0.2564;
1249.5000;0.1465;-0.2684;
1249.8000;0.1457;-0.2660;
1250.1000;0.1449;-0.2612;
1250.4000;0.1481;-0.2612;
1250.7000;0.1465;-0.2636;
1251.0000;0.1473;-0.2660;
1251.3000;0.1457;-0.2803;
1251.6000;0.1465;-0.2803;
1251.9000;0.1465;-0.2707;
1252.2000;0.1481;-0.2779;
1252.5000;0.1473;-0.2827;
1252.8000;0.1465;-0.2803;
1253.1000;0.1490;-0.2779;
1253.4000;0.1473;-0.2803;
1253.7000;0.1481;-0.2684;
1254.0000;0.1465;-0.2779;
1254.3000;0.1490;-0.2731;
1254.6000;0.1465;-0.2803;
1254.9000;0.1465;-0.2755;
1255.2000;0.1441;-0.2827;
1255.5000;0.1465;-0.2755;
1255.8000;0.1465;-0.2779;
1256.1000;0.1473;-0.2636;
1256.4000;0.1465;-0.2707;
1256.7000;0.1473;-0.2660;
1257.0000;0.1449;-0.2660;
1257.3000;0.1441;-0.2731;
1257.6000;0.1465;-0.2684;
1257.9000;0.1465;-0.2779;
1258.2000;0.1473;-0.2851;
1258.5000;0.1490;-0.2803;
1258.8000;0.1481;-0.2779;
1259.1000;0.1457;-0.2731;
1259.4000;0.1473;-0.2684;
1259.7000;0.1457;-0.2684;
1260.0000;0.1465;-0.2684;
1260.3000;0.1425;-0.2731;
1260.6000;0.1490;-0.2660;
1260.9000;0.1457;-0.2803;
1261.2000;0.1457;-0.2803;
1261.5000;0.1465;-0.2779;
1261.8000;0.1465;-0.2755;
1262.1000;0.1473;-0.2707;
1262.4000;0.1408;-0.2875;
1262.7000;0.1506;-0.2612;
1263.0000;0.1473;-0.2731;
1263.3000;0.1490;-0.2612;
1263.6000;0.1441;-0.2707;
1263.9000;0.1481;-0.2612;
1264.2000;0.1481;-0.2564;
1264.5000;0.1473;-0.2612;
1264.8000;0.1481;-0.2660;
1265.1000;0.1449;-0.2803;
1265.4000;0.1457;-0.2731;
1265.7000;0.1449;-0.2731;
1266.0000;0.1449;-0.2755;
1266.3000;0.1473;-0.2707;
1266.6000;0.1457;-0.2779;
1266.9000;0.1473;-0.2803;
1267.2000;0.1457;-0.2755;
1267.5000;0.1465;-0.2707;
1267.8000;0.1425;-0.2899;
1268.1000;0.1465;-0.2755;
1268.4000;0.1490;-0.2660;
1268.7000;0.1498;-0.2779;
1269.0000;0.1457;-0.2851;
1269.3000;0.1449;-0.2995;
1269.6000;0.1595;-0.2660;
1269.9000;0.1465;-0.3019;
1270.2000;0.1441;-0.3043;
1270.5000;0.1522;-0.2851;
1270.8000;0.1473;-0.3043;
1271.1000;0.1457;-0.3043;
1271.4000;0.1481;-0.2947;
1271.7000;0.1392;-0.3211;
1272.0000;0.1473;-0.3043;
1272.3000;0.1449;-0.3067;
1272.6000;0.1449;-0.3043;
1272.9000;0.1481;-0.2947;
1273.2000;0.1449;-0.3091;
1273.5000;0.1498;-0.2947;
1273.8000;0.1408;-0.3115;
1274.1000;0.1490;-0.2899;
1274.4000;0.1449;-0.3019;
1274.7000;0.1481;-0.2899;
1275.0000;0.1473;-0.2827;
1275.3000;0.1571;-0.2516;
1275.6000;0.1465;-0.2827;
1275.9000;0.1465;-0.2899;
1276.2000;0.1465;-0.2875;
1276.5000;0.1473;-0.2971;
1276.8000;0.1490;-0.2923;
1277.1000;0.1465;-0.2899;
1277.4000;0.1490;-0.2827;
1277.7000;0.1522;-0.2731;
1278.0000;0.1465;-0.2947;
1278.3000;0.1481;-0.2923;
1278.6000;0.1490;-0.2899;
1278.9000;0.1547;-0.2755;
1279.2000;0.1465;-0.2923;
1279.5000;0.1465;-0.2971;
1279.8000;0.1392;-0.3306;
1280.1000;0.1473;-0.3067;
1280.4000;0.1473;-0.3115;
1280.7000;0.1441;-0.3211;
1281.0000;0.1563;-0.2923;
1281.3000;0.1498;-0.2995;
1281.6000;0.1408;-0.3259;
1281.9000;0.1465;-0.3139;
1282.2000;0.1457;-0.3115;
1282.5000;0.1433;-0.2995;
1282.8000;0.1465;-0.2827;
1283.1000;0.1425;-0.2827;
1283.4000;0.1465;-0.2779;
1283.7000;0.1612;-0.2372;
1284.0000;0.1465;-0.2827;
1284.3000;0.1522;-0.2827;
1284.6000;0.1449;-0.2995;
1284.9000;0.1473;-0.3019;
1285.2000;0.1465;-0.2899;
1285.5000;0.1481;-0.2851;
1285.8000;0.1481;-0.2779;
1286.1000;0.1441;-0.2851;
1286.4000;0.1490;-0.2707;
1286.7000;0.1465;-0.2755;
1287.0000;0.1473;-0.2779;
1287.3000;0.1465;-0.2755;
1287.6000;0.1457;-0.2803;
1287.9000;0.1457;-0.2875;
1288.2000;0.1473;-0.2923;
1288.5000;0.1465;-0.2947;
1288.8000;0.1441;-0.3043;
1289.1000;0.1457;-0.3067;
1289.4000;0.1457;-0.3067;
1289.7000;0.1547;-0.2827;
1290.0000;0.1465;-0.3067;
1290.3000;0.1457;-0.3043;
1290.6000;0.1555;-0.2731;
1290.9000;0.1465;-0.2947;
1291.2000;0.1465;-0.2923;
1291.5000;0.1457;-0.2875;
1291.8000;0.1457;-0.2947;
1292.1000;0.1457;-0.3019;
1292.4000;0.1547;-0.2851;
1292.7000;0.1408;-0.3211;
1293.0000;0.1449;-0.3163;
1293.3000;0.1465;-0.3043;
1293.6000;0.1465;-0.2971;
1293.9000;0.1465;-0.2875;
1294.2000;0.1457;-0.2995;
1294.5000;0.1457;-0.3043;
1294.8000;0.1506;-0.2947;
1295.1000;0.1465;-0.3043;
1295.4000;0.1498;-0.2995;
1295.7000;0.1473;-0.3091;
1296.0000;0.1498;-0.3019;
1296.3000;0.1514;-0.2851;
1296.6000;0.1457;-0.2971;
1296.9000;0.1538;-0.2851;
1297.2000;0.1441;-0.3115;
1297.5000;0.1465;-0.2995;
1297.8000;0.1481;-0.2971;
1298.1000;0.1457;-0.3139;
1298.4000;0.1473;-0.3163;
1298.7000;0.1400;-0.3474;
1299.0000;0.1465;-0.3330;
1299.3000;0.1425;-0.3330;
1299.6000;0.1457;-0.3306;
1299.9000;0.1498;-0.3091;
1300.2000;0.1473;-0.3115;
1300.5000;0.1449;-0.3187;
1300.8000;0.1457;-0.3139;
1301.1000;0.1441;-0.3235;
1301.4000;0.1408;-0.3330;
1301.7000;0.1490;-0.3067;
1302.0000;0.1465;-0.3043;
1302.3000;0.1441;-0.3091;
1302.6000;0.1481;-0.2875;
1302.9000;0.1449;-0.3019;
1303.2000;0.1457;-0.3067;
1303.5000;0.1449;-0.2995;
1303.8000;0.1416;-0.3067;
1304.1000;0.1457;-0.2995;
1304.4000;0.1498;-0.2875;
1304.7000;0.1481;-0.2923;
1305.0000;0.1465;-0.2947;
1305.3000;0.1457;-0.2971;
1305.6000;0.1465;-0.2971;
1305.9000;0.1473;-0.2971;
1306.2000;0.1498;-0.2971;
1306.5000;0.1465;-0.3043;
1306.8000;0.1433;-0.3139;
1307.1000;0.1465;-0.3091;
1307.4000;0.1449;-0.3091;
1307.7000;0.1473;-0.3043;
1308.0000;0.1530;-0.2803;
1308.3000;0.1449;-0.2971;
1308.6000;0.1498;-0.2803;
1308.9000;0.1457;-0.2899;
1309.2000;0.1408;-0.3043;
1309.5000;0.1449;-0.3043;
1309.8000;0.1465;-0.2995;
1310.1000;0.1465;-0.2971;
1310.4000;0.1449;-0.2875;
1310.7000;0.1481;-0.2779;
1311.0000;0.1465;-0.2851;
1311.3000;0.1473;-0.2875;
1311.6000;0.1465;-0.2971;
1311.9000;0.1449;-0.2971;
1312.2000;0.1465;-0.2923;
1312.5000;0.1473;-0.2851;
1312.8000;0.1473;-0.2899;
1313.1000;0.1457;-0.3067;
1313.4000;0.1465;-0.3139;
1313.7000;0.1449;-0.3163;
1314.0000;0.1465;-0.3043;
1314.3000;0.1441;-0.3019;
1314.6000;0.1465;-0.3019;
1314.9000;0.1490;-0.2923;
1315.2000;0.1449;-0.2947;
1315.5000;0.1473;-0.2923;
1315.8000;0.1449;-0.2971;
1316.1000;0.1547;-0.2660;
1316.4000;0.1522;-0.2779;
1316.7000;0.1449;-0.2899;
1317.0000;0.1481;-0.2899;
1317.3000;0.1506;-0.2755;
1317.6000;0.1457;-0.2899;
1317.9000;0.1457;-0.2947;
1318.2000;0.1392;-0.3091;
1318.5000;0.1473;-0.2755;
1318.8000;0.1490;-0.2731;
1319.1000;0.1465;-0.2731;
1319.4000;0.1457;-0.2779;
1319.7000;0.1457;-0.2803;
1320.0000;0.1465;-0.2755;
1320.3000;0.1441;-0.2851;
1320.6000;0.1457;-0.2827;
1320.9000;0.1433;-0.2851;
1321.2000;0.1473;-0.2779;
1321.5000;0.1498;-0.2755;
1321.8000;0.1457;-0.2875;
1322.1000;0.1465;-0.2827;
1322.4000;0.1490;-0.2707;
1322.7000;0.1384;-0.2851;
1323.0000;0.1465;-0.2612;
1323.3000;0.1473;-0.2684;
1323.6000;0.1392;-0.2971;
1323.9000;0.1449;-0.2684;
1324.2000;0.1457;-0.2731;
1324.5000;0.1457;-0.2755;
1324.8000;0.1441;-0.2827;
1325.1000;0.1473;-0.2755;
1325.4000;0.1473;-0.2731;
1325.7000;0.1449;-0.2947;
1326.0000;0.1433;-0.2971;
1326.3000;0.1441;-0.2947;
1326.6000;0.1465;-0.2923;
1326.9000;0.1465;-0.2875;
1327.2000;0.1465;-0.2923;
1327.5000;0.1481;-0.2947;
1327.8000;0.1490;-0.2923;
1328.1000;0.1473;-0.2995;
1328.4000;0.1465;-0.3043;
1328.7000;0.1473;-0.3019;
1329.0000;0.1473;-0.3091;
1329.3000;0.1604;-0.2731;
1329.6000;0.1481;-0.3163;
1329.9000;0.1449;-0.3283;
1330.2000;0.1473;-0.3139;
1330.5000;0.1465;-0.3139;
1330.8000;0.1465;-0.3139;
1331.1000;0.1449;-0.3211;
1331.4000;0.1490;-0.3163;
1331.7000;0.1465;-0.3139;
1332.0000;0.1449;-0.3139;
1332.3000;0.1522;-0.2947;
1332.6000;0.1514;-0.2971;
1332.9000;0.1481;-0.2947;
1333.2000;0.1327;-0.3306;
1333.5000;0.1555;-0.2684;
1333.8000;0.1481;-0.2899;
1334.1000;0.1473;-0.2851;
1334.4000;0.1465;-0.2899;
1334.7000;0.1473;-0.2899;
1335.0000;0.1481;-0.2827;
1335.3000;0.1473;-0.2827;
1335.6000;0.1457;-0.2755;
1335.9000;0.1457;-0.2707;
1336.2000;0.1465;-0.2660;
1336.5000;0.1465;-0.2684;
1336.8000;0.1473;-0.2755;
1337.1000;0.1449;-0.2827;
1337.4000;0.1449;-0.2875;
1337.7000;0.1465;-0.2851;
1338.0000;0.1481;-0.2827;
1338.3000;0.1465;-0.2851;
1338.6000;0.1514;-0.2707;
1338.9000;0.1465;-0.2731;
1339.2000;0.1465;-0.2779;
1339.5000;0.1457;-0.2899;
1339.8000;0.1457;-0.2875;
1340.1000;0.1408;-0.2947;
1340.4000;0.1465;-0.2731;
1340.7000;0.1465;-0.2707;
1341.0000;0.1449;-0.2779;
1341.3000;0.1473;-0.2684;
1341.6000;0.1416;-0.2923;
1341.9000;0.1473;-0.2803;
1342.2000;0.1555;-0.2612;
1342.5000;0.1425;-0.2875;
1342.8000;0.1465;-0.2779;
1343.1000;0.1473;-0.2731;
1343.4000;0.1449;-0.2851;
1343.7000;0.1481;-0.2779;
1344.0000;0.1465;-0.2875;
1344.3000;0.1473;-0.2875;
1344.6000;0.1465;-0.2923;
1344.9000;0.1481;-0.2923;
1345.2000;0.1449;-0.2923;
1345.5000;0.1457;-0.2947;
1345.8000;0.1465;-0.2827;
1346.1000;0.1473;-0.2851;
1346.4000;0.1465;-0.2827;
1346.7000;0.1465;-0.2875;
1347.0000;0.1433;-0.2971;
1347.3000;0.1481;-0.2923;
1347.6000;0.1425;-0.3067;
1347.9000;0.1465;-0.2899;
1348.2000;0.1457;-0.2875;
1348.5000;0.1433;-0.2851;
1348.8000;0.1473;-0.2803;
1349.1000;0.1449;-0.2851;
1349.4000;0.1465;-0.2755;
1349.7000;0.1473;-0.2779;
1350.0000;0.1465;-0.2779;
1350.3000;0.1433;-0.2899;
1350.6000;0.1481;-0.2803;
1350.9000;0.1473;-0.2827;
1351.2000;0.1457;-0.2851;
1351.5000;0.1481;-0.2731;
1351.8000;0.1465;-0.2779;
1352.1000;0.1457;-0.2779;
1352.4000;0.1481;-0.2731;
1352.7000;0.1457;-0.2755;
1353.0000;0.1433;-0.2803;
1353.3000;0.1522;-0.2731;
1353.6000;0.1392;-0.3091;
1353.9000;0.1457;-0.2875;
1354.2000;0.1473;-0.2851;
1354.5000;0.1425;-0.2947;
1354.8000;0.1473;-0.2899;
1355.1000;0.1473;-0.2875;
1355.4000;0.1457;-0.2923;
1355.7000;0.1465;-0.2947;
1356.0000;0.1465;-0.2899;
1356.3000;0.1473;-0.2779;
1356.6000;0.1457;-0.2827;
1356.9000;0.1457;-0.2875;
1357.2000;0.1473;-0.2875;
1357.5000;0.1465;-0.2947;
1357.8000;0.1457;-0.2923;
1358.1000;0.1465;-0.2899;
1358.4000;0.1498;-0.2779;
1358.7000;0.1473;-0.2827;
1359.0000;0.1457;-0.2899;
1359.3000;0.1481;-0.2875;
1359.6000;0.1547;-0.2684;
1359.9000;0.1473;-0.2803;
1360.2000;0.1465;-0.2779;
1360.5000;0.1473;-0.2779;
1360.8000;0.1457;-0.2731;
1361.1000;0.1473;-0.2684;
1361.4000;0.1490;-0.2707;
1361.7000;0.1449;-0.2707;
1362.0000;0.1465;-0.2779;
1362.3000;0.1441;-0.2851;
1362.6000;0.1473;-0.2731;
1362.9000;0.1465;-0.2731;
1363.2000;0.1465;-0.2731;
1363.5000;0.1441;-0.2755;
1363.8000;0.1449;-0.2684;
1364.1000;0.1563;-0.2420;
1364.4000;0.1441;-0.2755;
1364.7000;0.1457;-0.2707;
1365.0000;0.1530;-0.2516;
1365.3000;0.1457;-0.2755;
1365.6000;0.1441;-0.2755;
1365.9000;0.1473;-0.2803;
1366.2000;0.1449;-0.2803;
1366.5000;0.1481;-0.2707;
1366.8000;0.1465;-0.2707;
1367.1000;0.1449;-0.2731;
1367.4000;0.1457;-0.2731;
1367.7000;0.1425;-0.2755;
1368.0000;0.1457;-0.2684;
1368.3000;0.1441;-0.2684;
1368.6000;0.1481;-0.2660;
1368.9000;0.1473;-0.2755;
1369.2000;0.1490;-0.2636;
1369.5000;0.1449;-0.2636;
1369.8000;0.1351;-0.2827;
1370.1000;0.1465;-0.2492;
1370.4000;0.1473;-0.2588;
1370.7000;0.1473;-0.2755;
1371.0000;0.1481;-0.2636;
1371.3000;0.1481;-0.2660;
1371.6000;0.1449;-0.2779;
1371.9000;0.1473;-0.2660;
1372.2000;0.1473;-0.2660;
1372.5000;0.1481;-0.2731;
1372.8000;0.1473;-0.2660;
1373.1000;0.1449;-0.2707;
1373.4000;0.1457;-0.2779;
1373.7000;0.1490;-0.2684;
1374.0000;0.1457;-0.2707;
1374.3000;0.1481;-0.2540;
1374.6000;0.1457;-0.2588;
1374.9000;0.1465;-0.2492;
1375.2000;0.1457;-0.2444;
1375.5000;0.1473;-0.2492;
1375.8000;0.1490;-0.2420;
1376.1000;0.1400;-0.2612;
1376.4000;0.1465;-0.2420;
1376.7000;0.1473;-0.2564;
1377.0000;0.1473;-0.2444;
1377.3000;0.1465;-0.2516;
1377.6000;0.1465;-0.2492;
1377.9000;0.1457;-0.2564;
1378.2000;0.1481;-0.2612;
1378.5000;0.1408;-0.2707;
1378.8000;0.1473;-0.2564;
1379.1000;0.1457;-0.2612;
1379.4000;0.1465;-0.2660;
1379.7000;0.1514;-0.2492;
1380.0000;0.1449;-0.2636;
1380.3000;0.1449;-0.2612;
1380.6000;0.1457;-0.2588;
1380.9000;0.1481;-0.2540;
1381.2000;0.1465;-0.2636;
1381.5000;0.1465;-0.2660;
1381.8000;0.1408;-0.2851;
1382.1000;0.1465;-0.2803;
1382.4000;0.1481;-0.2731;
1382.7000;0.1457;-0.2731;
1383.0000;0.1465;-0.2684;
1383.3000;0.1408;-0.2851;
1383.6000;0.1481;-0.2636;
1383.9000;0.1538;-0.2588;
1384.2000;0.1465;-0.2779;
1384.5000;0.1457;-0.2851;
1384.8000;0.1555;-0.2588;
1385.1000;0.1457;-0.2755;
1385.4000;0.1473;-0.2636;
1385.7000;0.1457;-0.2684;
1386.0000;0.1473;-0.2684;
1386.3000;0.1408;-0.2875;
1386.6000;0.1441;-0.2755;
1386.9000;0.1465;-0.2636;
1387.2000;0.1506;-0.2612;
1387.5000;0.1449;-0.2684;
1387.8000;0.1506;-0.2564;
1388.1000;0.1490;-0.2636;
1388.4000;0.1457;-0.2803;
1388.7000;0.1449;-0.2827;
1389.0000;0.1514;-0.2755;
1389.3000;0.1457;-0.2923;
1389.6000;0.1449;-0.2995;
1389.9000;0.1465;-0.3019;
1390.2000;0.1457;-0.3043;
1390.5000;0.1473;-0.2995;
1390.8000;0.1473;-0.3019;
1391.1000;0.1465;-0.3043;
1391.4000;0.1481;-0.2947;
1391.7000;0.1449;-0.3067;
1392.0000;0.1473;-0.3019;
1392.3000;0.1481;-0.3043;
1392.6000;0.1498;-0.2947;
1392.9000;0.1465;-0.3019;
1393.2000;0.1555;-0.2779;
1393.5000;0.1473;-0.2971;
1393.8000;0.1441;-0.2995;
1394.1000;0.1441;-0.2947;
1394.4000;0.1351;-0.3163;
1394.7000;0.1457;-0.2923;
1395.0000;0.1465;-0.2875;
1395.3000;0.1481;-0.2779;
1395.6000;0.1449;-0.2779;
1395.9000;0.1425;-0.2755;
1396.2000;0.1498;-0.2636;
1396.5000;0.1441;-0.2755;
1396.8000;0.1563;-0.2492;
1397.1000;0.1481;-0.2779;
1397.4000;0.1433;-0.2899;
1397.7000;0.1465;-0.2779;
1398.0000;0.1457;-0.2803;
1398.3000;0.1449;-0.2923;
1398.6000;0.1416;-0.3019;
1398.9000;0.1473;-0.2947;
1399.2000;0.1465;-0.2923;
1399.5000;0.1481;-0.2899;
1399.8000;0.1441;-0.2923;
