time/ms;Fluo/V;P700 deltaI/I x10³;
-199.8000;0.1522;-0.2492;
-199.5000;0.1514;-0.2540;
-199.2000;0.1514;-0.2516;
-198.9000;0.1514;-0.2516;
-198.6000;0.1538;-0.2492;
-198.3000;0.1522;-0.2564;
-198.0000;0.1612;-0.2300;
-197.7000;0.1530;-0.2564;
-197.4000;0.1530;-0.2516;
-197.1000;0.1530;-0.2492;
-196.8000;0.1514;-0.2540;
-196.5000;0.1522;-0.2516;
-196.2000;0.1522;-0.2612;
-195.9000;0.1522;-0.2588;
-195.6000;0.1530;-0.2492;
-195.3000;0.1530;-0.2540;
-195.0000;0.1538;-0.2516;
-194.7000;0.1490;-0.2707;
-194.4000;0.1547;-0.2540;
-194.1000;0.1506;-0.2588;
-193.8000;0.1530;-0.2564;
-193.5000;0.1514;-0.2612;
-193.2000;0.1522;-0.2588;
-192.9000;0.1514;-0.2564;
-192.6000;0.1514;-0.2564;
-192.3000;0.1530;-0.2564;
-192.0000;0.1425;-0.2803;
-191.7000;0.1530;-0.2516;
-191.4000;0.1530;-0.2564;
-191.1000;0.1538;-0.2516;
-190.8000;0.1530;-0.2564;
-190.5000;0.1522;-0.2540;
-190.2000;0.1457;-0.2588;
-189.9000;0.1522;-0.2348;
-189.6000;0.1530;-0.2276;
-189.3000;0.1514;-0.2372;
-189.0000;0.1441;-0.2684;
-188.7000;0.1514;-0.2564;
-188.4000;0.1514;-0.2636;
-188.1000;0.1530;-0.2636;
-187.8000;0.1514;-0.2660;
-187.5000;0.1530;-0.2636;
-187.2000;0.1538;-0.2588;
-186.9000;0.1555;-0.2492;
-186.6000;0.1563;-0.2444;
-186.3000;0.1522;-0.2564;
-186.0000;0.1498;-0.2588;
-185.7000;0.1620;-0.2300;
-185.4000;0.1522;-0.2516;
-185.1000;0.1490;-0.2636;
-184.8000;0.1538;-0.2588;
-184.5000;0.1530;-0.2612;
-184.2000;0.1571;-0.2540;
-183.9000;0.1433;-0.2875;
-183.6000;0.1506;-0.2660;
-183.3000;0.1530;-0.2612;
-183.0000;0.1595;-0.2444;
-182.7000;0.1538;-0.2564;
-182.4000;0.1514;-0.2684;
-182.1000;0.1530;-0.2588;
-181.8000;0.1555;-0.2564;
-181.5000;0.1538;-0.2540;
-181.2000;0.1522;-0.2612;
-180.9000;0.1514;-0.2612;
-180.6000;0.1530;-0.2588;
-180.3000;0.1522;-0.2684;
-180.0000;0.1514;-0.2731;
-179.7000;0.1514;-0.2731;
-179.4000;0.1522;-0.2731;
-179.1000;0.1506;-0.2803;
-178.8000;0.1514;-0.2731;
-178.5000;0.1425;-0.2971;
-178.2000;0.1506;-0.2684;
-177.9000;0.1530;-0.2516;
-177.6000;0.1498;-0.2684;
-177.3000;0.1522;-0.2660;
-177.0000;0.1620;-0.2348;
-176.7000;0.1538;-0.2564;
-176.4000;0.1522;-0.2588;
-176.1000;0.1555;-0.2468;
-175.8000;0.1563;-0.2420;
-175.5000;0.1530;-0.2468;
-175.2000;0.1538;-0.2444;
-174.9000;0.1530;-0.2588;
-174.6000;0.1506;-0.2612;
-174.3000;0.1522;-0.2588;
-174.0000;0.1522;-0.2636;
-173.7000;0.1530;-0.2755;
-173.4000;0.1530;-0.2707;
-173.1000;0.1538;-0.2707;
-172.8000;0.1457;-0.2899;
-172.5000;0.1612;-0.2612;
-172.2000;0.1522;-0.2851;
-171.9000;0.1538;-0.2803;
-171.6000;0.1457;-0.3115;
-171.3000;0.1538;-0.2803;
-171.0000;0.1522;-0.2923;
-170.7000;0.1530;-0.2851;
-170.4000;0.1579;-0.2731;
-170.1000;0.1538;-0.2827;
-169.8000;0.1514;-0.2947;
-169.5000;0.1587;-0.2755;
-169.2000;0.1522;-0.2875;
-168.9000;0.1530;-0.2827;
-168.6000;0.1506;-0.2827;
-168.3000;0.1514;-0.2803;
-168.0000;0.1547;-0.2684;
-167.7000;0.1473;-0.2899;
-167.4000;0.1498;-0.2779;
-167.1000;0.1514;-0.2707;
-166.8000;0.1555;-0.2660;
-166.5000;0.1498;-0.2827;
-166.2000;0.1538;-0.2731;
-165.9000;0.1506;-0.2684;
-165.6000;0.1506;-0.2660;
-165.3000;0.1522;-0.2588;
-165.0000;0.1514;-0.2588;
-164.7000;0.1522;-0.2588;
-164.4000;0.1514;-0.2564;
-164.1000;0.1514;-0.2492;
-163.8000;0.1522;-0.2468;
-163.5000;0.1408;-0.2755;
-163.2000;0.1514;-0.2516;
-162.9000;0.1514;-0.2612;
-162.6000;0.1530;-0.2684;
-162.3000;0.1538;-0.2612;
-162.0000;0.1465;-0.2779;
-161.7000;0.1522;-0.2612;
-161.4000;0.1506;-0.2755;
-161.1000;0.1530;-0.2660;
-160.8000;0.1530;-0.2660;
-160.5000;0.1522;-0.2612;
-160.2000;0.1538;-0.2636;
-159.9000;0.1538;-0.2660;
-159.6000;0.1538;-0.2660;
-159.3000;0.1498;-0.2755;
-159.0000;0.1490;-0.2684;
-158.7000;0.1555;-0.2468;
-158.4000;0.1522;-0.2564;
-158.1000;0.1522;-0.2588;
-157.8000;0.1530;-0.2612;
-157.5000;0.1506;-0.2660;
-157.2000;0.1522;-0.2492;
-156.9000;0.1522;-0.2516;
-156.6000;0.1555;-0.2540;
-156.3000;0.1555;-0.2564;
-156.0000;0.1530;-0.2636;
-155.7000;0.1530;-0.2588;
-155.4000;0.1547;-0.2516;
-155.1000;0.1538;-0.2612;
-154.8000;0.1457;-0.2755;
-154.5000;0.1571;-0.2468;
-154.2000;0.1538;-0.2636;
-153.9000;0.1514;-0.2707;
-153.6000;0.1522;-0.2636;
-153.3000;0.1522;-0.2660;
-153.0000;0.1522;-0.2684;
-152.7000;0.1547;-0.2660;
-152.4000;0.1538;-0.2612;
-152.1000;0.1530;-0.2684;
-151.8000;0.1530;-0.2684;
-151.5000;0.1522;-0.2731;
-151.2000;0.1571;-0.2588;
-150.9000;0.1538;-0.2755;
-150.6000;0.1522;-0.2731;
-150.3000;0.1473;-0.2875;
-150.0000;0.1538;-0.2684;
-149.7000;0.1530;-0.2660;
-149.4000;0.1530;-0.2540;
-149.1000;0.1547;-0.2564;
-148.8000;0.1530;-0.2588;
-148.5000;0.1547;-0.2468;
-148.2000;0.1604;-0.2252;
-147.9000;0.1522;-0.2372;
-147.6000;0.1514;-0.2300;
-147.3000;0.1604;-0.2061;
-147.0000;0.1555;-0.2228;
-146.7000;0.1506;-0.2372;
-146.4000;0.1604;-0.2132;
-146.1000;0.1514;-0.2420;
-145.8000;0.1514;-0.2516;
-145.5000;0.1538;-0.2540;
-145.2000;0.1514;-0.2588;
-144.9000;0.1547;-0.2492;
-144.6000;0.1530;-0.2444;
-144.3000;0.1514;-0.2444;
-144.0000;0.1522;-0.2468;
-143.7000;0.1514;-0.2420;
-143.4000;0.1547;-0.2420;
-143.1000;0.1563;-0.2396;
-142.8000;0.1514;-0.2564;
-142.5000;0.1514;-0.2564;
-142.2000;0.1628;-0.2276;
-141.9000;0.1514;-0.2636;
-141.6000;0.1506;-0.2612;
-141.3000;0.1498;-0.2588;
-141.0000;0.1514;-0.2564;
-140.7000;0.1522;-0.2492;
-140.4000;0.1522;-0.2516;
-140.1000;0.1514;-0.2516;
-139.8000;0.1506;-0.2516;
-139.5000;0.1530;-0.2468;
-139.2000;0.1547;-0.2420;
-138.9000;0.1522;-0.2468;
-138.6000;0.1506;-0.2540;
-138.3000;0.1506;-0.2540;
-138.0000;0.1538;-0.2540;
-137.7000;0.1522;-0.2588;
-137.4000;0.1498;-0.2636;
-137.1000;0.1538;-0.2516;
-136.8000;0.1514;-0.2516;
-136.5000;0.1514;-0.2516;
-136.2000;0.1538;-0.2492;
-135.9000;0.1571;-0.2420;
-135.6000;0.1473;-0.2612;
-135.3000;0.1522;-0.2492;
-135.0000;0.1416;-0.2755;
-134.7000;0.1514;-0.2492;
-134.4000;0.1522;-0.2444;
-134.1000;0.1530;-0.2420;
-133.8000;0.1522;-0.2492;
-133.5000;0.1547;-0.2492;
-133.2000;0.1457;-0.2707;
-132.9000;0.1538;-0.2444;
-132.6000;0.1506;-0.2516;
-132.3000;0.1530;-0.2492;
-132.0000;0.1522;-0.2444;
-131.7000;0.1530;-0.2372;
-131.4000;0.1514;-0.2396;
-131.1000;0.1595;-0.2204;
-130.8000;0.1579;-0.2276;
-130.5000;0.1514;-0.2444;
-130.2000;0.1522;-0.2444;
-129.9000;0.1441;-0.2731;
-129.6000;0.1514;-0.2516;
-129.3000;0.1522;-0.2540;
-129.0000;0.1506;-0.2516;
-128.7000;0.1530;-0.2468;
-128.4000;0.1538;-0.2372;
-128.1000;0.1538;-0.2396;
-127.8000;0.1571;-0.2420;
-127.5000;0.1522;-0.2516;
-127.2000;0.1498;-0.2588;
-126.9000;0.1514;-0.2588;
-126.6000;0.1522;-0.2540;
-126.3000;0.1547;-0.2492;
-126.0000;0.1514;-0.2588;
-125.7000;0.1530;-0.2564;
-125.4000;0.1563;-0.2492;
-125.1000;0.1530;-0.2564;
-124.8000;0.1425;-0.2779;
-124.5000;0.1465;-0.2684;
-124.2000;0.1563;-0.2420;
-123.9000;0.1384;-0.2827;
-123.6000;0.1514;-0.2516;
-123.3000;0.1490;-0.2516;
-123.0000;0.1490;-0.2492;
-122.7000;0.1538;-0.2348;
-122.4000;0.1595;-0.2156;
-122.1000;0.1514;-0.2300;
-121.8000;0.1506;-0.2276;
-121.5000;0.1498;-0.2228;
-121.2000;0.1498;-0.2252;
-120.9000;0.1522;-0.2228;
-120.6000;0.1481;-0.2204;
-120.3000;0.1522;-0.2180;
-120.0000;0.1522;-0.2252;
-119.7000;0.1506;-0.2324;
-119.4000;0.1538;-0.2228;
-119.1000;0.1538;-0.2324;
-118.8000;0.1530;-0.2420;
-118.5000;0.1538;-0.2372;
-118.2000;0.1416;-0.2707;
-117.9000;0.1522;-0.2564;
-117.6000;0.1538;-0.2564;
-117.3000;0.1530;-0.2564;
-117.0000;0.1555;-0.2516;
-116.7000;0.1547;-0.2564;
-116.4000;0.1571;-0.2564;
-116.1000;0.1579;-0.2516;
-115.8000;0.1595;-0.2444;
-115.5000;0.1563;-0.2540;
-115.2000;0.1547;-0.2540;
-114.9000;0.1538;-0.2492;
-114.6000;0.1538;-0.2492;
-114.3000;0.1522;-0.2492;
-114.0000;0.1538;-0.2444;
-113.7000;0.1530;-0.2396;
-113.4000;0.1555;-0.2252;
-113.1000;0.1514;-0.2396;
-112.8000;0.1530;-0.2276;
-112.5000;0.1555;-0.2252;
-112.2000;0.1522;-0.2396;
-111.9000;0.1522;-0.2444;
-111.6000;0.1579;-0.2276;
-111.3000;0.1538;-0.2468;
-111.0000;0.1490;-0.2612;
-110.7000;0.1530;-0.2588;
-110.4000;0.1514;-0.2612;
-110.1000;0.1514;-0.2588;
-109.8000;0.1538;-0.2588;
-109.5000;0.1433;-0.2875;
-109.2000;0.1506;-0.2612;
-108.9000;0.1514;-0.2564;
-108.6000;0.1514;-0.2540;
-108.3000;0.1547;-0.2516;
-108.0000;0.1538;-0.2492;
-107.7000;0.1530;-0.2468;
-107.4000;0.1441;-0.2660;
-107.1000;0.1522;-0.2540;
-106.8000;0.1530;-0.2588;
-106.5000;0.1522;-0.2420;
-106.2000;0.1473;-0.2468;
-105.9000;0.1465;-0.2564;
-105.6000;0.1530;-0.2444;
-105.3000;0.1498;-0.2564;
-105.0000;0.1522;-0.2540;
-104.7000;0.1538;-0.2540;
-104.4000;0.1538;-0.2468;
-104.1000;0.1465;-0.2636;
-103.8000;0.1628;-0.2252;
-103.5000;0.1547;-0.2516;
-103.2000;0.1473;-0.2660;
-102.9000;0.1522;-0.2564;
-102.6000;0.1547;-0.2564;
-102.3000;0.1538;-0.2588;
-102.0000;0.1538;-0.2540;
-101.7000;0.1563;-0.2516;
-101.4000;0.1457;-0.2755;
-101.1000;0.1522;-0.2540;
-100.8000;0.1555;-0.2492;
-100.5000;0.1538;-0.2444;
-100.2000;0.1481;-0.2588;
-99.9000;0.1457;-0.2612;
-99.6000;0.1547;-0.2420;
-99.3000;0.1595;-0.2324;
-99.0000;0.1571;-0.2300;
-98.7000;0.1530;-0.2444;
-98.4000;0.1522;-0.2468;
-98.1000;0.1555;-0.2468;
-97.8000;0.1514;-0.2468;
-97.5000;0.1400;-0.2803;
-97.2000;0.1522;-0.2468;
-96.9000;0.1555;-0.2348;
-96.6000;0.1571;-0.2372;
-96.3000;0.1530;-0.2420;
-96.0000;0.1555;-0.2348;
-95.7000;0.1506;-0.2444;
-95.4000;0.1579;-0.2252;
-95.1000;0.1514;-0.2396;
-94.8000;0.1498;-0.2468;
-94.5000;0.1628;-0.2132;
-94.2000;0.1538;-0.2372;
-93.9000;0.1506;-0.2468;
-93.6000;0.1579;-0.2156;
-93.3000;0.1514;-0.2396;
-93.0000;0.1522;-0.2468;
-92.7000;0.1514;-0.2492;
-92.4000;0.1522;-0.2468;
-92.1000;0.1498;-0.2636;
-91.8000;0.1563;-0.2564;
-91.5000;0.1530;-0.2636;
-91.2000;0.1522;-0.2660;
-90.9000;0.1522;-0.2636;
-90.6000;0.1547;-0.2492;
-90.3000;0.1538;-0.2444;
-90.0000;0.1530;-0.2444;
-89.7000;0.1522;-0.2492;
-89.4000;0.1522;-0.2564;
-89.1000;0.1473;-0.2660;
-88.8000;0.1522;-0.2492;
-88.5000;0.1514;-0.2588;
-88.2000;0.1547;-0.2540;
-87.9000;0.1555;-0.2444;
-87.6000;0.1547;-0.2492;
-87.3000;0.1530;-0.2564;
-87.0000;0.1538;-0.2564;
-86.7000;0.1547;-0.2540;
-86.4000;0.1514;-0.2588;
-86.1000;0.1506;-0.2636;
-85.8000;0.1522;-0.2540;
-85.5000;0.1490;-0.2612;
-85.2000;0.1571;-0.2372;
-84.9000;0.1530;-0.2444;
-84.6000;0.1514;-0.2444;
-84.3000;0.1547;-0.2444;
-84.0000;0.1522;-0.2684;
-83.7000;0.1522;-0.2660;
-83.4000;0.1522;-0.2707;
-83.1000;0.1473;-0.2755;
-82.8000;0.1449;-0.2851;
-82.5000;0.1490;-0.2779;
-82.2000;0.1530;-0.2540;
-81.9000;0.1506;-0.2636;
-81.6000;0.1530;-0.2612;
-81.3000;0.1538;-0.2612;
-81.0000;0.1538;-0.2636;
-80.7000;0.1555;-0.2684;
-80.4000;0.1563;-0.2612;
-80.1000;0.1555;-0.2564;
-79.8000;0.1547;-0.2564;
-79.5000;0.1530;-0.2564;
-79.2000;0.1571;-0.2468;
-78.9000;0.1538;-0.2492;
-78.6000;0.1522;-0.2636;
-78.3000;0.1514;-0.2731;
-78.0000;0.1530;-0.2684;
-77.7000;0.1522;-0.2636;
-77.4000;0.1522;-0.2564;
-77.1000;0.1506;-0.2588;
-76.8000;0.1506;-0.2612;
-76.5000;0.1538;-0.2564;
-76.2000;0.1571;-0.2468;
-75.9000;0.1563;-0.2588;
-75.6000;0.1522;-0.2684;
-75.3000;0.1457;-0.2827;
-75.0000;0.1530;-0.2588;
-74.7000;0.1547;-0.2564;
-74.4000;0.1522;-0.2612;
-74.1000;0.1530;-0.2612;
-73.8000;0.1522;-0.2660;
-73.5000;0.1563;-0.2468;
-73.2000;0.1506;-0.2516;
-72.9000;0.1514;-0.2564;
-72.6000;0.1538;-0.2492;
-72.3000;0.1530;-0.2540;
-72.0000;0.1522;-0.2540;
-71.7000;0.1498;-0.2731;
-71.4000;0.1522;-0.2660;
-71.1000;0.1498;-0.2636;
-70.8000;0.1538;-0.2588;
-70.5000;0.1514;-0.2612;
-70.2000;0.1555;-0.2564;
-69.9000;0.1514;-0.2684;
-69.6000;0.1563;-0.2468;
-69.3000;0.1498;-0.2660;
-69.0000;0.1538;-0.2540;
-68.7000;0.1506;-0.2660;
-68.4000;0.1514;-0.2588;
-68.1000;0.1522;-0.2588;
-67.8000;0.1547;-0.2660;
-67.5000;0.1514;-0.2684;
-67.2000;0.1506;-0.2612;
-66.9000;0.1530;-0.2588;
-66.6000;0.1530;-0.2588;
-66.3000;0.1498;-0.2660;
-66.0000;0.1530;-0.2564;
-65.7000;0.1555;-0.2468;
-65.4000;0.1498;-0.2492;
-65.1000;0.1481;-0.2540;
-64.8000;0.1538;-0.2420;
-64.5000;0.1547;-0.2492;
-64.2000;0.1522;-0.2564;
-63.9000;0.1506;-0.2564;
-63.6000;0.1530;-0.2564;
-63.3000;0.1473;-0.2636;
-63.0000;0.1530;-0.2492;
-62.7000;0.1514;-0.2540;
-62.4000;0.1530;-0.2492;
-62.1000;0.1514;-0.2588;
-61.8000;0.1416;-0.2995;
-61.5000;0.1571;-0.2564;
-61.2000;0.1498;-0.2779;
-60.9000;0.1522;-0.2660;
-60.6000;0.1555;-0.2564;
-60.3000;0.1571;-0.2468;
-60.0000;0.1522;-0.2540;
-59.7000;0.1530;-0.2564;
-59.4000;0.1547;-0.2540;
-59.1000;0.1522;-0.2516;
-58.8000;0.1457;-0.2660;
-58.5000;0.1530;-0.2444;
-58.2000;0.1514;-0.2492;
-57.9000;0.1530;-0.2492;
-57.6000;0.1547;-0.2516;
-57.3000;0.1530;-0.2516;
-57.0000;0.1538;-0.2516;
-56.7000;0.1530;-0.2516;
-56.4000;0.1514;-0.2564;
-56.1000;0.1522;-0.2588;
-55.8000;0.1514;-0.2516;
-55.5000;0.1547;-0.2468;
-55.2000;0.1522;-0.2444;
-54.9000;0.1571;-0.2300;
-54.6000;0.1514;-0.2420;
-54.3000;0.1522;-0.2396;
-54.0000;0.1530;-0.2372;
-53.7000;0.1530;-0.2372;
-53.4000;0.1522;-0.2372;
-53.1000;0.1392;-0.2779;
-52.8000;0.1522;-0.2468;
-52.5000;0.1514;-0.2540;
-52.2000;0.1498;-0.2564;
-51.9000;0.1547;-0.2468;
-51.6000;0.1433;-0.2875;
-51.3000;0.1506;-0.2612;
-51.0000;0.1514;-0.2564;
-50.7000;0.1530;-0.2396;
-50.4000;0.1522;-0.2444;
-50.1000;0.1555;-0.2372;
-49.8000;0.1514;-0.2468;
-49.5000;0.1490;-0.2468;
-49.2000;0.1538;-0.2444;
-48.9000;0.1522;-0.2564;
-48.6000;0.1498;-0.2516;
-48.3000;0.1547;-0.2444;
-48.0000;0.1555;-0.2396;
-47.7000;0.1538;-0.2444;
-47.4000;0.1530;-0.2468;
-47.1000;0.1547;-0.2396;
-46.8000;0.1514;-0.2492;
-46.5000;0.1555;-0.2492;
-46.2000;0.1514;-0.2540;
-45.9000;0.1498;-0.2516;
-45.6000;0.1416;-0.2755;
-45.3000;0.1530;-0.2468;
-45.0000;0.1571;-0.2276;
-44.7000;0.1538;-0.2396;
-44.4000;0.1547;-0.2420;
-44.1000;0.1522;-0.2588;
-43.8000;0.1506;-0.2660;
-43.5000;0.1522;-0.2636;
-43.2000;0.1530;-0.2612;
-42.9000;0.1538;-0.2707;
-42.6000;0.1498;-0.2827;
-42.3000;0.1514;-0.2731;
-42.0000;0.1514;-0.2779;
-41.7000;0.1522;-0.2684;
-41.4000;0.1530;-0.2779;
-41.1000;0.1538;-0.2684;
-40.8000;0.1514;-0.2803;
-40.5000;0.1530;-0.2755;
-40.2000;0.1547;-0.2588;
-39.9000;0.1514;-0.2588;
-39.6000;0.1498;-0.2684;
-39.3000;0.1498;-0.2755;
-39.0000;0.1514;-0.2684;
-38.7000;0.1530;-0.2636;
-38.4000;0.1522;-0.2636;
-38.1000;0.1547;-0.2636;
-37.8000;0.1530;-0.2684;
-37.5000;0.1465;-0.2827;
-37.2000;0.1530;-0.2660;
-36.9000;0.1514;-0.2636;
-36.6000;0.1547;-0.2564;
-36.3000;0.1538;-0.2588;
-36.0000;0.1547;-0.2588;
-35.7000;0.1514;-0.2731;
-35.4000;0.1530;-0.2636;
-35.1000;0.1506;-0.2707;
-34.8000;0.1530;-0.2684;
-34.5000;0.1538;-0.2684;
-34.2000;0.1538;-0.2684;
-33.9000;0.1538;-0.2564;
-33.6000;0.1530;-0.2516;
-33.3000;0.1538;-0.2516;
-33.0000;0.1506;-0.2612;
-32.7000;0.1530;-0.2540;
-32.4000;0.1563;-0.2468;
-32.1000;0.1661;-0.2204;
-31.8000;0.1538;-0.2564;
-31.5000;0.1530;-0.2564;
-31.2000;0.1563;-0.2516;
-30.9000;0.1522;-0.2612;
-30.6000;0.1530;-0.2660;
-30.3000;0.1538;-0.2588;
-30.0000;0.1587;-0.2444;
-29.7000;0.1538;-0.2636;
-29.4000;0.1530;-0.2588;
-29.1000;0.1522;-0.2564;
-28.8000;0.1416;-0.2755;
-28.5000;0.1579;-0.2372;
-28.2000;0.1530;-0.2468;
-27.9000;0.1538;-0.2396;
-27.6000;0.1547;-0.2348;
-27.3000;0.1538;-0.2444;
-27.0000;0.1522;-0.2444;
-26.7000;0.1449;-0.2612;
-26.4000;0.1555;-0.2396;
-26.1000;0.1538;-0.2516;
-25.8000;0.1498;-0.2636;
-25.5000;0.1530;-0.2564;
-25.2000;0.1514;-0.2540;
-24.9000;0.1514;-0.2564;
-24.6000;0.1579;-0.2468;
-24.3000;0.1522;-0.2707;
-24.0000;0.1481;-0.2684;
-23.7000;0.1530;-0.2636;
-23.4000;0.1490;-0.2731;
-23.1000;0.1530;-0.2636;
-22.8000;0.1514;-0.2779;
-22.5000;0.1522;-0.2779;
-22.2000;0.1530;-0.2803;
-21.9000;0.1514;-0.2827;
-21.6000;0.1522;-0.2875;
-21.3000;0.1522;-0.2803;
-21.0000;0.1555;-0.2707;
-20.7000;0.1416;-0.3019;
-20.4000;0.1530;-0.2684;
-20.1000;0.1538;-0.2660;
-19.8000;0.1530;-0.2612;
-19.5000;0.1547;-0.2540;
-19.2000;0.1538;-0.2612;
-18.9000;0.1506;-0.2731;
-18.6000;0.1514;-0.2731;
-18.3000;0.1530;-0.2564;
-18.0000;0.1530;-0.2564;
-17.7000;0.1514;-0.2636;
-17.4000;0.1538;-0.2660;
-17.1000;0.1514;-0.2684;
-16.8000;0.1514;-0.2660;
-16.5000;0.1538;-0.2588;
-16.2000;0.1522;-0.2588;
-15.9000;0.1538;-0.2564;
-15.6000;0.1522;-0.2492;
-15.3000;0.1514;-0.2468;
-15.0000;0.1514;-0.2420;
-14.7000;0.1514;-0.2444;
-14.4000;0.1530;-0.2396;
-14.1000;0.1538;-0.2396;
-13.8000;0.1514;-0.2492;
-13.5000;0.1514;-0.2540;
-13.2000;0.1595;-0.2420;
-12.9000;0.1522;-0.2660;
-12.6000;0.1579;-0.2396;
-12.3000;0.1538;-0.2588;
-12.0000;0.1490;-0.2755;
-11.7000;0.1547;-0.2612;
-11.4000;0.1506;-0.2707;
-11.1000;0.1530;-0.2612;
-10.8000;0.1530;-0.2660;
-10.5000;0.1571;-0.2564;
-10.2000;0.1522;-0.2636;
-9.9000;0.1669;-0.2204;
-9.6000;0.1522;-0.2612;
-9.3000;0.1555;-0.2540;
-9.0000;0.1408;-0.2971;
-8.7000;0.1530;-0.2684;
-8.4000;0.1579;-0.2564;
-8.1000;0.1514;-0.2684;
-7.8000;0.1506;-0.2684;
-7.5000;0.1530;-0.2731;
-7.2000;0.1449;-0.2875;
-6.9000;0.1547;-0.2612;
-6.6000;0.1530;-0.2588;
-6.3000;0.1522;-0.2612;
-6.0000;0.1498;-0.2684;
-5.7000;0.1538;-0.2684;
-5.4000;0.1514;-0.2755;
-5.1000;0.1563;-0.2612;
-4.8000;0.1530;-0.2612;
-4.5000;0.1595;-0.2396;
-4.2000;0.1522;-0.2588;
-3.9000;0.1595;-0.2396;
-3.6000;0.1604;-0.2300;
-3.3000;0.1522;-0.2612;
-3.0000;0.1530;-0.2612;
-2.7000;0.1506;-0.2612;
-2.4000;0.1538;-0.2564;
-2.1000;0.1538;-0.2612;
-1.8000;0.1538;-0.2540;
-1.5000;0.1547;-0.2540;
-1.2000;0.1490;-0.2612;
-0.9000;0.1506;-0.2636;
-0.6000;0.1538;-0.2588;
-0.3000;0.1538;-0.2660;
0.0000;0.1538;-0.2660;
0.3000;0.1498;-0.3019;
0.6000;0.1530;-0.2707;
0.9000;0.1563;-0.2420;
1.2000;0.1563;-0.2180;
1.5000;0.1514;-0.2132;
1.8000;0.1555;-0.1845;
2.1000;0.1571;-0.1653;
2.4000;0.1595;-0.1462;
2.7000;0.1547;-0.1533;
3.0000;0.1693;-0.1006;
3.3000;0.1587;-0.1294;
3.6000;0.1563;-0.1222;
3.9000;0.1604;-0.1054;
4.2000;0.1579;-0.1030;
4.5000;0.1563;-0.0982;
4.8000;0.1587;-0.0958;
5.1000;0.1604;-0.0839;
5.4000;0.1587;-0.0863;
5.7000;0.1587;-0.0863;
6.0000;0.1587;-0.0863;
6.3000;0.1579;-0.0982;
6.6000;0.1604;-0.0934;
6.9000;0.1571;-0.0958;
7.2000;0.1587;-0.0887;
7.5000;0.1726;-0.0455;
7.8000;0.1587;-0.0863;
8.1000;0.1579;-0.0910;
8.4000;0.1587;-0.0958;
8.7000;0.1595;-0.0839;
9.0000;0.1571;-0.0863;
9.3000;0.1563;-0.0934;
9.6000;0.1587;-0.0910;
9.9000;0.1595;-0.0887;
10.2000;0.1595;-0.0863;
10.5000;0.1595;-0.0815;
10.8000;0.1587;-0.0767;
11.1000;0.1563;-0.0910;
11.4000;0.1620;-0.0767;
11.7000;0.1604;-0.0815;
12.0000;0.1547;-0.0958;
12.3000;0.1579;-0.0839;
12.6000;0.1604;-0.0791;
12.9000;0.1571;-0.0863;
13.2000;0.1571;-0.0815;
13.5000;0.1587;-0.0767;
13.8000;0.1587;-0.0815;
14.1000;0.1612;-0.0767;
14.4000;0.1612;-0.0839;
14.7000;0.1587;-0.0934;
15.0000;0.1514;-0.1198;
15.3000;0.1587;-0.0887;
15.6000;0.1595;-0.0887;
15.9000;0.1604;-0.0887;
16.2000;0.1538;-0.1102;
16.5000;0.1595;-0.0934;
16.8000;0.1661;-0.0767;
17.1000;0.1604;-0.0910;
17.4000;0.1587;-0.0934;
17.7000;0.1587;-0.0934;
18.0000;0.1530;-0.0958;
18.3000;0.1636;-0.0599;
18.6000;0.1595;-0.0719;
18.9000;0.1587;-0.0719;
19.2000;0.1604;-0.0623;
19.5000;0.1579;-0.0719;
19.8000;0.1579;-0.0743;
20.1000;0.1579;-0.0743;
20.4000;0.1587;-0.0719;
20.7000;0.1571;-0.0815;
21.0000;0.1595;-0.0743;
21.3000;0.1579;-0.0863;
21.6000;0.1587;-0.0839;
21.9000;0.1620;-0.0719;
22.2000;0.1571;-0.0863;
22.5000;0.1498;-0.1126;
22.8000;0.1587;-0.0815;
23.1000;0.1587;-0.0719;
23.4000;0.1718;-0.0407;
23.7000;0.1595;-0.0719;
24.0000;0.1604;-0.0695;
24.3000;0.1587;-0.0647;
24.6000;0.1465;-0.1030;
24.9000;0.1595;-0.0767;
25.2000;0.1571;-0.0839;
25.5000;0.1612;-0.0767;
25.8000;0.1579;-0.0815;
26.1000;0.1587;-0.0791;
26.4000;0.1604;-0.0791;
26.7000;0.1587;-0.0839;
27.0000;0.1595;-0.0815;
27.3000;0.1595;-0.0743;
27.6000;0.1587;-0.0791;
27.9000;0.1587;-0.0791;
28.2000;0.1547;-0.1030;
28.5000;0.1620;-0.0887;
28.8000;0.1522;-0.1150;
29.1000;0.1587;-0.0887;
29.4000;0.1595;-0.0791;
29.7000;0.1571;-0.0791;
30.0000;0.1563;-0.0839;
30.3000;0.1587;-0.0743;
30.6000;0.1620;-0.0671;
30.9000;0.1595;-0.0743;
31.2000;0.1579;-0.0791;
31.5000;0.1652;-0.0671;
31.8000;0.1595;-0.0719;
32.1000;0.1620;-0.0695;
32.4000;0.1620;-0.0719;
32.7000;0.1579;-0.0743;
33.0000;0.1595;-0.0695;
33.3000;0.1595;-0.0695;
33.6000;0.1587;-0.0887;
33.9000;0.1644;-0.0743;
34.2000;0.1579;-0.0910;
34.5000;0.1563;-0.0958;
34.8000;0.1579;-0.0887;
35.1000;0.1587;-0.0863;
35.4000;0.1571;-0.0982;
35.7000;0.1579;-0.0958;
36.0000;0.1604;-0.0863;
36.3000;0.1571;-0.0934;
36.6000;0.1579;-0.0839;
36.9000;0.1604;-0.0743;
37.2000;0.1579;-0.0863;
37.5000;0.1538;-0.1030;
37.8000;0.1595;-0.0815;
38.1000;0.1604;-0.0695;
38.4000;0.1587;-0.0695;
38.7000;0.1612;-0.0647;
39.0000;0.1563;-0.0863;
39.3000;0.1579;-0.0982;
39.6000;0.1579;-0.1078;
39.9000;0.1587;-0.1102;
40.2000;0.1587;-0.1198;
40.5000;0.1604;-0.1150;
40.8000;0.1571;-0.1222;
41.1000;0.1571;-0.1198;
41.4000;0.1587;-0.1198;
41.7000;0.1620;-0.1006;
42.0000;0.1685;-0.0934;
42.3000;0.1587;-0.1174;
42.6000;0.1604;-0.1078;
42.9000;0.1555;-0.1078;
43.2000;0.1595;-0.0982;
43.5000;0.1612;-0.0982;
43.8000;0.1595;-0.0982;
44.1000;0.1604;-0.1054;
44.4000;0.1612;-0.1054;
44.7000;0.1595;-0.1102;
45.0000;0.1604;-0.1150;
45.3000;0.1595;-0.1102;
45.6000;0.1563;-0.1126;
45.9000;0.1579;-0.1102;
46.2000;0.1604;-0.1006;
46.5000;0.1587;-0.0958;
46.8000;0.1587;-0.0910;
47.1000;0.1604;-0.0839;
47.4000;0.1547;-0.0958;
47.7000;0.1587;-0.0839;
48.0000;0.1587;-0.0910;
48.3000;0.1604;-0.0839;
48.6000;0.1587;-0.0910;
48.9000;0.1628;-0.0958;
49.2000;0.1595;-0.1006;
49.5000;0.1628;-0.0982;
49.8000;0.1587;-0.1126;
50.1000;0.1595;-0.1078;
50.4000;0.1595;-0.1054;
50.7000;0.1604;-0.1006;
51.0000;0.1677;-0.0767;
51.3000;0.1587;-0.0982;
51.6000;0.1595;-0.1030;
51.9000;0.1595;-0.1030;
52.2000;0.1563;-0.1102;
52.5000;0.1587;-0.1054;
52.8000;0.1579;-0.1126;
53.1000;0.1579;-0.1078;
53.4000;0.1555;-0.1126;
53.7000;0.1587;-0.1054;
54.0000;0.1579;-0.1078;
54.3000;0.1571;-0.1078;
54.6000;0.1628;-0.0958;
54.9000;0.1579;-0.1078;
55.2000;0.1644;-0.0958;
55.5000;0.1604;-0.1102;
55.8000;0.1587;-0.1102;
56.1000;0.1530;-0.1318;
56.4000;0.1595;-0.1126;
56.7000;0.1595;-0.1126;
57.0000;0.1595;-0.1102;
57.3000;0.1579;-0.1150;
57.6000;0.1612;-0.1054;
57.9000;0.1522;-0.1198;
58.2000;0.1579;-0.1030;
58.5000;0.1587;-0.0958;
58.8000;0.1563;-0.1006;
59.1000;0.1677;-0.0695;
59.4000;0.1392;-0.1438;
59.7000;0.1579;-0.0958;
60.0000;0.1636;-0.0743;
60.3000;0.1579;-0.0815;
60.6000;0.1595;-0.0791;
60.9000;0.1498;-0.1102;
61.2000;0.1595;-0.0839;
61.5000;0.1571;-0.0839;
61.8000;0.1587;-0.0910;
62.1000;0.1555;-0.0982;
62.4000;0.1595;-0.0910;
62.7000;0.1579;-0.0863;
63.0000;0.1490;-0.1078;
63.3000;0.1652;-0.0695;
63.6000;0.1506;-0.1054;
63.9000;0.1587;-0.0815;
64.2000;0.1587;-0.0958;
64.5000;0.1604;-0.0958;
64.8000;0.1587;-0.0934;
65.1000;0.1595;-0.0887;
65.4000;0.1538;-0.1030;
65.7000;0.1661;-0.0647;
66.0000;0.1579;-0.0815;
66.3000;0.1612;-0.0767;
66.6000;0.1620;-0.0863;
66.9000;0.1579;-0.1006;
67.2000;0.1555;-0.1102;
67.5000;0.1522;-0.1174;
67.8000;0.1595;-0.1054;
68.1000;0.1587;-0.0982;
68.4000;0.1620;-0.0791;
68.7000;0.1571;-0.0863;
69.0000;0.1587;-0.0791;
69.3000;0.1595;-0.0815;
69.6000;0.1595;-0.0767;
69.9000;0.1571;-0.0815;
70.2000;0.1595;-0.0815;
70.5000;0.1473;-0.1054;
70.8000;0.1587;-0.0815;
71.1000;0.1571;-0.0863;
71.4000;0.1571;-0.0887;
71.7000;0.1604;-0.0958;
72.0000;0.1579;-0.0958;
72.3000;0.1587;-0.0934;
72.6000;0.1506;-0.1174;
72.9000;0.1604;-0.1006;
73.2000;0.1604;-0.0958;
73.5000;0.1555;-0.1006;
73.8000;0.1579;-0.0910;
74.1000;0.1587;-0.0934;
74.4000;0.1587;-0.0910;
74.7000;0.1571;-0.0982;
75.0000;0.1595;-0.0887;
75.3000;0.1604;-0.0815;
75.6000;0.1620;-0.0815;
75.9000;0.1661;-0.0599;
76.2000;0.1595;-0.0719;
76.5000;0.1628;-0.0599;
76.8000;0.1620;-0.0671;
77.1000;0.1604;-0.0767;
77.4000;0.1604;-0.0767;
77.7000;0.1571;-0.0863;
78.0000;0.1604;-0.0887;
78.3000;0.1579;-0.0839;
78.6000;0.1587;-0.0767;
78.9000;0.1571;-0.0839;
79.2000;0.1644;-0.0647;
79.5000;0.1506;-0.1006;
79.8000;0.1604;-0.0623;
80.1000;0.1538;-0.0767;
80.4000;0.1571;-0.0647;
80.7000;0.1530;-0.0839;
81.0000;0.1595;-0.0671;
81.3000;0.1538;-0.0863;
81.6000;0.1563;-0.0863;
81.9000;0.1571;-0.0815;
82.2000;0.1595;-0.0767;
82.5000;0.1571;-0.0910;
82.8000;0.1571;-0.0910;
83.1000;0.1595;-0.0839;
83.4000;0.1595;-0.0887;
83.7000;0.1595;-0.0982;
84.0000;0.1571;-0.1006;
84.3000;0.1587;-0.0958;
84.6000;0.1693;-0.0695;
84.9000;0.1604;-0.1006;
85.2000;0.1595;-0.1006;
85.5000;0.1595;-0.0982;
85.8000;0.1563;-0.1030;
86.1000;0.1587;-0.0958;
86.4000;0.1579;-0.1030;
86.7000;0.1473;-0.1246;
87.0000;0.1547;-0.1054;
87.3000;0.1506;-0.1150;
87.6000;0.1449;-0.1270;
87.9000;0.1563;-0.1006;
88.2000;0.1620;-0.0815;
88.5000;0.1620;-0.0791;
88.8000;0.1587;-0.0887;
89.1000;0.1595;-0.1006;
89.4000;0.1612;-0.0910;
89.7000;0.1571;-0.0982;
90.0000;0.1563;-0.1006;
90.3000;0.1636;-0.0815;
90.6000;0.1595;-0.0887;
90.9000;0.1595;-0.0887;
91.2000;0.1538;-0.1054;
91.5000;0.1571;-0.0910;
91.8000;0.1595;-0.0863;
92.1000;0.1595;-0.0910;
92.4000;0.1620;-0.0815;
92.7000;0.1604;-0.0958;
93.0000;0.1587;-0.0958;
93.3000;0.1587;-0.1030;
93.6000;0.1563;-0.1030;
93.9000;0.1547;-0.1078;
94.2000;0.1571;-0.0934;
94.5000;0.1571;-0.0958;
94.8000;0.1587;-0.0958;
95.1000;0.1547;-0.1078;
95.4000;0.1563;-0.0910;
95.7000;0.1579;-0.0839;
96.0000;0.1620;-0.0815;
96.3000;0.1595;-0.0958;
96.6000;0.1579;-0.1054;
96.9000;0.1571;-0.1006;
97.2000;0.1595;-0.0887;
97.5000;0.1636;-0.0839;
97.8000;0.1685;-0.0671;
98.1000;0.1579;-0.0910;
98.4000;0.1563;-0.0982;
98.7000;0.1571;-0.1006;
99.0000;0.1595;-0.0982;
99.3000;0.1563;-0.1078;
99.6000;0.1587;-0.0982;
99.9000;0.1571;-0.1078;
100.2000;0.1595;-0.1054;
100.5000;0.1742;-0.0575;
100.8000;0.1547;-0.1102;
101.1000;0.1587;-0.0934;
101.4000;0.1612;-0.0815;
101.7000;0.1579;-0.0863;
102.0000;0.1587;-0.0791;
102.3000;0.1595;-0.0839;
102.6000;0.1587;-0.0863;
102.9000;0.1709;-0.0503;
103.2000;0.1620;-0.0815;
103.5000;0.1595;-0.0839;
103.8000;0.1571;-0.0863;
104.1000;0.1579;-0.0839;
104.4000;0.1620;-0.0743;
104.7000;0.1555;-0.0863;
105.0000;0.1587;-0.0647;
105.3000;0.1579;-0.0623;
105.6000;0.1587;-0.0599;
105.9000;0.1628;-0.0551;
106.2000;0.1547;-0.0791;
106.5000;0.1604;-0.0767;
106.8000;0.1555;-0.0910;
107.1000;0.1595;-0.0743;
107.4000;0.1555;-0.0863;
107.7000;0.1579;-0.0791;
108.0000;0.1595;-0.0743;
108.3000;0.1587;-0.0839;
108.6000;0.1652;-0.0623;
108.9000;0.1595;-0.0719;
109.2000;0.1587;-0.0695;
109.5000;0.1612;-0.0671;
109.8000;0.1595;-0.0743;
110.1000;0.1587;-0.0743;
110.4000;0.1595;-0.0767;
110.7000;0.1644;-0.0623;
111.0000;0.1595;-0.0815;
111.3000;0.1579;-0.0815;
111.6000;0.1636;-0.0647;
111.9000;0.1595;-0.0815;
112.2000;0.1612;-0.0839;
112.5000;0.1571;-0.0887;
112.8000;0.1587;-0.0934;
113.1000;0.1612;-0.0910;
113.4000;0.1595;-0.1006;
113.7000;0.1604;-0.0982;
114.0000;0.1563;-0.0982;
114.3000;0.1595;-0.0887;
114.6000;0.1579;-0.0958;
114.9000;0.1595;-0.0863;
115.2000;0.1587;-0.0910;
115.5000;0.1538;-0.1174;
115.8000;0.1579;-0.1078;
116.1000;0.1612;-0.0982;
116.4000;0.1587;-0.1054;
116.7000;0.1579;-0.1078;
117.0000;0.1579;-0.1054;
117.3000;0.1571;-0.1174;
117.6000;0.1587;-0.1174;
117.9000;0.1555;-0.1174;
118.2000;0.1579;-0.1078;
118.5000;0.1595;-0.1006;
118.8000;0.1595;-0.0934;
119.1000;0.1612;-0.0934;
119.4000;0.1595;-0.0815;
119.7000;0.1571;-0.0958;
120.0000;0.1579;-0.0887;
120.3000;0.1571;-0.0887;
120.6000;0.1604;-0.0815;
120.9000;0.1595;-0.0767;
121.2000;0.1587;-0.0743;
121.5000;0.1563;-0.0791;
121.8000;0.1595;-0.0695;
122.1000;0.1587;-0.0719;
122.4000;0.1595;-0.0767;
122.7000;0.1612;-0.0695;
123.0000;0.1587;-0.0695;
123.3000;0.1563;-0.0743;
123.6000;0.1538;-0.0791;
123.9000;0.1587;-0.0647;
124.2000;0.1571;-0.0719;
124.5000;0.1612;-0.0671;
124.8000;0.1595;-0.0695;
125.1000;0.1579;-0.0671;
125.4000;0.1547;-0.0839;
125.7000;0.1612;-0.0695;
126.0000;0.1579;-0.0887;
126.3000;0.1579;-0.0887;
126.6000;0.1498;-0.1030;
126.9000;0.1604;-0.0910;
127.2000;0.1604;-0.0887;
127.5000;0.1571;-0.0910;
127.8000;0.1595;-0.0887;
128.1000;0.1636;-0.0815;
128.4000;0.1587;-0.0863;
128.7000;0.1587;-0.0863;
129.0000;0.1571;-0.0863;
129.3000;0.1587;-0.0887;
129.6000;0.1579;-0.0910;
129.9000;0.1579;-0.0887;
130.2000;0.1563;-0.0910;
130.5000;0.1579;-0.0910;
130.8000;0.1612;-0.0791;
131.1000;0.1595;-0.0791;
131.4000;0.1579;-0.0839;
131.7000;0.1587;-0.0839;
132.0000;0.1595;-0.0743;
132.3000;0.1579;-0.0719;
132.6000;0.1579;-0.0695;
132.9000;0.1579;-0.0767;
133.2000;0.1587;-0.0719;
133.5000;0.1595;-0.0743;
133.8000;0.1571;-0.0767;
134.1000;0.1571;-0.0791;
134.4000;0.1563;-0.0815;
134.7000;0.1628;-0.0719;
135.0000;0.1587;-0.0791;
135.3000;0.1522;-0.0910;
135.6000;0.1604;-0.0719;
135.9000;0.1587;-0.0767;
136.2000;0.1604;-0.0743;
136.5000;0.1604;-0.0647;
136.8000;0.1563;-0.0743;
137.1000;0.1587;-0.0719;
137.4000;0.1595;-0.0719;
137.7000;0.1628;-0.0695;
138.0000;0.1579;-0.0815;
138.3000;0.1571;-0.0887;
138.6000;0.1595;-0.0863;
138.9000;0.1595;-0.0839;
139.2000;0.1587;-0.0791;
139.5000;0.1652;-0.0623;
139.8000;0.1571;-0.0863;
140.1000;0.1587;-0.0719;
140.4000;0.1587;-0.0671;
140.7000;0.1595;-0.0743;
141.0000;0.1604;-0.0767;
141.3000;0.1579;-0.0910;
141.6000;0.1636;-0.0791;
141.9000;0.1587;-0.0934;
142.2000;0.1555;-0.1006;
142.5000;0.1587;-0.0982;
142.8000;0.1579;-0.1030;
143.1000;0.1571;-0.1054;
143.4000;0.1579;-0.0982;
143.7000;0.1555;-0.1054;
144.0000;0.1587;-0.0958;
144.3000;0.1587;-0.0958;
144.6000;0.1644;-0.0815;
144.9000;0.1563;-0.1030;
145.2000;0.1579;-0.1006;
145.5000;0.1595;-0.0863;
145.8000;0.1587;-0.0815;
146.1000;0.1595;-0.0743;
146.4000;0.1571;-0.0695;
146.7000;0.1628;-0.0647;
147.0000;0.1563;-0.0815;
147.3000;0.1555;-0.0767;
147.6000;0.1490;-0.1006;
147.9000;0.1587;-0.0743;
148.2000;0.1628;-0.0647;
148.5000;0.1595;-0.0695;
148.8000;0.1587;-0.0719;
149.1000;0.1530;-0.0958;
149.4000;0.1571;-0.0863;
149.7000;0.1620;-0.0815;
150.0000;0.1571;-0.0934;
150.3000;0.1693;-0.0647;
150.6000;0.1612;-0.0839;
150.9000;0.1636;-0.0910;
151.2000;0.1538;-0.1126;
151.5000;0.1579;-0.1006;
151.8000;0.1595;-0.0910;
152.1000;0.1579;-0.0887;
152.4000;0.1587;-0.0934;
152.7000;0.1595;-0.0982;
153.0000;0.1579;-0.1006;
153.3000;0.1612;-0.0839;
153.6000;0.1612;-0.0791;
153.9000;0.1604;-0.0767;
154.2000;0.1579;-0.0815;
154.5000;0.1587;-0.0839;
154.8000;0.1571;-0.0887;
155.1000;0.1579;-0.0863;
155.4000;0.1579;-0.0791;
155.7000;0.1587;-0.0695;
156.0000;0.1563;-0.0647;
156.3000;0.1587;-0.0599;
156.6000;0.1587;-0.0551;
156.9000;0.1587;-0.0623;
157.2000;0.1587;-0.0647;
157.5000;0.1579;-0.0671;
157.8000;0.1595;-0.0671;
158.1000;0.1587;-0.0719;
158.4000;0.1563;-0.0719;
158.7000;0.1595;-0.0623;
159.0000;0.1579;-0.0599;
159.3000;0.1538;-0.0743;
159.6000;0.1579;-0.0599;
159.9000;0.1587;-0.0599;
160.2000;0.1555;-0.0647;
160.5000;0.1595;-0.0623;
160.8000;0.1604;-0.0623;
161.1000;0.1604;-0.0671;
161.4000;0.1587;-0.0695;
161.7000;0.1571;-0.0767;
162.0000;0.1595;-0.0671;
162.3000;0.1579;-0.0791;
162.6000;0.1644;-0.0743;
162.9000;0.1579;-0.0958;
163.2000;0.1604;-0.0958;
163.5000;0.1620;-0.0958;
163.8000;0.1563;-0.1102;
164.1000;0.1579;-0.1030;
164.4000;0.1473;-0.1198;
164.7000;0.1587;-0.0839;
165.0000;0.1579;-0.0863;
165.3000;0.1571;-0.0815;
165.6000;0.1579;-0.0791;
165.9000;0.1579;-0.0863;
166.2000;0.1595;-0.0767;
166.5000;0.1579;-0.0863;
166.8000;0.1620;-0.0743;
167.1000;0.1661;-0.0647;
167.4000;0.1595;-0.0839;
167.7000;0.1595;-0.0863;
168.0000;0.1595;-0.0863;
168.3000;0.1587;-0.0887;
168.6000;0.1587;-0.0863;
168.9000;0.1579;-0.0934;
169.2000;0.1571;-0.0887;
169.5000;0.1661;-0.0671;
169.8000;0.1587;-0.0791;
170.1000;0.1587;-0.0767;
170.4000;0.1481;-0.1078;
170.7000;0.1571;-0.0767;
171.0000;0.1571;-0.0791;
171.3000;0.1587;-0.0791;
171.6000;0.1579;-0.0815;
171.9000;0.1571;-0.0791;
172.2000;0.1604;-0.0719;
172.5000;0.1563;-0.0934;
172.8000;0.1587;-0.0863;
173.1000;0.1563;-0.0934;
173.4000;0.1571;-0.0910;
173.7000;0.1587;-0.0910;
174.0000;0.1506;-0.1078;
174.3000;0.1587;-0.0839;
174.6000;0.1587;-0.0839;
174.9000;0.1579;-0.0815;
175.2000;0.1506;-0.1102;
175.5000;0.1571;-0.0863;
175.8000;0.1547;-0.0910;
176.1000;0.1595;-0.0839;
176.4000;0.1595;-0.0815;
176.7000;0.1595;-0.0839;
177.0000;0.1555;-0.0815;
177.3000;0.1563;-0.0863;
177.6000;0.1587;-0.0719;
177.9000;0.1620;-0.0623;
178.2000;0.1579;-0.0743;
178.5000;0.1587;-0.0767;
178.8000;0.1587;-0.0863;
179.1000;0.1547;-0.0934;
179.4000;0.1579;-0.0815;
179.7000;0.1571;-0.0863;
180.0000;0.1538;-0.0887;
180.3000;0.1587;-0.0767;
180.6000;0.1595;-0.0767;
180.9000;0.1579;-0.0767;
181.2000;0.1563;-0.0839;
181.5000;0.1571;-0.0791;
181.8000;0.1579;-0.0791;
182.1000;0.1579;-0.0863;
182.4000;0.1538;-0.0791;
182.7000;0.1571;-0.0695;
183.0000;0.1595;-0.0671;
183.3000;0.1595;-0.0599;
183.6000;0.1612;-0.0503;
183.9000;0.1587;-0.0599;
184.2000;0.1563;-0.0719;
184.5000;0.1547;-0.0767;
184.8000;0.1595;-0.0695;
185.1000;0.1587;-0.0743;
185.4000;0.1579;-0.0815;
185.7000;0.1538;-0.0958;
186.0000;0.1579;-0.0839;
186.3000;0.1547;-0.0839;
186.6000;0.1571;-0.0743;
186.9000;0.1571;-0.0743;
187.2000;0.1571;-0.0767;
187.5000;0.1579;-0.0767;
187.8000;0.1595;-0.0671;
188.1000;0.1587;-0.0719;
188.4000;0.1571;-0.0839;
188.7000;0.1595;-0.0791;
189.0000;0.1693;-0.0575;
189.3000;0.1555;-0.0815;
189.6000;0.1579;-0.0695;
189.9000;0.1579;-0.0791;
190.2000;0.1595;-0.0719;
190.5000;0.1563;-0.0743;
190.8000;0.1579;-0.0839;
191.1000;0.1579;-0.0863;
191.4000;0.1587;-0.0815;
191.7000;0.1604;-0.0743;
192.0000;0.1579;-0.0815;
192.3000;0.1587;-0.0743;
192.6000;0.1620;-0.0719;
192.9000;0.1595;-0.0839;
193.2000;0.1587;-0.0887;
193.5000;0.1490;-0.1126;
193.8000;0.1571;-0.0887;
194.1000;0.1571;-0.0863;
194.4000;0.1571;-0.0863;
194.7000;0.1579;-0.0887;
195.0000;0.1587;-0.0791;
195.3000;0.1579;-0.0791;
195.6000;0.1571;-0.0743;
195.9000;0.1579;-0.0815;
196.2000;0.1628;-0.0647;
196.5000;0.1579;-0.0815;
196.8000;0.1530;-0.0958;
197.1000;0.1587;-0.0767;
197.4000;0.1579;-0.0767;
197.7000;0.1587;-0.0695;
198.0000;0.1538;-0.0791;
198.3000;0.1620;-0.0599;
198.6000;0.1604;-0.0695;
198.9000;0.1587;-0.0743;
199.2000;0.1538;-0.0839;
199.5000;0.1579;-0.0647;
199.8000;0.1579;-0.0599;
200.1000;0.1555;-0.0743;
200.4000;0.1579;-0.0791;
200.7000;0.1587;-0.0695;
201.0000;0.1579;-0.0719;
201.3000;0.1587;-0.0695;
201.6000;0.1587;-0.0791;
201.9000;0.1514;-0.1030;
202.2000;0.1587;-0.0791;
202.5000;0.1579;-0.0743;
202.8000;0.1563;-0.0791;
203.1000;0.1595;-0.0791;
203.4000;0.1595;-0.0767;
203.7000;0.1604;-0.0815;
204.0000;0.1571;-0.0910;
204.3000;0.1571;-0.0982;
204.6000;0.1579;-0.0958;
204.9000;0.1620;-0.0719;
205.2000;0.1587;-0.0863;
205.5000;0.1644;-0.0695;
205.8000;0.1595;-0.0791;
206.1000;0.1571;-0.0887;
206.4000;0.1595;-0.0982;
206.7000;0.1571;-0.0982;
207.0000;0.1628;-0.0958;
207.3000;0.1644;-0.0982;
207.6000;0.1579;-0.1102;
207.9000;0.1571;-0.0982;
208.2000;0.1604;-0.0839;
208.5000;0.1587;-0.0839;
208.8000;0.1587;-0.0863;
209.1000;0.1555;-0.0863;
209.4000;0.1571;-0.0815;
209.7000;0.1587;-0.0839;
210.0000;0.1595;-0.0791;
210.3000;0.1604;-0.0767;
210.6000;0.1506;-0.1054;
210.9000;0.1563;-0.0982;
211.2000;0.1571;-0.0934;
211.5000;0.1514;-0.1078;
211.8000;0.1571;-0.0863;
212.1000;0.1587;-0.0887;
212.4000;0.1579;-0.0815;
212.7000;0.1530;-0.0863;
213.0000;0.1595;-0.0767;
213.3000;0.1563;-0.0863;
213.6000;0.1726;-0.0455;
213.9000;0.1587;-0.0791;
214.2000;0.1579;-0.0791;
214.5000;0.1587;-0.0695;
214.8000;0.1579;-0.0743;
215.1000;0.1579;-0.0767;
215.4000;0.1579;-0.0743;
215.7000;0.1595;-0.0599;
216.0000;0.1595;-0.0623;
216.3000;0.1612;-0.0551;
216.6000;0.1595;-0.0671;
216.9000;0.1563;-0.0719;
217.2000;0.1563;-0.0743;
217.5000;0.1587;-0.0695;
217.8000;0.1547;-0.0910;
218.1000;0.1595;-0.0695;
218.4000;0.1595;-0.0599;
218.7000;0.1465;-0.0863;
219.0000;0.1604;-0.0599;
219.3000;0.1563;-0.0767;
219.6000;0.1579;-0.0719;
219.9000;0.1677;-0.0455;
220.2000;0.1661;-0.0479;
220.5000;0.1547;-0.0791;
220.8000;0.1644;-0.0551;
221.1000;0.1571;-0.0743;
221.4000;0.1579;-0.0671;
221.7000;0.1579;-0.0623;
222.0000;0.1563;-0.0671;
222.3000;0.1579;-0.0599;
222.6000;0.1579;-0.0527;
222.9000;0.1595;-0.0527;
223.2000;0.1579;-0.0575;
223.5000;0.1555;-0.0647;
223.8000;0.1579;-0.0647;
224.1000;0.1604;-0.0575;
224.4000;0.1563;-0.0719;
224.7000;0.1579;-0.0743;
225.0000;0.1563;-0.0743;
225.3000;0.1587;-0.0695;
225.6000;0.1571;-0.0767;
225.9000;0.1563;-0.0887;
226.2000;0.1555;-0.0934;
226.5000;0.1587;-0.0863;
226.8000;0.1563;-0.0910;
227.1000;0.1595;-0.0863;
227.4000;0.1587;-0.0815;
227.7000;0.1612;-0.0743;
228.0000;0.1587;-0.0815;
228.3000;0.1571;-0.0839;
228.6000;0.1579;-0.0863;
228.9000;0.1604;-0.0815;
229.2000;0.1595;-0.0815;
229.5000;0.1587;-0.0719;
229.8000;0.1563;-0.0767;
230.1000;0.1571;-0.0791;
230.4000;0.1522;-0.0910;
230.7000;0.1579;-0.0767;
231.0000;0.1595;-0.0767;
231.3000;0.1587;-0.0791;
231.6000;0.1571;-0.0887;
231.9000;0.1604;-0.0743;
232.2000;0.1587;-0.0815;
232.5000;0.1595;-0.0839;
232.8000;0.1579;-0.0839;
233.1000;0.1595;-0.0839;
233.4000;0.1571;-0.0839;
233.7000;0.1579;-0.0863;
234.0000;0.1652;-0.0575;
234.3000;0.1571;-0.0719;
234.6000;0.1579;-0.0743;
234.9000;0.1563;-0.0695;
235.2000;0.1587;-0.0671;
235.5000;0.1555;-0.0791;
235.8000;0.1587;-0.0767;
236.1000;0.1587;-0.0839;
236.4000;0.1628;-0.0743;
236.7000;0.1579;-0.0887;
237.0000;0.1595;-0.0839;
237.3000;0.1652;-0.0671;
237.6000;0.1587;-0.0863;
237.9000;0.1563;-0.0934;
238.2000;0.1571;-0.1030;
238.5000;0.1604;-0.1030;
238.8000;0.1579;-0.0958;
239.1000;0.1587;-0.0934;
239.4000;0.1555;-0.0910;
239.7000;0.1587;-0.0863;
240.0000;0.1579;-0.0863;
240.3000;0.1587;-0.0719;
240.6000;0.1595;-0.0647;
240.9000;0.1547;-0.0791;
241.2000;0.1579;-0.0647;
241.5000;0.1587;-0.0743;
241.8000;0.1587;-0.0743;
242.1000;0.1579;-0.0743;
242.4000;0.1514;-0.0934;
242.7000;0.1587;-0.0719;
243.0000;0.1587;-0.0767;
243.3000;0.1579;-0.0743;
243.6000;0.1636;-0.0623;
243.9000;0.1604;-0.0743;
244.2000;0.1587;-0.0767;
244.5000;0.1571;-0.0743;
244.8000;0.1522;-0.0863;
245.1000;0.1563;-0.0791;
245.4000;0.1563;-0.0743;
245.7000;0.1547;-0.0791;
246.0000;0.1571;-0.0671;
246.3000;0.1587;-0.0647;
246.6000;0.1595;-0.0647;
246.9000;0.1555;-0.0719;
247.2000;0.1579;-0.0599;
247.5000;0.1571;-0.0623;
247.8000;0.1571;-0.0623;
248.1000;0.1587;-0.0647;
248.4000;0.1604;-0.0575;
248.7000;0.1547;-0.0743;
249.0000;0.1563;-0.0743;
249.3000;0.1571;-0.0671;
249.6000;0.1595;-0.0671;
249.9000;0.1587;-0.0647;
250.2000;0.1555;-0.0695;
250.5000;0.1587;-0.0575;
250.8000;0.1579;-0.0599;
251.1000;0.1571;-0.0599;
251.4000;0.1555;-0.0671;
251.7000;0.1604;-0.0503;
252.0000;0.1587;-0.0599;
252.3000;0.1587;-0.0599;
252.6000;0.1563;-0.0647;
252.9000;0.1595;-0.0599;
253.2000;0.1587;-0.0647;
253.5000;0.1709;-0.0335;
253.8000;0.1587;-0.0671;
254.1000;0.1571;-0.0647;
254.4000;0.1587;-0.0695;
254.7000;0.1563;-0.0719;
255.0000;0.1587;-0.0671;
255.3000;0.1612;-0.0503;
255.6000;0.1555;-0.0719;
255.9000;0.1571;-0.0719;
256.2000;0.1563;-0.0671;
256.5000;0.1563;-0.0671;
256.8000;0.1604;-0.0623;
257.1000;0.1547;-0.0743;
257.4000;0.1587;-0.0647;
257.7000;0.1571;-0.0647;
258.0000;0.1579;-0.0527;
258.3000;0.1587;-0.0527;
258.6000;0.1620;-0.0479;
258.9000;0.1612;-0.0527;
259.2000;0.1579;-0.0623;
259.5000;0.1628;-0.0551;
259.8000;0.1587;-0.0647;
260.1000;0.1587;-0.0623;
260.4000;0.1571;-0.0671;
260.7000;0.1579;-0.0623;
261.0000;0.1579;-0.0623;
261.3000;0.1579;-0.0551;
261.6000;0.1425;-0.0934;
261.9000;0.1571;-0.0527;
262.2000;0.1595;-0.0527;
262.5000;0.1563;-0.0743;
262.8000;0.1571;-0.0791;
263.1000;0.1571;-0.0863;
263.4000;0.1547;-0.0887;
263.7000;0.1595;-0.0767;
264.0000;0.1587;-0.0815;
264.3000;0.1571;-0.0863;
264.6000;0.1587;-0.0791;
264.9000;0.1579;-0.0743;
265.2000;0.1587;-0.0719;
265.5000;0.1563;-0.0887;
265.8000;0.1579;-0.0863;
266.1000;0.1571;-0.0910;
266.4000;0.1677;-0.0623;
266.7000;0.1506;-0.1102;
267.0000;0.1571;-0.0839;
267.3000;0.1571;-0.0887;
267.6000;0.1571;-0.0815;
267.9000;0.1587;-0.0863;
268.2000;0.1571;-0.0934;
268.5000;0.1587;-0.0887;
268.8000;0.1579;-0.0839;
269.1000;0.1604;-0.0791;
269.4000;0.1579;-0.0767;
269.7000;0.1571;-0.0839;
270.0000;0.1555;-0.0887;
270.3000;0.1579;-0.0791;
270.6000;0.1579;-0.0839;
270.9000;0.1571;-0.0863;
271.2000;0.1571;-0.0863;
271.5000;0.1579;-0.0910;
271.8000;0.1555;-0.0958;
272.1000;0.1571;-0.0958;
272.4000;0.1579;-0.0982;
272.7000;0.1563;-0.0958;
273.0000;0.1571;-0.1054;
273.3000;0.1620;-0.0910;
273.6000;0.1571;-0.1078;
273.9000;0.1587;-0.0982;
274.2000;0.1595;-0.1030;
274.5000;0.1587;-0.1150;
274.8000;0.1563;-0.1198;
275.1000;0.1579;-0.1126;
275.4000;0.1579;-0.1126;
275.7000;0.1587;-0.1078;
276.0000;0.1571;-0.1102;
276.3000;0.1571;-0.1222;
276.6000;0.1563;-0.1342;
276.9000;0.1595;-0.1294;
277.2000;0.1571;-0.1318;
277.5000;0.1433;-0.1581;
277.8000;0.1587;-0.1126;
278.1000;0.1579;-0.0982;
278.4000;0.1563;-0.1006;
278.7000;0.1555;-0.1126;
279.0000;0.1571;-0.1102;
279.3000;0.1595;-0.1078;
279.6000;0.1685;-0.0719;
279.9000;0.1579;-0.0958;
280.2000;0.1579;-0.0863;
280.5000;0.1628;-0.0719;
280.8000;0.1595;-0.0839;
281.1000;0.1579;-0.0887;
281.4000;0.1595;-0.0791;
281.7000;0.1563;-0.0863;
282.0000;0.1555;-0.0863;
282.3000;0.1579;-0.0839;
282.6000;0.1636;-0.0671;
282.9000;0.1595;-0.0767;
283.2000;0.1587;-0.0791;
283.5000;0.1628;-0.0695;
283.8000;0.1563;-0.0863;
284.1000;0.1587;-0.0910;
284.4000;0.1587;-0.0887;
284.7000;0.1579;-0.0887;
285.0000;0.1579;-0.0982;
285.3000;0.1612;-0.0958;
285.6000;0.1587;-0.0982;
285.9000;0.1604;-0.0910;
286.2000;0.1587;-0.0982;
286.5000;0.1595;-0.1054;
286.8000;0.1620;-0.1030;
287.1000;0.1571;-0.1030;
287.4000;0.1595;-0.1006;
287.7000;0.1481;-0.1294;
288.0000;0.1595;-0.0910;
288.3000;0.1563;-0.0982;
288.6000;0.1579;-0.0958;
288.9000;0.1563;-0.1006;
289.2000;0.1571;-0.1030;
289.5000;0.1604;-0.0982;
289.8000;0.1473;-0.1318;
290.1000;0.1547;-0.1126;
290.4000;0.1547;-0.1150;
290.7000;0.1555;-0.1102;
291.0000;0.1693;-0.0719;
291.3000;0.1587;-0.1078;
291.6000;0.1563;-0.1102;
291.9000;0.1530;-0.1150;
292.2000;0.1425;-0.1390;
292.5000;0.1587;-0.0887;
292.8000;0.1571;-0.0934;
293.1000;0.1571;-0.0910;
293.4000;0.1571;-0.0934;
293.7000;0.1563;-0.0958;
294.0000;0.1661;-0.0719;
294.3000;0.1563;-0.0958;
294.6000;0.1595;-0.0958;
294.9000;0.1530;-0.1126;
295.2000;0.1579;-0.1030;
295.5000;0.1587;-0.1030;
295.8000;0.1563;-0.1078;
296.1000;0.1587;-0.0982;
296.4000;0.1571;-0.0982;
296.7000;0.1571;-0.0863;
297.0000;0.1595;-0.0815;
297.3000;0.1587;-0.0815;
297.6000;0.1612;-0.0767;
297.9000;0.1612;-0.0743;
298.2000;0.1555;-0.0839;
298.5000;0.1604;-0.0767;
298.8000;0.1571;-0.0791;
299.1000;0.1563;-0.0815;
299.4000;0.1555;-0.0767;
299.7000;0.1595;-0.0551;
300.0000;0.1579;-0.0575;
300.3000;0.1604;-0.0599;
300.6000;0.1555;-0.0815;
300.9000;0.1571;-0.0719;
301.2000;0.1563;-0.0767;
301.5000;0.1693;-0.0455;
301.8000;0.1571;-0.0839;
302.1000;0.1652;-0.0695;
302.4000;0.1587;-0.0863;
302.7000;0.1587;-0.0839;
303.0000;0.1563;-0.0839;
303.3000;0.1563;-0.0887;
303.6000;0.1579;-0.0791;
303.9000;0.1571;-0.0767;
304.2000;0.1547;-0.0743;
304.5000;0.1595;-0.0671;
304.8000;0.1473;-0.0982;
305.1000;0.1587;-0.0767;
305.4000;0.1555;-0.0791;
305.7000;0.1563;-0.0743;
306.0000;0.1571;-0.0743;
306.3000;0.1604;-0.0671;
306.6000;0.1595;-0.0695;
306.9000;0.1538;-0.0815;
307.2000;0.1595;-0.0695;
307.5000;0.1595;-0.0695;
307.8000;0.1628;-0.0527;
308.1000;0.1587;-0.0623;
308.4000;0.1571;-0.0479;
308.7000;0.1579;-0.0431;
309.0000;0.1595;-0.0431;
309.3000;0.1563;-0.0551;
309.6000;0.1522;-0.0719;
309.9000;0.1579;-0.0527;
310.2000;0.1571;-0.0647;
310.5000;0.1587;-0.0575;
310.8000;0.1514;-0.0695;
311.1000;0.1579;-0.0527;
311.4000;0.1595;-0.0599;
311.7000;0.1506;-0.0887;
312.0000;0.1555;-0.0647;
312.3000;0.1587;-0.0575;
312.6000;0.1669;-0.0431;
312.9000;0.1579;-0.0575;
313.2000;0.1595;-0.0551;
313.5000;0.1555;-0.0623;
313.8000;0.1579;-0.0575;
314.1000;0.1555;-0.0647;
314.4000;0.1563;-0.0695;
314.7000;0.1579;-0.0647;
315.0000;0.1579;-0.0623;
315.3000;0.1563;-0.0671;
315.6000;0.1579;-0.0647;
315.9000;0.1563;-0.0671;
316.2000;0.1563;-0.0695;
316.5000;0.1555;-0.0719;
316.8000;0.1563;-0.0695;
317.1000;0.1555;-0.0695;
317.4000;0.1628;-0.0527;
317.7000;0.1669;-0.0383;
318.0000;0.1571;-0.0599;
318.3000;0.1571;-0.0647;
318.6000;0.1571;-0.0623;
318.9000;0.1579;-0.0599;
319.2000;0.1604;-0.0551;
319.5000;0.1587;-0.0647;
319.8000;0.1595;-0.0695;
320.1000;0.1530;-0.0743;
320.4000;0.1579;-0.0695;
320.7000;0.1587;-0.0623;
321.0000;0.1530;-0.0671;
321.3000;0.1579;-0.0599;
321.6000;0.1571;-0.0743;
321.9000;0.1587;-0.0671;
322.2000;0.1636;-0.0551;
322.5000;0.1587;-0.0719;
322.8000;0.1571;-0.0671;
323.1000;0.1514;-0.0863;
323.4000;0.1587;-0.0671;
323.7000;0.1571;-0.0815;
324.0000;0.1547;-0.0863;
324.3000;0.1579;-0.0743;
324.6000;0.1595;-0.0671;
324.9000;0.1555;-0.0767;
325.2000;0.1620;-0.0719;
325.5000;0.1571;-0.0863;
325.8000;0.1604;-0.0743;
326.1000;0.1571;-0.0767;
326.4000;0.1579;-0.0743;
326.7000;0.1620;-0.0647;
327.0000;0.1563;-0.0719;
327.3000;0.1604;-0.0647;
327.6000;0.1579;-0.0743;
327.9000;0.1595;-0.0815;
328.2000;0.1579;-0.0863;
328.5000;0.1579;-0.0791;
328.8000;0.1547;-0.0887;
329.1000;0.1587;-0.0839;
329.4000;0.1669;-0.0647;
329.7000;0.1579;-0.0958;
330.0000;0.1571;-0.0934;
330.3000;0.1571;-0.0934;
330.6000;0.1579;-0.0934;
330.9000;0.1555;-0.1006;
331.2000;0.1579;-0.1006;
331.5000;0.1579;-0.0934;
331.8000;0.1587;-0.0839;
332.1000;0.1587;-0.0910;
332.4000;0.1587;-0.0791;
332.7000;0.1538;-0.0934;
333.0000;0.1685;-0.0575;
333.3000;0.1595;-0.0791;
333.6000;0.1595;-0.0815;
333.9000;0.1579;-0.0863;
334.2000;0.1620;-0.0839;
334.5000;0.1490;-0.1150;
334.8000;0.1612;-0.0791;
335.1000;0.1571;-0.0887;
335.4000;0.1612;-0.0791;
335.7000;0.1522;-0.1030;
336.0000;0.1563;-0.0910;
336.3000;0.1555;-0.0982;
336.6000;0.1449;-0.1294;
336.9000;0.1514;-0.1102;
337.2000;0.1587;-0.0887;
337.5000;0.1587;-0.0934;
337.8000;0.1571;-0.0934;
338.1000;0.1579;-0.0910;
338.4000;0.1595;-0.0863;
338.7000;0.1595;-0.0815;
339.0000;0.1587;-0.0887;
339.3000;0.1563;-0.0887;
339.6000;0.1587;-0.0743;
339.9000;0.1587;-0.0767;
340.2000;0.1571;-0.0767;
340.5000;0.1538;-0.0743;
340.8000;0.1579;-0.0647;
341.1000;0.1595;-0.0575;
341.4000;0.1587;-0.0599;
341.7000;0.1563;-0.0671;
342.0000;0.1579;-0.0695;
342.3000;0.1587;-0.0695;
342.6000;0.1571;-0.0695;
342.9000;0.1579;-0.0695;
343.2000;0.1587;-0.0719;
343.5000;0.1587;-0.0719;
343.8000;0.1587;-0.0767;
344.1000;0.1595;-0.0791;
344.4000;0.1579;-0.0791;
344.7000;0.1555;-0.0791;
345.0000;0.1587;-0.0791;
345.3000;0.1612;-0.0815;
345.6000;0.1571;-0.0863;
345.9000;0.1571;-0.0815;
346.2000;0.1644;-0.0551;
346.5000;0.1579;-0.0815;
346.8000;0.1587;-0.0839;
347.1000;0.1612;-0.0767;
347.4000;0.1563;-0.0887;
347.7000;0.1571;-0.0791;
348.0000;0.1530;-0.0958;
348.3000;0.1579;-0.0815;
348.6000;0.1587;-0.0791;
348.9000;0.1571;-0.0767;
349.2000;0.1587;-0.0719;
349.5000;0.1579;-0.0671;
349.8000;0.1547;-0.0767;
350.1000;0.1571;-0.0695;
350.4000;0.1587;-0.0743;
350.7000;0.1587;-0.0695;
351.0000;0.1571;-0.0767;
351.3000;0.1579;-0.0767;
351.6000;0.1571;-0.0719;
351.9000;0.1579;-0.0791;
352.2000;0.1571;-0.0791;
352.5000;0.1555;-0.0743;
352.8000;0.1506;-0.0910;
353.1000;0.1579;-0.0743;
353.4000;0.1571;-0.0767;
353.7000;0.1587;-0.0791;
354.0000;0.1595;-0.0815;
354.3000;0.1571;-0.0839;
354.6000;0.1563;-0.0815;
354.9000;0.1587;-0.0719;
355.2000;0.1563;-0.0719;
355.5000;0.1595;-0.0599;
355.8000;0.1595;-0.0671;
356.1000;0.1571;-0.0695;
356.4000;0.1579;-0.0671;
356.7000;0.1620;-0.0623;
357.0000;0.1595;-0.0743;
357.3000;0.1579;-0.0815;
357.6000;0.1579;-0.0863;
357.9000;0.1579;-0.0791;
358.2000;0.1579;-0.0815;
358.5000;0.1571;-0.0815;
358.8000;0.1604;-0.0695;
359.1000;0.1579;-0.0695;
359.4000;0.1571;-0.0839;
359.7000;0.1587;-0.0839;
360.0000;0.1555;-0.0982;
360.3000;0.1587;-0.0887;
360.6000;0.1563;-0.0863;
360.9000;0.1595;-0.0743;
361.2000;0.1579;-0.0743;
361.5000;0.1604;-0.0743;
361.8000;0.1636;-0.0599;
362.1000;0.1587;-0.0791;
362.4000;0.1571;-0.0815;
362.7000;0.1579;-0.0767;
363.0000;0.1563;-0.0791;
363.3000;0.1587;-0.0767;
363.6000;0.1563;-0.0743;
363.9000;0.1571;-0.0695;
364.2000;0.1604;-0.0599;
364.5000;0.1579;-0.0695;
364.8000;0.1538;-0.0910;
365.1000;0.1571;-0.0815;
365.4000;0.1587;-0.0743;
365.7000;0.1571;-0.0839;
366.0000;0.1587;-0.0743;
366.3000;0.1579;-0.0791;
366.6000;0.1571;-0.0695;
366.9000;0.1587;-0.0575;
367.2000;0.1571;-0.0599;
367.5000;0.1571;-0.0623;
367.8000;0.1652;-0.0407;
368.1000;0.1579;-0.0599;
368.4000;0.1595;-0.0527;
368.7000;0.1563;-0.0695;
369.0000;0.1587;-0.0671;
369.3000;0.1563;-0.0743;
369.6000;0.1571;-0.0743;
369.9000;0.1563;-0.0815;
370.2000;0.1571;-0.0839;
370.5000;0.1661;-0.0599;
370.8000;0.1595;-0.0839;
371.1000;0.1579;-0.0887;
371.4000;0.1530;-0.1054;
371.7000;0.1644;-0.0719;
372.0000;0.1563;-0.0934;
372.3000;0.1579;-0.0791;
372.6000;0.1685;-0.0551;
372.9000;0.1587;-0.0767;
373.2000;0.1587;-0.0791;
373.5000;0.1595;-0.0767;
373.8000;0.1604;-0.0791;
374.1000;0.1547;-0.0910;
374.4000;0.1547;-0.0958;
374.7000;0.1514;-0.1030;
375.0000;0.1587;-0.0815;
375.3000;0.1571;-0.0815;
375.6000;0.1595;-0.0719;
375.9000;0.1538;-0.0863;
376.2000;0.1579;-0.0695;
376.5000;0.1547;-0.0839;
376.8000;0.1571;-0.0695;
377.1000;0.1604;-0.0647;
377.4000;0.1612;-0.0623;
377.7000;0.1538;-0.0815;
378.0000;0.1595;-0.0623;
378.3000;0.1595;-0.0599;
378.6000;0.1571;-0.0791;
378.9000;0.1587;-0.0671;
379.2000;0.1595;-0.0647;
379.5000;0.1604;-0.0599;
379.8000;0.1587;-0.0599;
380.1000;0.1571;-0.0599;
380.4000;0.1555;-0.0623;
380.7000;0.1579;-0.0551;
381.0000;0.1490;-0.0719;
381.3000;0.1579;-0.0551;
381.6000;0.1547;-0.0647;
381.9000;0.1571;-0.0695;
382.2000;0.1579;-0.0647;
382.5000;0.1587;-0.0695;
382.8000;0.1522;-0.0934;
383.1000;0.1571;-0.0743;
383.4000;0.1571;-0.0767;
383.7000;0.1612;-0.0719;
384.0000;0.1555;-0.0791;
384.3000;0.1636;-0.0647;
384.6000;0.1579;-0.0815;
384.9000;0.1571;-0.0743;
385.2000;0.1571;-0.0767;
385.5000;0.1530;-0.0910;
385.8000;0.1587;-0.0791;
386.1000;0.1579;-0.0767;
386.4000;0.1571;-0.0815;
386.7000;0.1595;-0.0767;
387.0000;0.1571;-0.0815;
387.3000;0.1579;-0.0767;
387.6000;0.1579;-0.0791;
387.9000;0.1571;-0.0839;
388.2000;0.1571;-0.0863;
388.5000;0.1587;-0.0863;
388.8000;0.1571;-0.0863;
389.1000;0.1555;-0.0815;
389.4000;0.1538;-0.0887;
389.7000;0.1677;-0.0527;
390.0000;0.1571;-0.0743;
390.3000;0.1579;-0.0791;
390.6000;0.1563;-0.0910;
390.9000;0.1587;-0.0767;
391.2000;0.1555;-0.0839;
391.5000;0.1579;-0.0839;
391.8000;0.1555;-0.0934;
392.1000;0.1579;-0.0910;
392.4000;0.1628;-0.0791;
392.7000;0.1604;-0.0982;
393.0000;0.1547;-0.1102;
393.3000;0.1604;-0.1030;
393.6000;0.1604;-0.0958;
393.9000;0.1579;-0.0982;
394.2000;0.1579;-0.0982;
394.5000;0.1555;-0.0934;
394.8000;0.1522;-0.1006;
395.1000;0.1579;-0.0934;
395.4000;0.1571;-0.0982;
395.7000;0.1571;-0.0958;
396.0000;0.1579;-0.0863;
396.3000;0.1579;-0.0791;
396.6000;0.1595;-0.0791;
396.9000;0.1571;-0.0815;
397.2000;0.1563;-0.0767;
397.5000;0.1530;-0.0815;
397.8000;0.1571;-0.0695;
398.1000;0.1579;-0.0599;
398.4000;0.1579;-0.0551;
398.7000;0.1595;-0.0551;
399.0000;0.1571;-0.0599;
399.3000;0.1563;-0.0623;
399.6000;0.1628;-0.0527;
399.9000;0.1579;-0.0671;
400.2000;0.1571;-0.0623;
400.5000;0.1587;-0.0599;
400.8000;0.1563;-0.0671;
401.1000;0.1555;-0.0767;
401.4000;0.1563;-0.0743;
401.7000;0.1587;-0.0719;
402.0000;0.1652;-0.0527;
402.3000;0.1579;-0.0863;
402.6000;0.1563;-0.0887;
402.9000;0.1579;-0.0910;
403.2000;0.1579;-0.0887;
403.5000;0.1571;-0.0887;
403.8000;0.1538;-0.0982;
404.1000;0.1644;-0.0743;
404.4000;0.1571;-0.0863;
404.7000;0.1571;-0.0839;
405.0000;0.1571;-0.0767;
405.3000;0.1595;-0.0671;
405.6000;0.1595;-0.0719;
405.9000;0.1579;-0.0719;
406.2000;0.1555;-0.0839;
406.5000;0.1571;-0.0767;
406.8000;0.1514;-0.0910;
407.1000;0.1571;-0.0695;
407.4000;0.1612;-0.0575;
407.7000;0.1571;-0.0719;
408.0000;0.1473;-0.0958;
408.3000;0.1514;-0.0815;
408.6000;0.1563;-0.0791;
408.9000;0.1571;-0.0887;
409.2000;0.1587;-0.0815;
409.5000;0.1498;-0.0839;
409.8000;0.1595;-0.0719;
410.1000;0.1587;-0.0767;
410.4000;0.1587;-0.0743;
410.7000;0.1514;-0.0982;
411.0000;0.1604;-0.0815;
411.3000;0.1538;-0.0982;
411.6000;0.1563;-0.0887;
411.9000;0.1571;-0.0887;
412.2000;0.1579;-0.0863;
412.5000;0.1571;-0.0839;
412.8000;0.1563;-0.0863;
413.1000;0.1579;-0.0839;
413.4000;0.1571;-0.0863;
413.7000;0.1563;-0.0839;
414.0000;0.1530;-0.0887;
414.3000;0.1571;-0.0791;
414.6000;0.1604;-0.0695;
414.9000;0.1571;-0.0815;
415.2000;0.1677;-0.0503;
415.5000;0.1595;-0.0695;
415.8000;0.1571;-0.0791;
416.1000;0.1563;-0.0719;
416.4000;0.1547;-0.0743;
416.7000;0.1571;-0.0647;
417.0000;0.1587;-0.0551;
417.3000;0.1595;-0.0527;
417.6000;0.1587;-0.0575;
417.9000;0.1571;-0.0647;
418.2000;0.1498;-0.0815;
418.5000;0.1555;-0.0695;
418.8000;0.1579;-0.0719;
419.1000;0.1579;-0.0695;
419.4000;0.1604;-0.0623;
419.7000;0.1579;-0.0743;
420.0000;0.1595;-0.0695;
420.3000;0.1555;-0.0815;
420.6000;0.1538;-0.0839;
420.9000;0.1571;-0.0671;
421.2000;0.1547;-0.0719;
421.5000;0.1579;-0.0719;
421.8000;0.1571;-0.0743;
422.1000;0.1604;-0.0647;
422.4000;0.1563;-0.0623;
422.7000;0.1555;-0.0671;
423.0000;0.1595;-0.0575;
423.3000;0.1595;-0.0623;
423.6000;0.1661;-0.0503;
423.9000;0.1571;-0.0815;
424.2000;0.1579;-0.0863;
424.5000;0.1571;-0.0791;
424.8000;0.1547;-0.0791;
425.1000;0.1587;-0.0743;
425.4000;0.1571;-0.0887;
425.7000;0.1571;-0.0839;
426.0000;0.1571;-0.0815;
426.3000;0.1571;-0.0815;
426.6000;0.1595;-0.0791;
426.9000;0.1579;-0.0815;
427.2000;0.1636;-0.0671;
427.5000;0.1530;-0.0887;
427.8000;0.1571;-0.0815;
428.1000;0.1563;-0.0934;
428.4000;0.1473;-0.1102;
428.7000;0.1473;-0.1126;
429.0000;0.1522;-0.1006;
429.3000;0.1587;-0.0743;
429.6000;0.1563;-0.0791;
429.9000;0.1571;-0.0815;
430.2000;0.1628;-0.0695;
430.5000;0.1636;-0.0719;
430.8000;0.1595;-0.0791;
431.1000;0.1587;-0.0767;
431.4000;0.1595;-0.0743;
431.7000;0.1555;-0.0815;
432.0000;0.1628;-0.0719;
432.3000;0.1595;-0.0863;
432.6000;0.1604;-0.0887;
432.9000;0.1604;-0.0839;
433.2000;0.1563;-0.0958;
433.5000;0.1587;-0.0910;
433.8000;0.1571;-0.0982;
434.1000;0.1587;-0.0934;
434.4000;0.1571;-0.0887;
434.7000;0.1563;-0.0815;
435.0000;0.1636;-0.0575;
435.3000;0.1563;-0.0719;
435.6000;0.1595;-0.0671;
435.9000;0.1636;-0.0575;
436.2000;0.1587;-0.0647;
436.5000;0.1587;-0.0647;
436.8000;0.1579;-0.0695;
437.1000;0.1579;-0.0599;
437.4000;0.1579;-0.0623;
437.7000;0.1579;-0.0599;
438.0000;0.1563;-0.0671;
438.3000;0.1571;-0.0647;
438.6000;0.1555;-0.0791;
438.9000;0.1538;-0.0934;
439.2000;0.1612;-0.0719;
439.5000;0.1522;-0.0958;
439.8000;0.1571;-0.0767;
440.1000;0.1506;-0.0863;
440.4000;0.1604;-0.0599;
440.7000;0.1595;-0.0599;
441.0000;0.1571;-0.0671;
441.3000;0.1587;-0.0551;
441.6000;0.1604;-0.0479;
441.9000;0.1628;-0.0359;
442.2000;0.1514;-0.0671;
442.5000;0.1644;-0.0359;
442.8000;0.1481;-0.0695;
443.1000;0.1595;-0.0431;
443.4000;0.1579;-0.0551;
443.7000;0.1571;-0.0623;
444.0000;0.1587;-0.0551;
444.3000;0.1579;-0.0599;
444.6000;0.1587;-0.0527;
444.9000;0.1547;-0.0599;
445.2000;0.1587;-0.0575;
445.5000;0.1579;-0.0623;
445.8000;0.1579;-0.0695;
446.1000;0.1563;-0.0767;
446.4000;0.1571;-0.0719;
446.7000;0.1677;-0.0407;
447.0000;0.1595;-0.0599;
447.3000;0.1595;-0.0671;
447.6000;0.1595;-0.0623;
447.9000;0.1555;-0.0719;
448.2000;0.1579;-0.0719;
448.5000;0.1579;-0.0719;
448.8000;0.1538;-0.0815;
449.1000;0.1571;-0.0743;
449.4000;0.1604;-0.0575;
449.7000;0.1620;-0.0503;
450.0000;0.1579;-0.0599;
450.3000;0.1579;-0.0623;
450.6000;0.1579;-0.0623;
450.9000;0.1563;-0.0647;
451.2000;0.1579;-0.0623;
451.5000;0.1563;-0.0671;
451.8000;0.1587;-0.0719;
452.1000;0.1579;-0.0719;
452.4000;0.1571;-0.0743;
452.7000;0.1620;-0.0551;
453.0000;0.1555;-0.0671;
453.3000;0.1587;-0.0551;
453.6000;0.1579;-0.0647;
453.9000;0.1587;-0.0623;
454.2000;0.1563;-0.0647;
454.5000;0.1652;-0.0431;
454.8000;0.1579;-0.0551;
455.1000;0.1563;-0.0623;
455.4000;0.1604;-0.0575;
455.7000;0.1612;-0.0527;
456.0000;0.1595;-0.0551;
456.3000;0.1661;-0.0383;
456.6000;0.1587;-0.0503;
456.9000;0.1587;-0.0551;
457.2000;0.1530;-0.0695;
457.5000;0.1604;-0.0503;
457.8000;0.1604;-0.0503;
458.1000;0.1587;-0.0599;
458.4000;0.1587;-0.0599;
458.7000;0.1612;-0.0575;
459.0000;0.1563;-0.0743;
459.3000;0.1571;-0.0719;
459.6000;0.1587;-0.0623;
459.9000;0.1571;-0.0671;
460.2000;0.1563;-0.0695;
460.5000;0.1579;-0.0743;
460.8000;0.1595;-0.0623;
461.1000;0.1595;-0.0551;
461.4000;0.1595;-0.0407;
461.7000;0.1595;-0.0455;
462.0000;0.1571;-0.0551;
462.3000;0.1595;-0.0383;
462.6000;0.1604;-0.0455;
462.9000;0.1587;-0.0407;
463.2000;0.1563;-0.0431;
463.5000;0.1563;-0.0527;
463.8000;0.1555;-0.0551;
464.1000;0.1587;-0.0455;
464.4000;0.1595;-0.0455;
464.7000;0.1587;-0.0551;
465.0000;0.1538;-0.0647;
465.3000;0.1506;-0.0791;
465.6000;0.1587;-0.0575;
465.9000;0.1563;-0.0623;
466.2000;0.1571;-0.0599;
466.5000;0.1506;-0.0719;
466.8000;0.1506;-0.0791;
467.1000;0.1604;-0.0527;
467.4000;0.1604;-0.0503;
467.7000;0.1547;-0.0623;
468.0000;0.1563;-0.0623;
468.3000;0.1587;-0.0479;
468.6000;0.1538;-0.0647;
468.9000;0.1587;-0.0527;
469.2000;0.1563;-0.0623;
469.5000;0.1587;-0.0551;
469.8000;0.1587;-0.0551;
470.1000;0.1579;-0.0551;
470.4000;0.1563;-0.0575;
470.7000;0.1595;-0.0503;
471.0000;0.1587;-0.0431;
471.3000;0.1579;-0.0503;
471.6000;0.1604;-0.0431;
471.9000;0.1571;-0.0479;
472.2000;0.1604;-0.0479;
472.5000;0.1587;-0.0503;
472.8000;0.1579;-0.0503;
473.1000;0.1579;-0.0503;
473.4000;0.1571;-0.0551;
473.7000;0.1571;-0.0575;
474.0000;0.1612;-0.0407;
474.3000;0.1563;-0.0455;
474.6000;0.1571;-0.0479;
474.9000;0.1547;-0.0575;
475.2000;0.1595;-0.0455;
475.5000;0.1547;-0.0551;
475.8000;0.1571;-0.0503;
476.1000;0.1571;-0.0503;
476.4000;0.1571;-0.0503;
476.7000;0.1547;-0.0527;
477.0000;0.1563;-0.0359;
477.3000;0.1579;-0.0407;
477.6000;0.1571;-0.0383;
477.9000;0.1636;-0.0264;
478.2000;0.1465;-0.0671;
478.5000;0.1563;-0.0551;
478.8000;0.1595;-0.0527;
479.1000;0.1579;-0.0551;
479.4000;0.1579;-0.0479;
479.7000;0.1571;-0.0527;
480.0000;0.1579;-0.0503;
480.3000;0.1579;-0.0551;
480.6000;0.1587;-0.0527;
480.9000;0.1571;-0.0503;
481.2000;0.1701;-0.0120;
481.5000;0.1587;-0.0359;
481.8000;0.1555;-0.0503;
482.1000;0.1563;-0.0527;
482.4000;0.1571;-0.0551;
482.7000;0.1571;-0.0647;
483.0000;0.1579;-0.0647;
483.3000;0.1587;-0.0647;
483.6000;0.1579;-0.0599;
483.9000;0.1595;-0.0551;
484.2000;0.1587;-0.0623;
484.5000;0.1547;-0.0719;
484.8000;0.1595;-0.0503;
485.1000;0.1587;-0.0527;
485.4000;0.1595;-0.0599;
485.7000;0.1579;-0.0575;
486.0000;0.1555;-0.0671;
486.3000;0.1628;-0.0527;
486.6000;0.1604;-0.0671;
486.9000;0.1571;-0.0767;
487.2000;0.1571;-0.0743;
487.5000;0.1555;-0.0743;
487.8000;0.1563;-0.0719;
488.1000;0.1563;-0.0743;
488.4000;0.1563;-0.0791;
488.7000;0.1555;-0.0695;
489.0000;0.1579;-0.0623;
489.3000;0.1538;-0.0719;
489.6000;0.1587;-0.0551;
489.9000;0.1563;-0.0695;
490.2000;0.1579;-0.0623;
490.5000;0.1612;-0.0671;
490.8000;0.1563;-0.0887;
491.1000;0.1579;-0.0791;
491.4000;0.1693;-0.0407;
491.7000;0.1612;-0.0623;
492.0000;0.1579;-0.0647;
492.3000;0.1547;-0.0743;
492.6000;0.1547;-0.0767;
492.9000;0.1595;-0.0527;
493.2000;0.1579;-0.0479;
493.5000;0.1579;-0.0503;
493.8000;0.1571;-0.0527;
494.1000;0.1587;-0.0479;
494.4000;0.1579;-0.0431;
494.7000;0.1587;-0.0503;
495.0000;0.1595;-0.0551;
495.3000;0.1587;-0.0551;
495.6000;0.1595;-0.0479;
495.9000;0.1587;-0.0527;
496.2000;0.1579;-0.0623;
496.5000;0.1563;-0.0647;
496.8000;0.1595;-0.0527;
497.1000;0.1579;-0.0647;
497.4000;0.1571;-0.0623;
497.7000;0.1579;-0.0623;
498.0000;0.1571;-0.0599;
498.3000;0.1612;-0.0527;
498.6000;0.1587;-0.0503;
498.9000;0.1555;-0.0599;
499.2000;0.1579;-0.0575;
499.5000;0.1595;-0.0551;
499.8000;0.1579;-0.0599;
500.1000;0.1587;-0.0599;
500.4000;0.1604;-0.0551;
500.7000;0.1587;-0.0527;
501.0000;0.1579;-0.0551;
501.3000;0.1579;-0.0575;
501.6000;0.1571;-0.0623;
501.9000;0.1571;-0.0671;
502.2000;0.1587;-0.0599;
502.5000;0.1563;-0.0575;
502.8000;0.1571;-0.0527;
503.1000;0.1579;-0.0527;
503.4000;0.1587;-0.0599;
503.7000;0.1547;-0.0719;
504.0000;0.1579;-0.0719;
504.3000;0.1571;-0.0791;
504.6000;0.1571;-0.0767;
504.9000;0.1587;-0.0671;
505.2000;0.1563;-0.0647;
505.5000;0.1644;-0.0407;
505.8000;0.1595;-0.0527;
506.1000;0.1595;-0.0599;
506.4000;0.1571;-0.0623;
506.7000;0.1571;-0.0623;
507.0000;0.1571;-0.0623;
507.3000;0.1579;-0.0575;
507.6000;0.1587;-0.0479;
507.9000;0.1587;-0.0479;
508.2000;0.1563;-0.0503;
508.5000;0.1595;-0.0599;
508.8000;0.1579;-0.0527;
509.1000;0.1587;-0.0527;
509.4000;0.1481;-0.0767;
509.7000;0.1579;-0.0431;
510.0000;0.1530;-0.0551;
510.3000;0.1571;-0.0431;
510.6000;0.1571;-0.0455;
510.9000;0.1661;-0.0359;
511.2000;0.1571;-0.0551;
511.5000;0.1571;-0.0503;
511.8000;0.1571;-0.0479;
512.1000;0.1579;-0.0479;
512.4000;0.1587;-0.0527;
512.7000;0.1579;-0.0551;
513.0000;0.1571;-0.0503;
513.3000;0.1571;-0.0527;
513.6000;0.1563;-0.0551;
513.9000;0.1563;-0.0599;
514.2000;0.1563;-0.0575;
514.5000;0.1579;-0.0527;
514.8000;0.1587;-0.0383;
515.1000;0.1579;-0.0431;
515.4000;0.1579;-0.0551;
515.7000;0.1571;-0.0527;
516.0000;0.1587;-0.0479;
516.3000;0.1587;-0.0503;
516.6000;0.1530;-0.0695;
516.9000;0.1571;-0.0623;
517.2000;0.1571;-0.0599;
517.5000;0.1579;-0.0503;
517.8000;0.1571;-0.0623;
518.1000;0.1571;-0.0695;
518.4000;0.1579;-0.0671;
518.7000;0.1571;-0.0695;
519.0000;0.1522;-0.0767;
519.3000;0.1555;-0.0527;
519.6000;0.1571;-0.0503;
519.9000;0.1612;-0.0311;
520.2000;0.1563;-0.0455;
520.5000;0.1587;-0.0311;
520.8000;0.1579;-0.0407;
521.1000;0.1579;-0.0503;
521.4000;0.1571;-0.0599;
521.7000;0.1571;-0.0575;
522.0000;0.1587;-0.0575;
522.3000;0.1563;-0.0719;
522.6000;0.1587;-0.0695;
522.9000;0.1587;-0.0623;
523.2000;0.1579;-0.0599;
523.5000;0.1555;-0.0767;
523.8000;0.1547;-0.0791;
524.1000;0.1579;-0.0791;
524.4000;0.1563;-0.0791;
524.7000;0.1595;-0.0695;
525.0000;0.1587;-0.0767;
525.3000;0.1587;-0.0791;
525.6000;0.1595;-0.0791;
525.9000;0.1473;-0.1174;
526.2000;0.1587;-0.0815;
526.5000;0.1579;-0.0887;
526.8000;0.1587;-0.0887;
527.1000;0.1571;-0.0910;
527.4000;0.1571;-0.0863;
527.7000;0.1604;-0.0695;
528.0000;0.1547;-0.0767;
528.3000;0.1563;-0.0839;
528.6000;0.1571;-0.0887;
528.9000;0.1506;-0.1006;
529.2000;0.1579;-0.0815;
529.5000;0.1563;-0.0815;
529.8000;0.1579;-0.0791;
530.1000;0.1571;-0.0767;
530.4000;0.1563;-0.0815;
530.7000;0.1490;-0.1006;
531.0000;0.1506;-0.0934;
531.3000;0.1538;-0.0839;
531.6000;0.1579;-0.0695;
531.9000;0.1473;-0.1006;
532.2000;0.1555;-0.0767;
532.5000;0.1604;-0.0647;
532.8000;0.1595;-0.0695;
533.1000;0.1595;-0.0791;
533.4000;0.1555;-0.0982;
533.7000;0.1490;-0.1222;
534.0000;0.1579;-0.0958;
534.3000;0.1571;-0.0958;
534.6000;0.1555;-0.1006;
534.9000;0.1579;-0.0910;
535.2000;0.1563;-0.0934;
535.5000;0.1538;-0.1006;
535.8000;0.1555;-0.0839;
536.1000;0.1571;-0.0743;
536.4000;0.1571;-0.0743;
536.7000;0.1636;-0.0551;
537.0000;0.1628;-0.0575;
537.3000;0.1579;-0.0671;
537.6000;0.1587;-0.0671;
537.9000;0.1587;-0.0671;
538.2000;0.1563;-0.0719;
538.5000;0.1457;-0.0982;
538.8000;0.1661;-0.0455;
539.1000;0.1571;-0.0671;
539.4000;0.1644;-0.0359;
539.7000;0.1538;-0.0599;
540.0000;0.1571;-0.0599;
540.3000;0.1547;-0.0647;
540.6000;0.1587;-0.0671;
540.9000;0.1604;-0.0647;
541.2000;0.1571;-0.0647;
541.5000;0.1579;-0.0647;
541.8000;0.1563;-0.0623;
542.1000;0.1612;-0.0455;
542.4000;0.1571;-0.0575;
542.7000;0.1571;-0.0551;
543.0000;0.1595;-0.0551;
543.3000;0.1604;-0.0503;
543.6000;0.1579;-0.0575;
543.9000;0.1587;-0.0551;
544.2000;0.1587;-0.0503;
544.5000;0.1587;-0.0431;
544.8000;0.1595;-0.0359;
545.1000;0.1563;-0.0503;
545.4000;0.1571;-0.0551;
545.7000;0.1579;-0.0551;
546.0000;0.1563;-0.0551;
546.3000;0.1506;-0.0791;
546.6000;0.1555;-0.0647;
546.9000;0.1555;-0.0647;
547.2000;0.1628;-0.0527;
547.5000;0.1595;-0.0599;
547.8000;0.1579;-0.0599;
548.1000;0.1522;-0.0791;
548.4000;0.1563;-0.0743;
548.7000;0.1571;-0.0695;
549.0000;0.1579;-0.0647;
549.3000;0.1587;-0.0623;
549.6000;0.1587;-0.0719;
549.9000;0.1579;-0.0743;
550.2000;0.1571;-0.0719;
550.5000;0.1571;-0.0719;
550.8000;0.1563;-0.0743;
551.1000;0.1563;-0.0647;
551.4000;0.1571;-0.0647;
551.7000;0.1563;-0.0695;
552.0000;0.1571;-0.0695;
552.3000;0.1587;-0.0671;
552.6000;0.1571;-0.0743;
552.9000;0.1547;-0.0791;
553.2000;0.1473;-0.1006;
553.5000;0.1587;-0.0695;
553.8000;0.1571;-0.0719;
554.1000;0.1628;-0.0623;
554.4000;0.1563;-0.0767;
554.7000;0.1579;-0.0815;
555.0000;0.1579;-0.0743;
555.3000;0.1571;-0.0863;
555.6000;0.1644;-0.0719;
555.9000;0.1571;-0.0863;
556.2000;0.1604;-0.0791;
556.5000;0.1571;-0.0839;
556.8000;0.1587;-0.0791;
557.1000;0.1563;-0.0887;
557.4000;0.1571;-0.0839;
557.7000;0.1563;-0.0815;
558.0000;0.1563;-0.0743;
558.3000;0.1571;-0.0743;
558.6000;0.1579;-0.0791;
558.9000;0.1604;-0.0839;
559.2000;0.1579;-0.0910;
559.5000;0.1571;-0.0863;
559.8000;0.1547;-0.0863;
560.1000;0.1612;-0.0767;
560.4000;0.1734;-0.0407;
560.7000;0.1595;-0.0791;
561.0000;0.1547;-0.0839;
561.3000;0.1579;-0.0743;
561.6000;0.1563;-0.0791;
561.9000;0.1579;-0.0815;
562.2000;0.1563;-0.0863;
562.5000;0.1506;-0.0958;
562.8000;0.1571;-0.0767;
563.1000;0.1587;-0.0719;
563.4000;0.1652;-0.0431;
563.7000;0.1571;-0.0527;
564.0000;0.1652;-0.0407;
564.3000;0.1579;-0.0647;
564.6000;0.1571;-0.0695;
564.9000;0.1571;-0.0551;
565.2000;0.1579;-0.0527;
565.5000;0.1587;-0.0503;
565.8000;0.1579;-0.0503;
566.1000;0.1571;-0.0599;
566.4000;0.1579;-0.0623;
566.7000;0.1571;-0.0599;
567.0000;0.1563;-0.0671;
567.3000;0.1555;-0.0767;
567.6000;0.1563;-0.0791;
567.9000;0.1579;-0.0767;
568.2000;0.1571;-0.0767;
568.5000;0.1579;-0.0839;
568.8000;0.1555;-0.0815;
569.1000;0.1579;-0.0767;
569.4000;0.1579;-0.0743;
569.7000;0.1636;-0.0575;
570.0000;0.1555;-0.0695;
570.3000;0.1587;-0.0599;
570.6000;0.1579;-0.0599;
570.9000;0.1514;-0.0719;
571.2000;0.1620;-0.0455;
571.5000;0.1571;-0.0695;
571.8000;0.1579;-0.0695;
572.1000;0.1555;-0.0695;
572.4000;0.1538;-0.0791;
572.7000;0.1587;-0.0695;
573.0000;0.1571;-0.0767;
573.3000;0.1628;-0.0599;
573.6000;0.1587;-0.0719;
573.9000;0.1555;-0.0767;
574.2000;0.1571;-0.0767;
574.5000;0.1571;-0.0743;
574.8000;0.1571;-0.0839;
575.1000;0.1571;-0.0767;
575.4000;0.1579;-0.0695;
575.7000;0.1571;-0.0695;
576.0000;0.1571;-0.0695;
576.3000;0.1579;-0.0599;
576.6000;0.1514;-0.0695;
576.9000;0.1547;-0.0695;
577.2000;0.1644;-0.0503;
577.5000;0.1579;-0.0695;
577.8000;0.1571;-0.0719;
578.1000;0.1579;-0.0647;
578.4000;0.1579;-0.0647;
578.7000;0.1555;-0.0647;
579.0000;0.1595;-0.0623;
579.3000;0.1571;-0.0647;
579.6000;0.1571;-0.0671;
579.9000;0.1571;-0.0647;
580.2000;0.1563;-0.0551;
580.5000;0.1604;-0.0407;
580.8000;0.1587;-0.0431;
581.1000;0.1571;-0.0431;
581.4000;0.1579;-0.0503;
581.7000;0.1571;-0.0575;
582.0000;0.1563;-0.0671;
582.3000;0.1538;-0.0647;
582.6000;0.1587;-0.0479;
582.9000;0.1587;-0.0479;
583.2000;0.1555;-0.0527;
583.5000;0.1571;-0.0503;
583.8000;0.1563;-0.0551;
584.1000;0.1563;-0.0503;
584.4000;0.1587;-0.0455;
584.7000;0.1547;-0.0551;
585.0000;0.1620;-0.0359;
585.3000;0.1595;-0.0479;
585.6000;0.1644;-0.0359;
585.9000;0.1595;-0.0431;
586.2000;0.1563;-0.0575;
586.5000;0.1677;-0.0407;
586.8000;0.1538;-0.0815;
587.1000;0.1555;-0.0719;
587.4000;0.1595;-0.0599;
587.7000;0.1620;-0.0575;
588.0000;0.1563;-0.0719;
588.3000;0.1571;-0.0839;
588.6000;0.1628;-0.0791;
588.9000;0.1563;-0.0887;
589.2000;0.1579;-0.0863;
589.5000;0.1587;-0.0791;
589.8000;0.1563;-0.0839;
590.1000;0.1571;-0.0815;
590.4000;0.1571;-0.0791;
590.7000;0.1587;-0.0695;
591.0000;0.1538;-0.0767;
591.3000;0.1587;-0.0671;
591.6000;0.1579;-0.0695;
591.9000;0.1595;-0.0719;
592.2000;0.1595;-0.0815;
592.5000;0.1587;-0.0863;
592.8000;0.1514;-0.1054;
593.1000;0.1579;-0.0815;
593.4000;0.1595;-0.0743;
593.7000;0.1587;-0.0695;
594.0000;0.1604;-0.0671;
594.3000;0.1522;-0.0767;
594.6000;0.1547;-0.0743;
594.9000;0.1555;-0.0767;
595.2000;0.1514;-0.0839;
595.5000;0.1579;-0.0647;
595.8000;0.1579;-0.0671;
596.1000;0.1587;-0.0647;
596.4000;0.1579;-0.0527;
596.7000;0.1563;-0.0599;
597.0000;0.1538;-0.0599;
597.3000;0.1579;-0.0551;
597.6000;0.1563;-0.0623;
597.9000;0.1571;-0.0695;
598.2000;0.1587;-0.0695;
598.5000;0.1555;-0.0719;
598.8000;0.1579;-0.0719;
599.1000;0.1595;-0.0767;
599.4000;0.1595;-0.0863;
599.7000;0.1644;-0.0719;
600.0000;0.1571;-0.0887;
600.3000;0.1563;-0.0887;
600.6000;0.1579;-0.0934;
600.9000;0.1563;-0.1102;
601.2000;0.1563;-0.1102;
601.5000;0.1579;-0.1150;
601.8000;0.1563;-0.1270;
602.1000;0.1473;-0.1653;
602.4000;0.1555;-0.1581;
602.7000;0.1506;-0.1749;
603.0000;0.1522;-0.1893;
603.3000;0.1587;-0.1821;
603.6000;0.1538;-0.1941;
603.9000;0.1530;-0.2013;
604.2000;0.1522;-0.1965;
604.5000;0.1498;-0.2108;
604.8000;0.1498;-0.2204;
605.1000;0.1498;-0.2324;
605.4000;0.1612;-0.2132;
605.7000;0.1514;-0.2396;
606.0000;0.1498;-0.2444;
606.3000;0.1449;-0.2564;
606.6000;0.1481;-0.2516;
606.9000;0.1481;-0.2588;
607.2000;0.1490;-0.2588;
607.5000;0.1384;-0.2947;
607.8000;0.1514;-0.2588;
608.1000;0.1481;-0.2636;
608.4000;0.1473;-0.2660;
608.7000;0.1481;-0.2731;
609.0000;0.1490;-0.2731;
609.3000;0.1481;-0.2755;
609.6000;0.1490;-0.2707;
609.9000;0.1490;-0.2803;
610.2000;0.1473;-0.2803;
610.5000;0.1481;-0.2827;
610.8000;0.1490;-0.2731;
611.1000;0.1514;-0.2612;
611.4000;0.1506;-0.2684;
611.7000;0.1514;-0.2564;
612.0000;0.1481;-0.2612;
612.3000;0.1473;-0.2636;
612.6000;0.1498;-0.2660;
612.9000;0.1465;-0.2755;
613.2000;0.1490;-0.2612;
613.5000;0.1465;-0.2636;
613.8000;0.1498;-0.2564;
614.1000;0.1481;-0.2588;
614.4000;0.1473;-0.2588;
614.7000;0.1441;-0.2707;
615.0000;0.1530;-0.2540;
615.3000;0.1457;-0.2707;
615.6000;0.1490;-0.2707;
615.9000;0.1506;-0.2684;
616.2000;0.1465;-0.2779;
616.5000;0.1481;-0.2707;
616.8000;0.1441;-0.2875;
617.1000;0.1498;-0.2707;
617.4000;0.1490;-0.2803;
617.7000;0.1473;-0.2779;
618.0000;0.1490;-0.2731;
618.3000;0.1481;-0.2731;
618.6000;0.1498;-0.2684;
618.9000;0.1465;-0.2684;
619.2000;0.1449;-0.2755;
619.5000;0.1514;-0.2707;
619.8000;0.1473;-0.2851;
620.1000;0.1457;-0.2827;
620.4000;0.1473;-0.2803;
620.7000;0.1457;-0.2923;
621.0000;0.1465;-0.2899;
621.3000;0.1457;-0.2971;
621.6000;0.1490;-0.2899;
621.9000;0.1538;-0.2755;
622.2000;0.1514;-0.2851;
622.5000;0.1481;-0.2899;
622.8000;0.1473;-0.2947;
623.1000;0.1457;-0.2947;
623.4000;0.1498;-0.2803;
623.7000;0.1465;-0.2923;
624.0000;0.1481;-0.2899;
624.3000;0.1481;-0.2827;
624.6000;0.1506;-0.2827;
624.9000;0.1457;-0.2851;
625.2000;0.1473;-0.2923;
625.5000;0.1449;-0.2995;
625.8000;0.1457;-0.2995;
626.1000;0.1425;-0.3211;
626.4000;0.1473;-0.3019;
626.7000;0.1416;-0.3187;
627.0000;0.1465;-0.2995;
627.3000;0.1506;-0.2803;
627.6000;0.1465;-0.2851;
627.9000;0.1481;-0.2827;
628.2000;0.1514;-0.2755;
628.5000;0.1547;-0.2612;
628.8000;0.1473;-0.2755;
629.1000;0.1473;-0.2803;
629.4000;0.1473;-0.2779;
629.7000;0.1530;-0.2564;
630.0000;0.1481;-0.2779;
630.3000;0.1408;-0.2971;
630.6000;0.1481;-0.2899;
630.9000;0.1481;-0.2827;
631.2000;0.1490;-0.2755;
631.5000;0.1481;-0.2755;
631.8000;0.1465;-0.2851;
632.1000;0.1490;-0.2779;
632.4000;0.1457;-0.2851;
632.7000;0.1416;-0.3067;
633.0000;0.1465;-0.2947;
633.3000;0.1490;-0.2899;
633.6000;0.1473;-0.2923;
633.9000;0.1465;-0.3019;
634.2000;0.1457;-0.2971;
634.5000;0.1441;-0.2995;
634.8000;0.1481;-0.2875;
635.1000;0.1490;-0.2923;
635.4000;0.1481;-0.2851;
635.7000;0.1473;-0.2875;
636.0000;0.1473;-0.2875;
636.3000;0.1481;-0.2779;
636.6000;0.1457;-0.2827;
636.9000;0.1490;-0.2684;
637.2000;0.1457;-0.2779;
637.5000;0.1473;-0.2779;
637.8000;0.1481;-0.2923;
638.1000;0.1473;-0.2875;
638.4000;0.1490;-0.2731;
638.7000;0.1498;-0.2684;
639.0000;0.1465;-0.2731;
639.3000;0.1490;-0.2684;
639.6000;0.1473;-0.2755;
639.9000;0.1490;-0.2731;
640.2000;0.1530;-0.2588;
640.5000;0.1449;-0.2827;
640.8000;0.1490;-0.2803;
641.1000;0.1481;-0.2779;
641.4000;0.1441;-0.2875;
641.7000;0.1473;-0.2707;
642.0000;0.1473;-0.2827;
642.3000;0.1457;-0.2851;
642.6000;0.1490;-0.2731;
642.9000;0.1490;-0.2803;
643.2000;0.1514;-0.2707;
643.5000;0.1465;-0.2803;
643.8000;0.1473;-0.2803;
644.1000;0.1465;-0.2923;
644.4000;0.1481;-0.2947;
644.7000;0.1441;-0.2995;
645.0000;0.1457;-0.2923;
645.3000;0.1506;-0.2731;
645.6000;0.1457;-0.2875;
645.9000;0.1490;-0.2636;
646.2000;0.1490;-0.2588;
646.5000;0.1481;-0.2612;
646.8000;0.1473;-0.2684;
647.1000;0.1473;-0.2731;
647.4000;0.1465;-0.2779;
647.7000;0.1368;-0.3043;
648.0000;0.1579;-0.2468;
648.3000;0.1449;-0.2779;
648.6000;0.1441;-0.2827;
648.9000;0.1481;-0.2660;
649.2000;0.1465;-0.2755;
649.5000;0.1563;-0.2492;
649.8000;0.1490;-0.2803;
650.1000;0.1481;-0.2779;
650.4000;0.1441;-0.2899;
650.7000;0.1465;-0.2875;
651.0000;0.1465;-0.2827;
651.3000;0.1473;-0.2875;
651.6000;0.1490;-0.2803;
651.9000;0.1506;-0.2827;
652.2000;0.1490;-0.2971;
652.5000;0.1473;-0.3019;
652.8000;0.1473;-0.2971;
653.1000;0.1490;-0.3019;
653.4000;0.1473;-0.2947;
653.7000;0.1416;-0.2995;
654.0000;0.1441;-0.2875;
654.3000;0.1465;-0.2803;
654.6000;0.1473;-0.2707;
654.9000;0.1473;-0.2851;
655.2000;0.1433;-0.2947;
655.5000;0.1473;-0.2851;
655.8000;0.1473;-0.2851;
656.1000;0.1473;-0.2851;
656.4000;0.1465;-0.2803;
656.7000;0.1449;-0.2851;
657.0000;0.1473;-0.2684;
657.3000;0.1473;-0.2755;
657.6000;0.1449;-0.2803;
657.9000;0.1433;-0.2947;
658.2000;0.1457;-0.2803;
658.5000;0.1481;-0.2803;
658.8000;0.1433;-0.3019;
659.1000;0.1473;-0.2947;
659.4000;0.1473;-0.2899;
659.7000;0.1490;-0.2851;
660.0000;0.1457;-0.2971;
660.3000;0.1473;-0.2899;
660.6000;0.1473;-0.2923;
660.9000;0.1490;-0.2851;
661.2000;0.1465;-0.2995;
661.5000;0.1563;-0.2731;
661.8000;0.1481;-0.2875;
662.1000;0.1498;-0.2803;
662.4000;0.1481;-0.2851;
662.7000;0.1449;-0.2899;
663.0000;0.1449;-0.2875;
663.3000;0.1522;-0.2636;
663.6000;0.1457;-0.2779;
663.9000;0.1457;-0.2707;
664.2000;0.1416;-0.2803;
664.5000;0.1465;-0.2684;
664.8000;0.1498;-0.2684;
665.1000;0.1465;-0.2851;
665.4000;0.1465;-0.2827;
665.7000;0.1481;-0.2827;
666.0000;0.1498;-0.2827;
666.3000;0.1425;-0.2971;
666.6000;0.1473;-0.2803;
666.9000;0.1490;-0.2827;
667.2000;0.1506;-0.2803;
667.5000;0.1490;-0.2803;
667.8000;0.1433;-0.2899;
668.1000;0.1498;-0.2731;
668.4000;0.1473;-0.2803;
668.7000;0.1465;-0.2707;
669.0000;0.1433;-0.2803;
669.3000;0.1465;-0.2684;
669.6000;0.1473;-0.2660;
669.9000;0.1498;-0.2612;
670.2000;0.1473;-0.2755;
670.5000;0.1416;-0.2803;
670.8000;0.1457;-0.2731;
671.1000;0.1473;-0.2707;
671.4000;0.1473;-0.2707;
671.7000;0.1490;-0.2684;
672.0000;0.1530;-0.2492;
672.3000;0.1457;-0.2612;
672.6000;0.1473;-0.2612;
672.9000;0.1473;-0.2660;
673.2000;0.1481;-0.2660;
673.5000;0.1473;-0.2707;
673.8000;0.1449;-0.2827;
674.1000;0.1457;-0.2827;
674.4000;0.1481;-0.2779;
674.7000;0.1490;-0.2755;
675.0000;0.1498;-0.2755;
675.3000;0.1490;-0.2755;
675.6000;0.1465;-0.2875;
675.9000;0.1481;-0.2779;
676.2000;0.1481;-0.2779;
676.5000;0.1506;-0.2731;
676.8000;0.1514;-0.2707;
677.1000;0.1473;-0.2851;
677.4000;0.1473;-0.2875;
677.7000;0.1473;-0.2803;
678.0000;0.1441;-0.2875;
678.3000;0.1473;-0.2779;
678.6000;0.1473;-0.2731;
678.9000;0.1473;-0.2779;
679.2000;0.1481;-0.2803;
679.5000;0.1457;-0.2827;
679.8000;0.1473;-0.2803;
680.1000;0.1465;-0.2803;
680.4000;0.1506;-0.2803;
680.7000;0.1465;-0.2947;
681.0000;0.1514;-0.2803;
681.3000;0.1473;-0.2971;
681.6000;0.1441;-0.2971;
681.9000;0.1400;-0.3019;
682.2000;0.1481;-0.2731;
682.5000;0.1473;-0.2779;
682.8000;0.1465;-0.2755;
683.1000;0.1481;-0.2660;
683.4000;0.1498;-0.2540;
683.7000;0.1465;-0.2588;
684.0000;0.1481;-0.2564;
684.3000;0.1490;-0.2564;
684.6000;0.1433;-0.2731;
684.9000;0.1465;-0.2755;
685.2000;0.1490;-0.2731;
685.5000;0.1449;-0.2851;
685.8000;0.1457;-0.2779;
686.1000;0.1490;-0.2707;
686.4000;0.1441;-0.2851;
686.7000;0.1465;-0.2779;
687.0000;0.1490;-0.2755;
687.3000;0.1473;-0.2827;
687.6000;0.1449;-0.2947;
687.9000;0.1351;-0.3235;
688.2000;0.1473;-0.2923;
688.5000;0.1490;-0.2803;
688.8000;0.1473;-0.2851;
689.1000;0.1481;-0.2947;
689.4000;0.1408;-0.3067;
689.7000;0.1473;-0.2875;
690.0000;0.1481;-0.2875;
690.3000;0.1473;-0.2851;
690.6000;0.1465;-0.2923;
690.9000;0.1490;-0.2851;
691.2000;0.1465;-0.2923;
691.5000;0.1473;-0.2947;
691.8000;0.1481;-0.2827;
692.1000;0.1481;-0.2827;
692.4000;0.1449;-0.2899;
692.7000;0.1465;-0.2779;
693.0000;0.1465;-0.2779;
693.3000;0.1481;-0.2684;
693.6000;0.1465;-0.2684;
693.9000;0.1457;-0.2755;
694.2000;0.1490;-0.2779;
694.5000;0.1449;-0.2851;
694.8000;0.1441;-0.2875;
695.1000;0.1465;-0.2779;
695.4000;0.1473;-0.2755;
695.7000;0.1457;-0.2779;
696.0000;0.1465;-0.2827;
696.3000;0.1465;-0.2827;
696.6000;0.1465;-0.2803;
696.9000;0.1465;-0.2899;
697.2000;0.1481;-0.2899;
697.5000;0.1481;-0.2851;
697.8000;0.1457;-0.2827;
698.1000;0.1465;-0.2827;
698.4000;0.1465;-0.2827;
698.7000;0.1473;-0.2803;
699.0000;0.1498;-0.2755;
699.3000;0.1530;-0.2707;
699.6000;0.1457;-0.2851;
699.9000;0.1473;-0.2755;
700.2000;0.1457;-0.2827;
700.5000;0.1359;-0.3019;
700.8000;0.1498;-0.2707;
701.1000;0.1465;-0.2707;
701.4000;0.1465;-0.2779;
701.7000;0.1490;-0.2684;
702.0000;0.1473;-0.2755;
702.3000;0.1490;-0.2779;
702.6000;0.1449;-0.2923;
702.9000;0.1498;-0.2731;
703.2000;0.1481;-0.2755;
703.5000;0.1473;-0.2779;
703.8000;0.1457;-0.2923;
704.1000;0.1481;-0.2851;
704.4000;0.1465;-0.2851;
704.7000;0.1465;-0.2803;
705.0000;0.1490;-0.2684;
705.3000;0.1465;-0.2731;
705.6000;0.1498;-0.2684;
705.9000;0.1465;-0.2827;
706.2000;0.1441;-0.2899;
706.5000;0.1425;-0.2971;
706.8000;0.1449;-0.2803;
707.1000;0.1457;-0.2803;
707.4000;0.1449;-0.2899;
707.7000;0.1465;-0.2947;
708.0000;0.1481;-0.2827;
708.3000;0.1490;-0.2923;
708.6000;0.1473;-0.3019;
708.9000;0.1465;-0.2947;
709.2000;0.1465;-0.2947;
709.5000;0.1506;-0.2923;
709.8000;0.1490;-0.2971;
710.1000;0.1465;-0.2971;
710.4000;0.1465;-0.2995;
710.7000;0.1473;-0.3043;
711.0000;0.1473;-0.3043;
711.3000;0.1457;-0.2995;
711.6000;0.1595;-0.2612;
711.9000;0.1449;-0.2995;
712.2000;0.1465;-0.2923;
712.5000;0.1490;-0.2803;
712.8000;0.1457;-0.2899;
713.1000;0.1481;-0.2875;
713.4000;0.1457;-0.2995;
713.7000;0.1522;-0.2827;
714.0000;0.1441;-0.3043;
714.3000;0.1498;-0.2947;
714.6000;0.1473;-0.3043;
714.9000;0.1473;-0.3019;
715.2000;0.1481;-0.2899;
715.5000;0.1473;-0.2971;
715.8000;0.1473;-0.2923;
716.1000;0.1473;-0.2875;
716.4000;0.1449;-0.2803;
716.7000;0.1449;-0.2851;
717.0000;0.1481;-0.2755;
717.3000;0.1441;-0.2851;
717.6000;0.1490;-0.2684;
717.9000;0.1473;-0.2875;
718.2000;0.1522;-0.2803;
718.5000;0.1481;-0.2875;
718.8000;0.1473;-0.2875;
719.1000;0.1465;-0.2923;
719.4000;0.1498;-0.2899;
719.7000;0.1498;-0.2971;
720.0000;0.1481;-0.3091;
720.3000;0.1465;-0.3091;
720.6000;0.1473;-0.3019;
720.9000;0.1522;-0.2899;
721.2000;0.1490;-0.2923;
721.5000;0.1481;-0.2875;
721.8000;0.1473;-0.2803;
722.1000;0.1457;-0.2851;
722.4000;0.1473;-0.2875;
722.7000;0.1473;-0.2899;
723.0000;0.1473;-0.2971;
723.3000;0.1490;-0.2947;
723.6000;0.1465;-0.2947;
723.9000;0.1473;-0.2947;
724.2000;0.1465;-0.2923;
724.5000;0.1571;-0.2516;
724.8000;0.1465;-0.2803;
725.1000;0.1473;-0.2755;
725.4000;0.1449;-0.2707;
725.7000;0.1465;-0.2707;
726.0000;0.1490;-0.2707;
726.3000;0.1473;-0.2779;
726.6000;0.1473;-0.2755;
726.9000;0.1449;-0.2803;
727.2000;0.1473;-0.2707;
727.5000;0.1473;-0.2588;
727.8000;0.1441;-0.2636;
728.1000;0.1457;-0.2636;
728.4000;0.1457;-0.2684;
728.7000;0.1465;-0.2684;
729.0000;0.1481;-0.2636;
729.3000;0.1465;-0.2660;
729.6000;0.1416;-0.2851;
729.9000;0.1457;-0.2755;
730.2000;0.1490;-0.2636;
730.5000;0.1481;-0.2564;
730.8000;0.1465;-0.2684;
731.1000;0.1481;-0.2612;
731.4000;0.1473;-0.2588;
731.7000;0.1457;-0.2636;
732.0000;0.1457;-0.2564;
732.3000;0.1465;-0.2516;
732.6000;0.1465;-0.2564;
732.9000;0.1473;-0.2564;
733.2000;0.1416;-0.2660;
733.5000;0.1498;-0.2420;
733.8000;0.1481;-0.2372;
734.1000;0.1481;-0.2444;
734.4000;0.1465;-0.2516;
734.7000;0.1441;-0.2612;
735.0000;0.1481;-0.2516;
735.3000;0.1481;-0.2564;
735.6000;0.1490;-0.2660;
735.9000;0.1441;-0.2731;
736.2000;0.1579;-0.2300;
736.5000;0.1498;-0.2492;
736.8000;0.1473;-0.2540;
737.1000;0.1490;-0.2492;
737.4000;0.1481;-0.2564;
737.7000;0.1490;-0.2540;
738.0000;0.1473;-0.2636;
738.3000;0.1481;-0.2660;
738.6000;0.1514;-0.2684;
738.9000;0.1465;-0.2660;
739.2000;0.1490;-0.2564;
739.5000;0.1457;-0.2636;
739.8000;0.1457;-0.2707;
740.1000;0.1465;-0.2731;
740.4000;0.1449;-0.2827;
740.7000;0.1449;-0.2803;
741.0000;0.1514;-0.2684;
741.3000;0.1441;-0.2779;
741.6000;0.1473;-0.2684;
741.9000;0.1473;-0.2660;
742.2000;0.1506;-0.2588;
742.5000;0.1359;-0.2947;
742.8000;0.1481;-0.2660;
743.1000;0.1473;-0.2636;
743.4000;0.1514;-0.2612;
743.7000;0.1449;-0.2779;
744.0000;0.1457;-0.2827;
744.3000;0.1473;-0.2731;
744.6000;0.1465;-0.2779;
744.9000;0.1457;-0.2803;
745.2000;0.1481;-0.2755;
745.5000;0.1481;-0.2684;
745.8000;0.1481;-0.2779;
746.1000;0.1465;-0.2827;
746.4000;0.1457;-0.2827;
746.7000;0.1481;-0.2707;
747.0000;0.1473;-0.2707;
747.3000;0.1457;-0.2707;
747.6000;0.1465;-0.2660;
747.9000;0.1465;-0.2707;
748.2000;0.1481;-0.2779;
748.5000;0.1465;-0.2755;
748.8000;0.1481;-0.2803;
749.1000;0.1473;-0.2851;
749.4000;0.1490;-0.2779;
749.7000;0.1571;-0.2516;
750.0000;0.1441;-0.2923;
750.3000;0.1473;-0.2803;
750.6000;0.1481;-0.2803;
750.9000;0.1465;-0.2851;
751.2000;0.1457;-0.2827;
751.5000;0.1473;-0.2779;
751.8000;0.1579;-0.2516;
752.1000;0.1473;-0.2731;
752.4000;0.1473;-0.2731;
752.7000;0.1506;-0.2540;
753.0000;0.1481;-0.2612;
753.3000;0.1473;-0.2684;
753.6000;0.1490;-0.2636;
753.9000;0.1465;-0.2684;
754.2000;0.1473;-0.2684;
754.5000;0.1465;-0.2684;
754.8000;0.1481;-0.2755;
755.1000;0.1465;-0.2875;
755.4000;0.1425;-0.2923;
755.7000;0.1506;-0.2684;
756.0000;0.1457;-0.2851;
756.3000;0.1449;-0.2875;
756.6000;0.1457;-0.2851;
756.9000;0.1465;-0.2923;
757.2000;0.1481;-0.2827;
757.5000;0.1465;-0.2803;
757.8000;0.1473;-0.2803;
758.1000;0.1473;-0.2803;
758.4000;0.1433;-0.2923;
758.7000;0.1465;-0.2803;
759.0000;0.1490;-0.2779;
759.3000;0.1408;-0.2947;
759.6000;0.1473;-0.2755;
759.9000;0.1481;-0.2755;
760.2000;0.1449;-0.2827;
760.5000;0.1457;-0.2851;
760.8000;0.1473;-0.2851;
761.1000;0.1441;-0.2899;
761.4000;0.1506;-0.2803;
761.7000;0.1457;-0.2923;
762.0000;0.1465;-0.2875;
762.3000;0.1473;-0.2803;
762.6000;0.1473;-0.2707;
762.9000;0.1522;-0.2636;
763.2000;0.1473;-0.2803;
763.5000;0.1473;-0.2731;
763.8000;0.1457;-0.2731;
764.1000;0.1473;-0.2660;
764.4000;0.1465;-0.2588;
764.7000;0.1498;-0.2444;
765.0000;0.1465;-0.2636;
765.3000;0.1425;-0.2779;
765.6000;0.1441;-0.2755;
765.9000;0.1465;-0.2660;
766.2000;0.1449;-0.2755;
766.5000;0.1457;-0.2707;
766.8000;0.1441;-0.2731;
767.1000;0.1473;-0.2684;
767.4000;0.1498;-0.2612;
767.7000;0.1473;-0.2588;
768.0000;0.1473;-0.2588;
768.3000;0.1473;-0.2564;
768.6000;0.1490;-0.2588;
768.9000;0.1490;-0.2540;
769.2000;0.1465;-0.2612;
769.5000;0.1563;-0.2516;
769.8000;0.1481;-0.2660;
770.1000;0.1449;-0.2803;
770.4000;0.1425;-0.2875;
770.7000;0.1441;-0.2899;
771.0000;0.1400;-0.3019;
771.3000;0.1457;-0.2875;
771.6000;0.1530;-0.2755;
771.9000;0.1473;-0.2827;
772.2000;0.1465;-0.2827;
772.5000;0.1522;-0.2755;
772.8000;0.1416;-0.2971;
773.1000;0.1547;-0.2564;
773.4000;0.1465;-0.2755;
773.7000;0.1335;-0.2995;
774.0000;0.1498;-0.2564;
774.3000;0.1465;-0.2636;
774.6000;0.1481;-0.2588;
774.9000;0.1490;-0.2636;
775.2000;0.1465;-0.2731;
775.5000;0.1457;-0.2779;
775.8000;0.1481;-0.2851;
776.1000;0.1473;-0.2875;
776.4000;0.1465;-0.2851;
776.7000;0.1441;-0.2875;
777.0000;0.1441;-0.2851;
777.3000;0.1465;-0.2731;
777.6000;0.1473;-0.2755;
777.9000;0.1368;-0.2947;
778.2000;0.1457;-0.2564;
778.5000;0.1473;-0.2588;
778.8000;0.1481;-0.2707;
779.1000;0.1490;-0.2779;
779.4000;0.1481;-0.2803;
779.7000;0.1449;-0.2827;
780.0000;0.1425;-0.2827;
780.3000;0.1490;-0.2564;
780.6000;0.1481;-0.2564;
780.9000;0.1473;-0.2684;
781.2000;0.1481;-0.2660;
781.5000;0.1465;-0.2707;
781.8000;0.1457;-0.2779;
782.1000;0.1465;-0.2707;
782.4000;0.1538;-0.2588;
782.7000;0.1465;-0.2851;
783.0000;0.1498;-0.2755;
783.3000;0.1506;-0.2707;
783.6000;0.1490;-0.2779;
783.9000;0.1465;-0.2803;
784.2000;0.1473;-0.2755;
784.5000;0.1498;-0.2707;
784.8000;0.1473;-0.2684;
785.1000;0.1481;-0.2707;
785.4000;0.1473;-0.2779;
785.7000;0.1473;-0.2755;
786.0000;0.1449;-0.2803;
786.3000;0.1473;-0.2827;
786.6000;0.1425;-0.3043;
786.9000;0.1449;-0.2899;
787.2000;0.1457;-0.2755;
787.5000;0.1392;-0.2899;
787.8000;0.1465;-0.2636;
788.1000;0.1530;-0.2588;
788.4000;0.1473;-0.2779;
788.7000;0.1425;-0.2971;
789.0000;0.1457;-0.2875;
789.3000;0.1522;-0.2684;
789.6000;0.1465;-0.2827;
789.9000;0.1465;-0.2827;
790.2000;0.1425;-0.2971;
790.5000;0.1441;-0.2899;
790.8000;0.1425;-0.2923;
791.1000;0.1498;-0.2660;
791.4000;0.1465;-0.2684;
791.7000;0.1473;-0.2684;
792.0000;0.1465;-0.2779;
792.3000;0.1587;-0.2348;
792.6000;0.1473;-0.2660;
792.9000;0.1465;-0.2660;
793.2000;0.1481;-0.2612;
793.5000;0.1481;-0.2612;
793.8000;0.1498;-0.2636;
794.1000;0.1473;-0.2660;
794.4000;0.1465;-0.2660;
794.7000;0.1465;-0.2731;
795.0000;0.1416;-0.2875;
795.3000;0.1514;-0.2612;
795.6000;0.1408;-0.2923;
795.9000;0.1490;-0.2660;
796.2000;0.1473;-0.2779;
796.5000;0.1449;-0.2851;
796.8000;0.1465;-0.2851;
797.1000;0.1481;-0.2803;
797.4000;0.1457;-0.2899;
797.7000;0.1490;-0.2779;
798.0000;0.1457;-0.2827;
798.3000;0.1473;-0.2755;
798.6000;0.1376;-0.2995;
798.9000;0.1425;-0.2899;
799.2000;0.1473;-0.2755;
799.5000;0.1481;-0.2684;
799.8000;0.1473;-0.2684;
800.1000;0.1449;-0.2779;
800.4000;0.1465;-0.2755;
800.7000;0.1481;-0.2731;
801.0000;0.1490;-0.2684;
801.3000;0.1473;-0.2779;
801.6000;0.1465;-0.2779;
801.9000;0.1498;-0.2707;
802.2000;0.1465;-0.2803;
802.5000;0.1481;-0.2755;
802.8000;0.1351;-0.3091;
803.1000;0.1457;-0.2755;
803.4000;0.1547;-0.2564;
803.7000;0.1473;-0.2803;
804.0000;0.1473;-0.2779;
804.3000;0.1490;-0.2851;
804.6000;0.1465;-0.2779;
804.9000;0.1441;-0.2731;
805.2000;0.1481;-0.2636;
805.5000;0.1449;-0.2731;
805.8000;0.1473;-0.2588;
806.1000;0.1481;-0.2468;
806.4000;0.1506;-0.2468;
806.7000;0.1490;-0.2468;
807.0000;0.1457;-0.2612;
807.3000;0.1481;-0.2660;
807.6000;0.1490;-0.2660;
807.9000;0.1473;-0.2660;
808.2000;0.1433;-0.2684;
808.5000;0.1473;-0.2636;
808.8000;0.1465;-0.2707;
809.1000;0.1441;-0.2803;
809.4000;0.1425;-0.2803;
809.7000;0.1449;-0.2851;
810.0000;0.1465;-0.2803;
810.3000;0.1481;-0.2827;
810.6000;0.1465;-0.2875;
810.9000;0.1514;-0.2731;
811.2000;0.1490;-0.2827;
811.5000;0.1473;-0.2875;
811.8000;0.1465;-0.2851;
812.1000;0.1376;-0.3067;
812.4000;0.1514;-0.2707;
812.7000;0.1408;-0.2971;
813.0000;0.1473;-0.2803;
813.3000;0.1449;-0.2779;
813.6000;0.1465;-0.2803;
813.9000;0.1449;-0.2803;
814.2000;0.1449;-0.2803;
814.5000;0.1473;-0.2755;
814.8000;0.1473;-0.2731;
815.1000;0.1481;-0.2731;
815.4000;0.1473;-0.2660;
815.7000;0.1473;-0.2612;
816.0000;0.1425;-0.2684;
816.3000;0.1473;-0.2588;
816.6000;0.1490;-0.2540;
816.9000;0.1425;-0.2707;
817.2000;0.1473;-0.2636;
817.5000;0.1465;-0.2660;
817.8000;0.1465;-0.2612;
818.1000;0.1473;-0.2660;
818.4000;0.1530;-0.2492;
818.7000;0.1481;-0.2660;
819.0000;0.1473;-0.2612;
819.3000;0.1498;-0.2612;
819.6000;0.1433;-0.2803;
819.9000;0.1473;-0.2636;
820.2000;0.1449;-0.2612;
820.5000;0.1449;-0.2684;
820.8000;0.1473;-0.2731;
821.1000;0.1490;-0.2660;
821.4000;0.1481;-0.2612;
821.7000;0.1465;-0.2636;
822.0000;0.1449;-0.2684;
822.3000;0.1465;-0.2707;
822.6000;0.1473;-0.2755;
822.9000;0.1457;-0.2803;
823.2000;0.1449;-0.2755;
823.5000;0.1465;-0.2803;
823.8000;0.1465;-0.2779;
824.1000;0.1449;-0.2827;
824.4000;0.1441;-0.2851;
824.7000;0.1465;-0.2803;
825.0000;0.1473;-0.2779;
825.3000;0.1433;-0.2947;
825.6000;0.1457;-0.2923;
825.9000;0.1465;-0.2851;
826.2000;0.1433;-0.2875;
826.5000;0.1457;-0.2779;
826.8000;0.1465;-0.2779;
827.1000;0.1465;-0.2779;
827.4000;0.1449;-0.2755;
827.7000;0.1465;-0.2707;
828.0000;0.1449;-0.2755;
828.3000;0.1425;-0.2923;
828.6000;0.1481;-0.2755;
828.9000;0.1490;-0.2707;
829.2000;0.1465;-0.2731;
829.5000;0.1473;-0.2707;
829.8000;0.1465;-0.2660;
830.1000;0.1473;-0.2588;
830.4000;0.1538;-0.2564;
830.7000;0.1457;-0.2779;
831.0000;0.1433;-0.2851;
831.3000;0.1449;-0.2779;
831.6000;0.1481;-0.2731;
831.9000;0.1465;-0.2731;
832.2000;0.1481;-0.2707;
832.5000;0.1457;-0.2851;
832.8000;0.1449;-0.2827;
833.1000;0.1538;-0.2612;
833.4000;0.1473;-0.2755;
833.7000;0.1457;-0.2827;
834.0000;0.1400;-0.3067;
834.3000;0.1473;-0.2923;
834.6000;0.1473;-0.2947;
834.9000;0.1473;-0.2947;
835.2000;0.1465;-0.2875;
835.5000;0.1465;-0.2851;
835.8000;0.1473;-0.2803;
836.1000;0.1490;-0.2779;
836.4000;0.1441;-0.2899;
836.7000;0.1473;-0.2875;
837.0000;0.1416;-0.3043;
837.3000;0.1457;-0.2971;
837.6000;0.1465;-0.3043;
837.9000;0.1538;-0.2995;
838.2000;0.1506;-0.3043;
838.5000;0.1490;-0.3019;
838.8000;0.1473;-0.2971;
839.1000;0.1457;-0.2947;
839.4000;0.1473;-0.2947;
839.7000;0.1457;-0.3019;
840.0000;0.1441;-0.3043;
840.3000;0.1465;-0.2995;
840.6000;0.1481;-0.2851;
840.9000;0.1465;-0.2851;
841.2000;0.1449;-0.2923;
841.5000;0.1425;-0.3019;
841.8000;0.1473;-0.2875;
842.1000;0.1465;-0.2875;
842.4000;0.1465;-0.2779;
842.7000;0.1457;-0.2755;
843.0000;0.1449;-0.2755;
843.3000;0.1481;-0.2707;
843.6000;0.1506;-0.2660;
843.9000;0.1465;-0.2827;
844.2000;0.1465;-0.2851;
844.5000;0.1457;-0.2803;
844.8000;0.1457;-0.2923;
845.1000;0.1490;-0.2899;
845.4000;0.1465;-0.2971;
845.7000;0.1359;-0.3306;
846.0000;0.1473;-0.3019;
846.3000;0.1465;-0.3019;
846.6000;0.1425;-0.3139;
846.9000;0.1449;-0.3043;
847.2000;0.1457;-0.3019;
847.5000;0.1457;-0.2947;
847.8000;0.1514;-0.2731;
848.1000;0.1473;-0.2947;
848.4000;0.1465;-0.2899;
848.7000;0.1465;-0.2803;
849.0000;0.1465;-0.2851;
849.3000;0.1449;-0.2899;
849.6000;0.1473;-0.2803;
849.9000;0.1481;-0.2803;
850.2000;0.1571;-0.2540;
850.5000;0.1481;-0.2851;
850.8000;0.1490;-0.2851;
851.1000;0.1481;-0.2899;
851.4000;0.1481;-0.2875;
851.7000;0.1449;-0.2971;
852.0000;0.1449;-0.2923;
852.3000;0.1506;-0.2779;
852.6000;0.1457;-0.2947;
852.9000;0.1457;-0.2923;
853.2000;0.1473;-0.2947;
853.5000;0.1473;-0.2947;
853.8000;0.1481;-0.2875;
854.1000;0.1473;-0.2803;
854.4000;0.1473;-0.2851;
854.7000;0.1449;-0.2875;
855.0000;0.1498;-0.2731;
855.3000;0.1473;-0.2827;
855.6000;0.1465;-0.2827;
855.9000;0.1465;-0.2851;
856.2000;0.1465;-0.2803;
856.5000;0.1441;-0.2899;
856.8000;0.1481;-0.2779;
857.1000;0.1473;-0.2827;
857.4000;0.1351;-0.3115;
857.7000;0.1465;-0.2779;
858.0000;0.1481;-0.2779;
858.3000;0.1481;-0.2803;
858.6000;0.1335;-0.3187;
858.9000;0.1473;-0.2899;
859.2000;0.1473;-0.2947;
859.5000;0.1547;-0.2779;
859.8000;0.1465;-0.3019;
860.1000;0.1571;-0.2684;
860.4000;0.1473;-0.2875;
860.7000;0.1595;-0.2588;
861.0000;0.1473;-0.2827;
861.3000;0.1457;-0.2779;
861.6000;0.1449;-0.2803;
861.9000;0.1457;-0.2803;
862.2000;0.1465;-0.2731;
862.5000;0.1457;-0.2731;
862.8000;0.1498;-0.2636;
863.1000;0.1473;-0.2803;
863.4000;0.1465;-0.2803;
863.7000;0.1441;-0.2755;
864.0000;0.1481;-0.2588;
864.3000;0.1538;-0.2420;
864.6000;0.1433;-0.2827;
864.9000;0.1481;-0.2707;
865.2000;0.1465;-0.2755;
865.5000;0.1441;-0.2875;
865.8000;0.1481;-0.2707;
866.1000;0.1457;-0.2827;
866.4000;0.1473;-0.2875;
866.7000;0.1449;-0.2947;
867.0000;0.1449;-0.2971;
867.3000;0.1473;-0.2995;
867.6000;0.1457;-0.3019;
867.9000;0.1465;-0.2947;
868.2000;0.1481;-0.2923;
868.5000;0.1449;-0.2947;
868.8000;0.1498;-0.2899;
869.1000;0.1481;-0.2875;
869.4000;0.1473;-0.2899;
869.7000;0.1506;-0.2899;
870.0000;0.1490;-0.2947;
870.3000;0.1465;-0.2923;
870.6000;0.1498;-0.2923;
870.9000;0.1481;-0.3019;
871.2000;0.1457;-0.3163;
871.5000;0.1490;-0.3019;
871.8000;0.1465;-0.3091;
872.1000;0.1473;-0.3091;
872.4000;0.1481;-0.3019;
872.7000;0.1433;-0.3139;
873.0000;0.1481;-0.3019;
873.3000;0.1465;-0.3019;
873.6000;0.1465;-0.3043;
873.9000;0.1457;-0.2947;
874.2000;0.1530;-0.2779;
874.5000;0.1465;-0.2899;
874.8000;0.1481;-0.2851;
875.1000;0.1465;-0.2851;
875.4000;0.1473;-0.2827;
875.7000;0.1571;-0.2468;
876.0000;0.1490;-0.2707;
876.3000;0.1481;-0.2803;
876.6000;0.1490;-0.2755;
876.9000;0.1490;-0.2707;
877.2000;0.1481;-0.2755;
877.5000;0.1473;-0.2755;
877.8000;0.1473;-0.2827;
878.1000;0.1473;-0.2803;
878.4000;0.1457;-0.2731;
878.7000;0.1473;-0.2684;
879.0000;0.1465;-0.2803;
879.3000;0.1473;-0.2827;
879.6000;0.1473;-0.2875;
879.9000;0.1473;-0.2827;
880.2000;0.1465;-0.2755;
880.5000;0.1449;-0.2803;
880.8000;0.1465;-0.2707;
881.1000;0.1481;-0.2684;
881.4000;0.1481;-0.2684;
881.7000;0.1473;-0.2707;
882.0000;0.1506;-0.2636;
882.3000;0.1481;-0.2779;
882.6000;0.1481;-0.2707;
882.9000;0.1441;-0.2827;
883.2000;0.1490;-0.2684;
883.5000;0.1481;-0.2660;
883.8000;0.1498;-0.2660;
884.1000;0.1465;-0.2779;
884.4000;0.1449;-0.2803;
884.7000;0.1449;-0.2923;
885.0000;0.1457;-0.2899;
885.3000;0.1465;-0.2875;
885.6000;0.1473;-0.2779;
885.9000;0.1547;-0.2636;
886.2000;0.1490;-0.2684;
886.5000;0.1473;-0.2684;
886.8000;0.1490;-0.2660;
887.1000;0.1490;-0.2731;
887.4000;0.1400;-0.3019;
887.7000;0.1522;-0.2731;
888.0000;0.1457;-0.2947;
888.3000;0.1425;-0.3043;
888.6000;0.1465;-0.2875;
888.9000;0.1481;-0.2803;
889.2000;0.1457;-0.2851;
889.5000;0.1481;-0.2779;
889.8000;0.1481;-0.2803;
890.1000;0.1465;-0.2803;
890.4000;0.1449;-0.2851;
890.7000;0.1441;-0.2875;
891.0000;0.1481;-0.2875;
891.3000;0.1465;-0.2971;
891.6000;0.1473;-0.3019;
891.9000;0.1449;-0.3019;
892.2000;0.1465;-0.2899;
892.5000;0.1481;-0.2803;
892.8000;0.1465;-0.2875;
893.1000;0.1465;-0.2851;
893.4000;0.1473;-0.2827;
893.7000;0.1465;-0.2875;
894.0000;0.1473;-0.2875;
894.3000;0.1457;-0.2875;
894.6000;0.1473;-0.2827;
894.9000;0.1473;-0.2779;
895.2000;0.1465;-0.2899;
895.5000;0.1481;-0.2779;
895.8000;0.1481;-0.2779;
896.1000;0.1473;-0.2803;
896.4000;0.1490;-0.2707;
896.7000;0.1473;-0.2803;
897.0000;0.1465;-0.2779;
897.3000;0.1457;-0.2875;
897.6000;0.1465;-0.2875;
897.9000;0.1481;-0.2851;
898.2000;0.1473;-0.2851;
898.5000;0.1465;-0.2875;
898.8000;0.1465;-0.2803;
899.1000;0.1465;-0.2851;
899.4000;0.1465;-0.2875;
899.7000;0.1490;-0.2827;
900.0000;0.1473;-0.2875;
900.3000;0.1473;-0.2851;
900.6000;0.1425;-0.2875;
900.9000;0.1457;-0.2851;
901.2000;0.1522;-0.2803;
901.5000;0.1465;-0.2971;
901.8000;0.1449;-0.2971;
902.1000;0.1465;-0.2971;
902.4000;0.1457;-0.2995;
902.7000;0.1473;-0.2995;
903.0000;0.1465;-0.3019;
903.3000;0.1465;-0.3019;
903.6000;0.1514;-0.2851;
903.9000;0.1441;-0.3019;
904.2000;0.1465;-0.2995;
904.5000;0.1465;-0.2971;
904.8000;0.1473;-0.2995;
905.1000;0.1473;-0.2971;
905.4000;0.1465;-0.2995;
905.7000;0.1490;-0.2971;
906.0000;0.1465;-0.3043;
906.3000;0.1457;-0.2995;
906.6000;0.1490;-0.2971;
906.9000;0.1457;-0.3067;
907.2000;0.1481;-0.3043;
907.5000;0.1384;-0.3235;
907.8000;0.1384;-0.3211;
908.1000;0.1465;-0.2875;
908.4000;0.1457;-0.2923;
908.7000;0.1481;-0.2995;
909.0000;0.1457;-0.3043;
909.3000;0.1465;-0.3091;
909.6000;0.1514;-0.2923;
909.9000;0.1506;-0.2851;
910.2000;0.1457;-0.2947;
910.5000;0.1481;-0.2851;
910.8000;0.1449;-0.2875;
911.1000;0.1465;-0.2899;
911.4000;0.1400;-0.3067;
911.7000;0.1465;-0.2971;
912.0000;0.1481;-0.2947;
912.3000;0.1449;-0.3139;
912.6000;0.1465;-0.3067;
912.9000;0.1498;-0.2995;
913.2000;0.1498;-0.2923;
913.5000;0.1441;-0.2995;
913.8000;0.1465;-0.2971;
914.1000;0.1441;-0.2995;
914.4000;0.1490;-0.2899;
914.7000;0.1400;-0.3067;
915.0000;0.1465;-0.2995;
915.3000;0.1457;-0.2923;
915.6000;0.1473;-0.2851;
915.9000;0.1457;-0.2803;
916.2000;0.1465;-0.2899;
916.5000;0.1465;-0.2899;
916.8000;0.1490;-0.2827;
917.1000;0.1457;-0.2947;
917.4000;0.1481;-0.2899;
917.7000;0.1457;-0.2899;
918.0000;0.1465;-0.2875;
918.3000;0.1481;-0.2923;
918.6000;0.1490;-0.2851;
918.9000;0.1498;-0.2875;
919.2000;0.1490;-0.2827;
919.5000;0.1465;-0.2851;
919.8000;0.1490;-0.2755;
920.1000;0.1473;-0.2707;
920.4000;0.1563;-0.2444;
920.7000;0.1473;-0.2755;
921.0000;0.1473;-0.2803;
921.3000;0.1441;-0.2899;
921.6000;0.1449;-0.2923;
921.9000;0.1473;-0.2947;
922.2000;0.1498;-0.2779;
922.5000;0.1473;-0.2947;
922.8000;0.1547;-0.2779;
923.1000;0.1473;-0.3019;
923.4000;0.1498;-0.2971;
923.7000;0.1473;-0.2923;
924.0000;0.1481;-0.3019;
924.3000;0.1490;-0.2995;
924.6000;0.1490;-0.2923;
924.9000;0.1473;-0.2995;
925.2000;0.1465;-0.3019;
925.5000;0.1481;-0.2995;
925.8000;0.1465;-0.2971;
926.1000;0.1473;-0.2923;
926.4000;0.1481;-0.2707;
926.7000;0.1481;-0.2755;
927.0000;0.1595;-0.2492;
927.3000;0.1465;-0.2875;
927.6000;0.1457;-0.2947;
927.9000;0.1457;-0.2995;
928.2000;0.1555;-0.2779;
928.5000;0.1481;-0.2947;
928.8000;0.1538;-0.2779;
929.1000;0.1514;-0.2899;
929.4000;0.1425;-0.3019;
929.7000;0.1498;-0.2851;
930.0000;0.1473;-0.2899;
930.3000;0.1473;-0.2899;
930.6000;0.1465;-0.2923;
930.9000;0.1473;-0.2995;
931.2000;0.1425;-0.3163;
931.5000;0.1465;-0.3091;
931.8000;0.1457;-0.3067;
932.1000;0.1473;-0.3043;
932.4000;0.1473;-0.3043;
932.7000;0.1481;-0.3019;
933.0000;0.1457;-0.3115;
933.3000;0.1400;-0.3235;
933.6000;0.1449;-0.3091;
933.9000;0.1441;-0.3187;
934.2000;0.1457;-0.3043;
934.5000;0.1449;-0.3019;
934.8000;0.1490;-0.2923;
935.1000;0.1473;-0.3091;
935.4000;0.1481;-0.2899;
935.7000;0.1465;-0.3019;
936.0000;0.1465;-0.3139;
936.3000;0.1473;-0.3043;
936.6000;0.1481;-0.3043;
936.9000;0.1457;-0.3043;
937.2000;0.1449;-0.3091;
937.5000;0.1473;-0.2971;
937.8000;0.1457;-0.3067;
938.1000;0.1490;-0.3043;
938.4000;0.1481;-0.2923;
938.7000;0.1473;-0.2971;
939.0000;0.1441;-0.3139;
939.3000;0.1465;-0.2995;
939.6000;0.1481;-0.3043;
939.9000;0.1498;-0.2971;
940.2000;0.1490;-0.3043;
940.5000;0.1473;-0.3091;
940.8000;0.1481;-0.3067;
941.1000;0.1465;-0.3043;
941.4000;0.1481;-0.3019;
941.7000;0.1473;-0.3067;
942.0000;0.1473;-0.3067;
942.3000;0.1490;-0.2971;
942.6000;0.1465;-0.3043;
942.9000;0.1441;-0.3139;
943.2000;0.1473;-0.3019;
943.5000;0.1449;-0.3115;
943.8000;0.1433;-0.3187;
944.1000;0.1579;-0.2803;
944.4000;0.1449;-0.3211;
944.7000;0.1384;-0.3354;
945.0000;0.1514;-0.3091;
945.3000;0.1473;-0.3211;
945.6000;0.1473;-0.3211;
945.9000;0.1506;-0.3019;
946.2000;0.1416;-0.3235;
946.5000;0.1465;-0.3211;
946.8000;0.1481;-0.3259;
947.1000;0.1530;-0.3115;
947.4000;0.1392;-0.3498;
947.7000;0.1490;-0.3211;
948.0000;0.1449;-0.3283;
948.3000;0.1522;-0.3019;
948.6000;0.1433;-0.3187;
948.9000;0.1465;-0.3139;
949.2000;0.1449;-0.3091;
949.5000;0.1498;-0.2923;
949.8000;0.1481;-0.2995;
950.1000;0.1473;-0.2995;
950.4000;0.1473;-0.3067;
950.7000;0.1457;-0.3091;
951.0000;0.1408;-0.3187;
951.3000;0.1473;-0.3043;
951.6000;0.1481;-0.2971;
951.9000;0.1449;-0.3043;
952.2000;0.1457;-0.3043;
952.5000;0.1449;-0.3067;
952.8000;0.1473;-0.2995;
953.1000;0.1465;-0.3043;
953.4000;0.1490;-0.3043;
953.7000;0.1490;-0.3139;
954.0000;0.1457;-0.3235;
954.3000;0.1457;-0.3259;
954.6000;0.1473;-0.3211;
954.9000;0.1441;-0.3283;
955.2000;0.1433;-0.3283;
955.5000;0.1481;-0.3091;
955.8000;0.1465;-0.3139;
956.1000;0.1498;-0.3091;
956.4000;0.1473;-0.3139;
956.7000;0.1473;-0.3187;
957.0000;0.1481;-0.3091;
957.3000;0.1457;-0.3139;
957.6000;0.1457;-0.3115;
957.9000;0.1465;-0.3019;
958.2000;0.1473;-0.2971;
958.5000;0.1449;-0.3043;
958.8000;0.1457;-0.2923;
959.1000;0.1465;-0.2947;
959.4000;0.1449;-0.3019;
959.7000;0.1473;-0.2995;
960.0000;0.1465;-0.3019;
960.3000;0.1481;-0.2995;
960.6000;0.1481;-0.3067;
960.9000;0.1490;-0.3067;
961.2000;0.1449;-0.3139;
961.5000;0.1449;-0.3187;
961.8000;0.1473;-0.3187;
962.1000;0.1490;-0.3139;
962.4000;0.1457;-0.3283;
962.7000;0.1457;-0.3330;
963.0000;0.1490;-0.3235;
963.3000;0.1473;-0.3259;
963.6000;0.1473;-0.3235;
963.9000;0.1481;-0.3235;
964.2000;0.1473;-0.3211;
964.5000;0.1465;-0.3187;
964.8000;0.1465;-0.3163;
965.1000;0.1457;-0.3211;
965.4000;0.1481;-0.3115;
965.7000;0.1465;-0.3211;
966.0000;0.1473;-0.3211;
966.3000;0.1481;-0.3259;
966.6000;0.1449;-0.3259;
966.9000;0.1449;-0.3283;
967.2000;0.1441;-0.3378;
967.5000;0.1481;-0.3259;
967.8000;0.1473;-0.3235;
968.1000;0.1473;-0.3211;
968.4000;0.1473;-0.3187;
968.7000;0.1481;-0.3235;
969.0000;0.1498;-0.3115;
969.3000;0.1465;-0.3187;
969.6000;0.1481;-0.3115;
969.9000;0.1465;-0.3163;
970.2000;0.1441;-0.3283;
970.5000;0.1473;-0.3091;
970.8000;0.1473;-0.3019;
971.1000;0.1441;-0.3163;
971.4000;0.1465;-0.3163;
971.7000;0.1473;-0.3139;
972.0000;0.1481;-0.3067;
972.3000;0.1481;-0.3115;
972.6000;0.1433;-0.3163;
972.9000;0.1473;-0.3091;
973.2000;0.1457;-0.3163;
973.5000;0.1465;-0.3211;
973.8000;0.1465;-0.3163;
974.1000;0.1522;-0.3019;
974.4000;0.1449;-0.3187;
974.7000;0.1457;-0.3163;
975.0000;0.1465;-0.3067;
975.3000;0.1457;-0.3163;
975.6000;0.1457;-0.3211;
975.9000;0.1490;-0.3091;
976.2000;0.1449;-0.3235;
976.5000;0.1481;-0.3139;
976.8000;0.1449;-0.3115;
977.1000;0.1433;-0.3067;
977.4000;0.1538;-0.2827;
977.7000;0.1457;-0.2971;
978.0000;0.1490;-0.2947;
978.3000;0.1498;-0.2827;
978.6000;0.1490;-0.2899;
978.9000;0.1490;-0.2923;
979.2000;0.1473;-0.2875;
979.5000;0.1465;-0.2851;
979.8000;0.1481;-0.2827;
980.1000;0.1490;-0.2875;
980.4000;0.1465;-0.2899;
980.7000;0.1416;-0.3043;
981.0000;0.1457;-0.2875;
981.3000;0.1465;-0.2875;
981.6000;0.1473;-0.2827;
981.9000;0.1530;-0.2684;
982.2000;0.1449;-0.3019;
982.5000;0.1465;-0.2947;
982.8000;0.1441;-0.2899;
983.1000;0.1473;-0.2875;
983.4000;0.1457;-0.2947;
983.7000;0.1457;-0.2899;
984.0000;0.1465;-0.2875;
984.3000;0.1449;-0.3019;
984.6000;0.1473;-0.2947;
984.9000;0.1473;-0.2923;
985.2000;0.1465;-0.2995;
985.5000;0.1473;-0.3019;
985.8000;0.1449;-0.3067;
986.1000;0.1465;-0.3163;
986.4000;0.1465;-0.3163;
986.7000;0.1457;-0.3163;
987.0000;0.1465;-0.3139;
987.3000;0.1481;-0.3091;
987.6000;0.1457;-0.3115;
987.9000;0.1498;-0.2947;
988.2000;0.1490;-0.2923;
988.5000;0.1473;-0.2923;
988.8000;0.1490;-0.2851;
989.1000;0.1490;-0.2803;
989.4000;0.1392;-0.3067;
989.7000;0.1465;-0.2995;
990.0000;0.1457;-0.2947;
990.3000;0.1465;-0.2947;
990.6000;0.1514;-0.2851;
990.9000;0.1457;-0.3019;
991.2000;0.1465;-0.3019;
991.5000;0.1473;-0.3019;
991.8000;0.1481;-0.3067;
992.1000;0.1441;-0.3235;
992.4000;0.1465;-0.3091;
992.7000;0.1465;-0.3139;
993.0000;0.1465;-0.3019;
993.3000;0.1465;-0.2995;
993.6000;0.1555;-0.2755;
993.9000;0.1473;-0.2995;
994.2000;0.1465;-0.3067;
994.5000;0.1465;-0.3067;
994.8000;0.1490;-0.2947;
995.1000;0.1481;-0.3019;
995.4000;0.1571;-0.2779;
995.7000;0.1473;-0.3019;
996.0000;0.1457;-0.3019;
996.3000;0.1481;-0.2995;
996.6000;0.1481;-0.2971;
996.9000;0.1465;-0.2971;
997.2000;0.1457;-0.2995;
997.5000;0.1473;-0.2995;
997.8000;0.1473;-0.2947;
998.1000;0.1563;-0.2684;
998.4000;0.1465;-0.2899;
998.7000;0.1441;-0.2947;
999.0000;0.1465;-0.2947;
999.3000;0.1473;-0.3019;
999.6000;0.1490;-0.3043;
999.9000;0.1368;-0.3378;
1000.2000;0.1416;-0.3283;
1000.5000;0.1498;-0.3043;
1000.8000;0.1449;-0.3163;
1001.1000;0.1457;-0.3163;
1001.4000;0.1498;-0.3019;
1001.7000;0.1465;-0.3091;
1002.0000;0.1490;-0.2995;
1002.3000;0.1351;-0.3378;
1002.6000;0.1490;-0.2947;
1002.9000;0.1481;-0.2971;
1003.2000;0.1490;-0.2995;
1003.5000;0.1392;-0.3211;
1003.8000;0.1465;-0.3019;
1004.1000;0.1490;-0.2947;
1004.4000;0.1506;-0.2947;
1004.7000;0.1490;-0.3067;
1005.0000;0.1473;-0.3043;
1005.3000;0.1433;-0.3067;
1005.6000;0.1481;-0.2995;
1005.9000;0.1481;-0.2971;
1006.2000;0.1465;-0.2947;
1006.5000;0.1530;-0.2731;
1006.8000;0.1457;-0.2971;
1007.1000;0.1441;-0.3043;
1007.4000;0.1473;-0.3019;
1007.7000;0.1465;-0.3115;
1008.0000;0.1457;-0.3043;
1008.3000;0.1473;-0.3019;
1008.6000;0.1465;-0.3067;
1008.9000;0.1473;-0.3115;
1009.2000;0.1457;-0.3211;
1009.5000;0.1481;-0.3115;
1009.8000;0.1473;-0.3115;
1010.1000;0.1449;-0.3115;
1010.4000;0.1465;-0.3139;
1010.7000;0.1481;-0.3163;
1011.0000;0.1473;-0.3115;
1011.3000;0.1457;-0.3067;
1011.6000;0.1465;-0.3091;
1011.9000;0.1473;-0.3019;
1012.2000;0.1473;-0.3067;
1012.5000;0.1457;-0.3139;
1012.8000;0.1498;-0.3043;
1013.1000;0.1457;-0.3091;
1013.4000;0.1457;-0.3139;
1013.7000;0.1473;-0.3139;
1014.0000;0.1457;-0.3163;
1014.3000;0.1473;-0.3091;
1014.6000;0.1465;-0.3115;
1014.9000;0.1457;-0.3115;
1015.2000;0.1481;-0.3043;
1015.5000;0.1465;-0.3019;
1015.8000;0.1481;-0.2995;
1016.1000;0.1473;-0.3019;
1016.4000;0.1465;-0.2971;
1016.7000;0.1441;-0.2995;
1017.0000;0.1465;-0.3067;
1017.3000;0.1481;-0.3067;
1017.6000;0.1368;-0.3378;
1017.9000;0.1473;-0.3067;
1018.2000;0.1465;-0.3115;
1018.5000;0.1498;-0.2995;
1018.8000;0.1481;-0.2947;
1019.1000;0.1473;-0.2971;
1019.4000;0.1506;-0.2803;
1019.7000;0.1473;-0.2947;
1020.0000;0.1433;-0.2971;
1020.3000;0.1473;-0.2779;
1020.6000;0.1465;-0.2851;
1020.9000;0.1506;-0.2660;
1021.2000;0.1481;-0.2755;
1021.5000;0.1473;-0.2755;
1021.8000;0.1473;-0.2731;
1022.1000;0.1449;-0.2923;
1022.4000;0.1465;-0.2851;
1022.7000;0.1473;-0.2803;
1023.0000;0.1530;-0.2612;
1023.3000;0.1498;-0.2707;
1023.6000;0.1465;-0.2755;
1023.9000;0.1327;-0.3211;
1024.2000;0.1457;-0.2827;
1024.5000;0.1465;-0.2779;
1024.8000;0.1457;-0.2660;
1025.1000;0.1481;-0.2588;
1025.4000;0.1465;-0.2636;
1025.7000;0.1481;-0.2684;
1026.0000;0.1481;-0.2731;
1026.3000;0.1481;-0.2779;
1026.6000;0.1473;-0.2851;
1026.9000;0.1498;-0.2875;
1027.2000;0.1465;-0.2971;
1027.5000;0.1465;-0.2947;
1027.8000;0.1498;-0.2851;
1028.1000;0.1465;-0.2875;
1028.4000;0.1425;-0.2995;
1028.7000;0.1481;-0.2851;
1029.0000;0.1457;-0.2947;
1029.3000;0.1441;-0.3019;
1029.6000;0.1547;-0.2755;
1029.9000;0.1449;-0.3043;
1030.2000;0.1473;-0.2995;
1030.5000;0.1481;-0.3115;
1030.8000;0.1473;-0.3187;
1031.1000;0.1490;-0.3091;
1031.4000;0.1457;-0.3187;
1031.7000;0.1490;-0.3139;
1032.0000;0.1481;-0.3163;
1032.3000;0.1498;-0.3115;
1032.6000;0.1481;-0.3139;
1032.9000;0.1490;-0.3163;
1033.2000;0.1457;-0.3163;
1033.5000;0.1473;-0.3139;
1033.8000;0.1457;-0.3187;
1034.1000;0.1490;-0.3091;
1034.4000;0.1481;-0.3115;
1034.7000;0.1465;-0.3163;
1035.0000;0.1449;-0.3163;
1035.3000;0.1473;-0.3115;
1035.6000;0.1490;-0.3163;
1035.9000;0.1481;-0.3163;
1036.2000;0.1433;-0.3235;
1036.5000;0.1490;-0.3043;
1036.8000;0.1490;-0.2995;
1037.1000;0.1465;-0.3043;
1037.4000;0.1481;-0.3043;
1037.7000;0.1473;-0.2995;
1038.0000;0.1473;-0.2971;
1038.3000;0.1481;-0.2947;
1038.6000;0.1473;-0.2971;
1038.9000;0.1376;-0.3187;
1039.2000;0.1473;-0.2971;
1039.5000;0.1490;-0.2923;
1039.8000;0.1449;-0.2899;
1040.1000;0.1457;-0.2899;
1040.4000;0.1506;-0.2731;
1040.7000;0.1481;-0.2827;
1041.0000;0.1473;-0.2827;
1041.3000;0.1473;-0.2851;
1041.6000;0.1384;-0.3115;
1041.9000;0.1400;-0.3043;
1042.2000;0.1465;-0.2899;
1042.5000;0.1400;-0.3139;
1042.8000;0.1449;-0.2971;
1043.1000;0.1481;-0.2851;
1043.4000;0.1514;-0.2875;
1043.7000;0.1473;-0.2947;
1044.0000;0.1498;-0.2827;
1044.3000;0.1473;-0.2851;
1044.6000;0.1595;-0.2564;
1044.9000;0.1416;-0.2995;
1045.2000;0.1473;-0.2923;
1045.5000;0.1481;-0.2875;
1045.8000;0.1481;-0.2827;
1046.1000;0.1473;-0.2851;
1046.4000;0.1481;-0.2755;
1046.7000;0.1473;-0.2803;
1047.0000;0.1441;-0.2851;
1047.3000;0.1465;-0.2827;
1047.6000;0.1465;-0.2803;
1047.9000;0.1449;-0.2899;
1048.2000;0.1481;-0.2899;
1048.5000;0.1490;-0.2851;
1048.8000;0.1465;-0.2899;
1049.1000;0.1530;-0.2707;
1049.4000;0.1465;-0.2827;
1049.7000;0.1465;-0.2731;
1050.0000;0.1457;-0.2827;
1050.3000;0.1465;-0.2827;
1050.6000;0.1465;-0.2827;
1050.9000;0.1449;-0.2851;
1051.2000;0.1481;-0.2851;
1051.5000;0.1498;-0.2851;
1051.8000;0.1490;-0.2851;
1052.1000;0.1465;-0.2875;
1052.4000;0.1473;-0.2899;
1052.7000;0.1449;-0.2899;
1053.0000;0.1457;-0.2923;
1053.3000;0.1473;-0.2947;
1053.6000;0.1473;-0.2827;
1053.9000;0.1457;-0.2875;
1054.2000;0.1457;-0.2923;
1054.5000;0.1473;-0.2827;
1054.8000;0.1465;-0.2779;
1055.1000;0.1449;-0.2803;
1055.4000;0.1457;-0.2731;
1055.7000;0.1457;-0.2707;
1056.0000;0.1514;-0.2636;
1056.3000;0.1473;-0.2731;
1056.6000;0.1579;-0.2468;
1056.9000;0.1473;-0.2707;
1057.2000;0.1481;-0.2660;
1057.5000;0.1481;-0.2755;
1057.8000;0.1473;-0.2755;
1058.1000;0.1465;-0.2827;
1058.4000;0.1506;-0.2803;
1058.7000;0.1473;-0.2803;
1059.0000;0.1473;-0.2779;
1059.3000;0.1449;-0.2827;
1059.6000;0.1465;-0.2803;
1059.9000;0.1481;-0.2803;
1060.2000;0.1473;-0.2779;
1060.5000;0.1441;-0.2899;
1060.8000;0.1457;-0.2803;
1061.1000;0.1433;-0.2899;
1061.4000;0.1384;-0.2971;
1061.7000;0.1465;-0.2707;
1062.0000;0.1425;-0.2899;
1062.3000;0.1416;-0.2947;
1062.6000;0.1457;-0.2875;
1062.9000;0.1457;-0.2803;
1063.2000;0.1457;-0.2707;
1063.5000;0.1457;-0.2707;
1063.8000;0.1473;-0.2636;
1064.1000;0.1555;-0.2420;
1064.4000;0.1473;-0.2588;
1064.7000;0.1522;-0.2540;
1065.0000;0.1449;-0.2684;
1065.3000;0.1490;-0.2660;
1065.6000;0.1465;-0.2707;
1065.9000;0.1457;-0.2731;
1066.2000;0.1473;-0.2636;
1066.5000;0.1465;-0.2707;
1066.8000;0.1473;-0.2803;
1067.1000;0.1465;-0.2899;
1067.4000;0.1490;-0.2851;
1067.7000;0.1481;-0.2851;
1068.0000;0.1481;-0.2851;
1068.3000;0.1457;-0.2971;
1068.6000;0.1473;-0.2803;
1068.9000;0.1481;-0.2731;
1069.2000;0.1473;-0.2779;
1069.5000;0.1457;-0.2755;
1069.8000;0.1481;-0.2707;
1070.1000;0.1490;-0.2779;
1070.4000;0.1465;-0.2851;
1070.7000;0.1473;-0.2875;
1071.0000;0.1457;-0.2899;
1071.3000;0.1481;-0.2923;
1071.6000;0.1473;-0.2995;
1071.9000;0.1457;-0.3043;
1072.2000;0.1457;-0.3067;
1072.5000;0.1473;-0.2995;
1072.8000;0.1498;-0.2947;
1073.1000;0.1433;-0.3115;
1073.4000;0.1457;-0.3043;
1073.7000;0.1465;-0.2899;
1074.0000;0.1498;-0.2827;
1074.3000;0.1465;-0.2899;
1074.6000;0.1416;-0.2971;
1074.9000;0.1490;-0.2875;
1075.2000;0.1473;-0.2875;
1075.5000;0.1538;-0.2660;
1075.8000;0.1465;-0.2803;
1076.1000;0.1441;-0.2875;
1076.4000;0.1457;-0.2851;
1076.7000;0.1473;-0.2947;
1077.0000;0.1457;-0.2899;
1077.3000;0.1473;-0.2755;
1077.6000;0.1481;-0.2731;
1077.9000;0.1498;-0.2731;
1078.2000;0.1498;-0.2803;
1078.5000;0.1465;-0.2851;
1078.8000;0.1498;-0.2851;
1079.1000;0.1473;-0.3019;
1079.4000;0.1481;-0.3019;
1079.7000;0.1465;-0.3115;
1080.0000;0.1490;-0.2995;
1080.3000;0.1473;-0.3019;
1080.6000;0.1473;-0.3091;
1080.9000;0.1449;-0.3115;
1081.2000;0.1449;-0.3139;
1081.5000;0.1473;-0.3067;
1081.8000;0.1441;-0.3091;
1082.1000;0.1457;-0.2971;
1082.4000;0.1433;-0.3043;
1082.7000;0.1473;-0.2947;
1083.0000;0.1408;-0.3091;
1083.3000;0.1465;-0.2827;
1083.6000;0.1457;-0.2947;
1083.9000;0.1457;-0.2875;
1084.2000;0.1481;-0.2779;
1084.5000;0.1457;-0.2779;
1084.8000;0.1465;-0.2947;
1085.1000;0.1425;-0.3115;
1085.4000;0.1490;-0.3019;
1085.7000;0.1465;-0.3019;
1086.0000;0.1441;-0.3115;
1086.3000;0.1498;-0.2947;
1086.6000;0.1465;-0.2995;
1086.9000;0.1465;-0.2875;
1087.2000;0.1506;-0.2755;
1087.5000;0.1449;-0.2875;
1087.8000;0.1465;-0.2875;
1088.1000;0.1457;-0.2827;
1088.4000;0.1530;-0.2636;
1088.7000;0.1457;-0.2851;
1089.0000;0.1449;-0.2875;
1089.3000;0.1449;-0.2875;
1089.6000;0.1473;-0.2803;
1089.9000;0.1465;-0.2803;
1090.2000;0.1473;-0.2827;
1090.5000;0.1481;-0.2947;
1090.8000;0.1473;-0.2971;
1091.1000;0.1400;-0.3211;
1091.4000;0.1465;-0.2995;
1091.7000;0.1473;-0.2971;
1092.0000;0.1555;-0.2731;
1092.3000;0.1490;-0.2923;
1092.6000;0.1457;-0.2995;
1092.9000;0.1473;-0.2875;
1093.2000;0.1473;-0.2899;
1093.5000;0.1441;-0.2971;
1093.8000;0.1343;-0.3259;
1094.1000;0.1473;-0.2923;
1094.4000;0.1449;-0.2875;
1094.7000;0.1473;-0.2875;
1095.0000;0.1498;-0.2779;
1095.3000;0.1400;-0.2995;
1095.6000;0.1457;-0.2851;
1095.9000;0.1441;-0.2995;
1096.2000;0.1465;-0.2947;
1096.5000;0.1604;-0.2588;
1096.8000;0.1506;-0.2803;
1097.1000;0.1490;-0.2779;
1097.4000;0.1441;-0.2947;
1097.7000;0.1473;-0.2827;
1098.0000;0.1384;-0.3043;
1098.3000;0.1595;-0.2444;
1098.6000;0.1400;-0.2923;
1098.9000;0.1457;-0.2803;
1099.2000;0.1481;-0.2707;
1099.5000;0.1490;-0.2612;
1099.8000;0.1408;-0.2827;
1100.1000;0.1465;-0.2731;
1100.4000;0.1481;-0.2636;
1100.7000;0.1481;-0.2731;
1101.0000;0.1473;-0.2755;
1101.3000;0.1465;-0.2851;
1101.6000;0.1449;-0.2851;
1101.9000;0.1465;-0.2851;
1102.2000;0.1481;-0.2779;
1102.5000;0.1457;-0.2851;
1102.8000;0.1449;-0.2875;
1103.1000;0.1457;-0.2923;
1103.4000;0.1465;-0.2923;
1103.7000;0.1490;-0.2899;
1104.0000;0.1465;-0.3019;
1104.3000;0.1481;-0.2995;
1104.6000;0.1433;-0.3163;
1104.9000;0.1473;-0.3019;
1105.2000;0.1441;-0.3067;
1105.5000;0.1457;-0.2995;
1105.8000;0.1481;-0.2923;
1106.1000;0.1490;-0.2899;
1106.4000;0.1457;-0.2971;
1106.7000;0.1473;-0.2899;
1107.0000;0.1490;-0.2875;
1107.3000;0.1465;-0.2851;
1107.6000;0.1457;-0.2827;
1107.9000;0.1481;-0.2827;
1108.2000;0.1490;-0.2923;
1108.5000;0.1465;-0.2899;
1108.8000;0.1465;-0.2851;
1109.1000;0.1400;-0.3019;
1109.4000;0.1457;-0.2923;
1109.7000;0.1457;-0.2971;
1110.0000;0.1481;-0.2971;
1110.3000;0.1465;-0.3091;
1110.6000;0.1465;-0.3091;
1110.9000;0.1587;-0.2755;
1111.2000;0.1555;-0.2803;
1111.5000;0.1538;-0.2827;
1111.8000;0.1465;-0.3067;
1112.1000;0.1457;-0.3043;
1112.4000;0.1457;-0.3019;
1112.7000;0.1506;-0.2899;
1113.0000;0.1473;-0.2947;
1113.3000;0.1465;-0.2947;
1113.6000;0.1481;-0.2851;
1113.9000;0.1481;-0.2779;
1114.2000;0.1514;-0.2755;
1114.5000;0.1530;-0.2755;
1114.8000;0.1514;-0.2779;
1115.1000;0.1465;-0.2971;
1115.4000;0.1473;-0.3019;
1115.7000;0.1465;-0.3091;
1116.0000;0.1449;-0.3163;
1116.3000;0.1473;-0.3091;
1116.6000;0.1416;-0.3211;
1116.9000;0.1351;-0.3426;
1117.2000;0.1449;-0.3211;
1117.5000;0.1465;-0.3211;
1117.8000;0.1522;-0.3043;
1118.1000;0.1449;-0.3211;
1118.4000;0.1473;-0.3043;
1118.7000;0.1514;-0.2923;
1119.0000;0.1473;-0.3091;
1119.3000;0.1433;-0.3211;
1119.6000;0.1473;-0.3091;
1119.9000;0.1506;-0.3043;
1120.2000;0.1481;-0.3115;
1120.5000;0.1481;-0.2995;
1120.8000;0.1473;-0.3067;
1121.1000;0.1481;-0.3019;
1121.4000;0.1473;-0.3043;
1121.7000;0.1465;-0.3139;
1122.0000;0.1392;-0.3306;
1122.3000;0.1538;-0.2851;
1122.6000;0.1473;-0.2947;
1122.9000;0.1473;-0.2923;
1123.2000;0.1481;-0.2851;
1123.5000;0.1457;-0.2923;
1123.8000;0.1465;-0.2899;
1124.1000;0.1473;-0.2947;
1124.4000;0.1490;-0.2923;
1124.7000;0.1481;-0.2971;
1125.0000;0.1457;-0.2971;
1125.3000;0.1481;-0.2971;
1125.6000;0.1481;-0.2947;
1125.9000;0.1465;-0.2995;
1126.2000;0.1473;-0.2947;
1126.5000;0.1473;-0.2923;
1126.8000;0.1473;-0.2947;
1127.1000;0.1473;-0.2971;
1127.4000;0.1481;-0.2995;
1127.7000;0.1465;-0.3019;
1128.0000;0.1490;-0.2947;
1128.3000;0.1473;-0.2995;
1128.6000;0.1490;-0.2995;
1128.9000;0.1449;-0.3115;
1129.2000;0.1465;-0.3067;
1129.5000;0.1441;-0.3259;
1129.8000;0.1457;-0.3235;
1130.1000;0.1457;-0.3187;
1130.4000;0.1498;-0.3019;
1130.7000;0.1368;-0.3306;
1131.0000;0.1457;-0.3043;
1131.3000;0.1368;-0.3283;
1131.6000;0.1465;-0.3019;
1131.9000;0.1254;-0.3546;
1132.2000;0.1522;-0.2947;
1132.5000;0.1473;-0.3115;
1132.8000;0.1433;-0.3115;
1133.1000;0.1571;-0.2731;
1133.4000;0.1481;-0.2875;
1133.7000;0.1473;-0.2851;
1134.0000;0.1392;-0.2995;
1134.3000;0.1481;-0.2731;
1134.6000;0.1481;-0.2779;
1134.9000;0.1490;-0.2851;
1135.2000;0.1465;-0.2923;
1135.5000;0.1498;-0.2875;
1135.8000;0.1490;-0.3043;
1136.1000;0.1425;-0.3163;
1136.4000;0.1433;-0.3163;
1136.7000;0.1384;-0.3378;
1137.0000;0.1538;-0.2851;
1137.3000;0.1465;-0.2947;
1137.6000;0.1555;-0.2660;
1137.9000;0.1514;-0.2995;
1138.2000;0.1384;-0.3306;
1138.5000;0.1425;-0.3211;
1138.8000;0.1522;-0.2971;
1139.1000;0.1433;-0.3211;
1139.4000;0.1457;-0.3163;
1139.7000;0.1490;-0.3019;
1140.0000;0.1530;-0.2803;
1140.3000;0.1465;-0.2947;
1140.6000;0.1441;-0.3067;
1140.9000;0.1490;-0.2971;
1141.2000;0.1481;-0.2899;
1141.5000;0.1433;-0.3019;
1141.8000;0.1441;-0.2971;
1142.1000;0.1465;-0.2971;
1142.4000;0.1449;-0.3067;
1142.7000;0.1473;-0.2971;
1143.0000;0.1498;-0.2947;
1143.3000;0.1449;-0.3067;
1143.6000;0.1481;-0.2971;
1143.9000;0.1473;-0.2947;
1144.2000;0.1498;-0.2947;
1144.5000;0.1498;-0.2923;
1144.8000;0.1441;-0.2995;
1145.1000;0.1473;-0.2899;
1145.4000;0.1457;-0.2899;
1145.7000;0.1481;-0.2827;
1146.0000;0.1473;-0.2875;
1146.3000;0.1465;-0.2899;
1146.6000;0.1449;-0.2923;
1146.9000;0.1441;-0.3019;
1147.2000;0.1449;-0.2947;
1147.5000;0.1481;-0.2899;
1147.8000;0.1465;-0.2971;
1148.1000;0.1473;-0.2923;
1148.4000;0.1449;-0.3043;
1148.7000;0.1457;-0.3019;
1149.0000;0.1490;-0.2923;
1149.3000;0.1457;-0.2947;
1149.6000;0.1449;-0.2875;
1149.9000;0.1473;-0.2779;
1150.2000;0.1473;-0.2755;
1150.5000;0.1465;-0.2755;
1150.8000;0.1449;-0.2755;
1151.1000;0.1481;-0.2660;
1151.4000;0.1481;-0.2684;
1151.7000;0.1449;-0.2803;
1152.0000;0.1498;-0.2588;
1152.3000;0.1465;-0.2755;
1152.6000;0.1473;-0.2755;
1152.9000;0.1465;-0.2731;
1153.2000;0.1490;-0.2731;
1153.5000;0.1465;-0.2731;
1153.8000;0.1449;-0.2875;
1154.1000;0.1449;-0.2923;
1154.4000;0.1490;-0.2779;
1154.7000;0.1481;-0.2875;
1155.0000;0.1530;-0.2779;
1155.3000;0.1498;-0.2851;
1155.6000;0.1481;-0.2971;
1155.9000;0.1547;-0.2875;
1156.2000;0.1555;-0.2803;
1156.5000;0.1490;-0.2995;
1156.8000;0.1400;-0.3187;
1157.1000;0.1595;-0.2636;
1157.4000;0.1465;-0.2971;
1157.7000;0.1441;-0.2971;
1158.0000;0.1465;-0.2851;
1158.3000;0.1481;-0.2851;
1158.6000;0.1481;-0.2851;
1158.9000;0.1457;-0.2827;
1159.2000;0.1433;-0.2899;
1159.5000;0.1490;-0.2684;
1159.8000;0.1506;-0.2660;
1160.1000;0.1490;-0.2779;
1160.4000;0.1473;-0.2755;
1160.7000;0.1473;-0.2779;
1161.0000;0.1457;-0.2827;
1161.3000;0.1481;-0.2755;
1161.6000;0.1465;-0.2803;
1161.9000;0.1441;-0.2851;
1162.2000;0.1465;-0.2803;
1162.5000;0.1473;-0.2803;
1162.8000;0.1506;-0.2731;
1163.1000;0.1335;-0.3139;
1163.4000;0.1408;-0.2995;
1163.7000;0.1457;-0.2803;
1164.0000;0.1473;-0.2707;
1164.3000;0.1498;-0.2684;
1164.6000;0.1481;-0.2731;
1164.9000;0.1498;-0.2731;
1165.2000;0.1473;-0.2707;
1165.5000;0.1481;-0.2707;
1165.8000;0.1473;-0.2755;
1166.1000;0.1457;-0.2851;
1166.4000;0.1473;-0.2827;
1166.7000;0.1473;-0.2827;
1167.0000;0.1481;-0.2779;
1167.3000;0.1481;-0.2731;
1167.6000;0.1465;-0.2731;
1167.9000;0.1465;-0.2660;
1168.2000;0.1465;-0.2612;
1168.5000;0.1465;-0.2612;
1168.8000;0.1473;-0.2660;
1169.1000;0.1465;-0.2636;
1169.4000;0.1465;-0.2612;
1169.7000;0.1473;-0.2612;
1170.0000;0.1473;-0.2636;
1170.3000;0.1490;-0.2612;
1170.6000;0.1465;-0.2612;
1170.9000;0.1481;-0.2540;
1171.2000;0.1473;-0.2564;
1171.5000;0.1465;-0.2540;
1171.8000;0.1457;-0.2564;
1172.1000;0.1457;-0.2540;
1172.4000;0.1490;-0.2564;
1172.7000;0.1473;-0.2731;
1173.0000;0.1490;-0.2684;
1173.3000;0.1457;-0.2755;
1173.6000;0.1481;-0.2779;
1173.9000;0.1449;-0.2899;
1174.2000;0.1481;-0.2803;
1174.5000;0.1473;-0.2827;
1174.8000;0.1490;-0.2755;
1175.1000;0.1506;-0.2707;
1175.4000;0.1449;-0.2851;
1175.7000;0.1506;-0.2731;
1176.0000;0.1547;-0.2755;
1176.3000;0.1441;-0.2923;
1176.6000;0.1465;-0.2875;
1176.9000;0.1457;-0.2899;
1177.2000;0.1506;-0.2731;
1177.5000;0.1465;-0.2851;
1177.8000;0.1449;-0.2899;
1178.1000;0.1425;-0.2827;
1178.4000;0.1473;-0.2899;
1178.7000;0.1563;-0.2612;
1179.0000;0.1408;-0.3115;
1179.3000;0.1506;-0.2923;
1179.6000;0.1506;-0.3019;
1179.9000;0.1481;-0.3019;
1180.2000;0.1441;-0.3043;
1180.5000;0.1465;-0.2947;
1180.8000;0.1473;-0.2851;
1181.1000;0.1416;-0.3019;
1181.4000;0.1270;-0.3426;
1181.7000;0.1449;-0.2923;
1182.0000;0.1368;-0.3115;
1182.3000;0.1408;-0.3043;
1182.6000;0.1359;-0.3163;
1182.9000;0.1457;-0.2851;
1183.2000;0.1514;-0.2684;
1183.5000;0.1514;-0.2684;
1183.8000;0.1465;-0.2851;
1184.1000;0.1400;-0.2971;
1184.4000;0.1465;-0.2827;
1184.7000;0.1481;-0.2684;
1185.0000;0.1465;-0.2731;
1185.3000;0.1457;-0.2755;
1185.6000;0.1465;-0.2803;
1185.9000;0.1473;-0.2779;
1186.2000;0.1547;-0.2540;
1186.5000;0.1457;-0.2707;
1186.8000;0.1457;-0.2707;
1187.1000;0.1457;-0.2731;
1187.4000;0.1473;-0.2731;
1187.7000;0.1498;-0.2612;
1188.0000;0.1465;-0.2684;
1188.3000;0.1481;-0.2684;
1188.6000;0.1490;-0.2684;
1188.9000;0.1490;-0.2636;
1189.2000;0.1481;-0.2660;
1189.5000;0.1481;-0.2588;
1189.8000;0.1481;-0.2636;
1190.1000;0.1465;-0.2827;
1190.4000;0.1473;-0.2899;
1190.7000;0.1473;-0.2923;
1191.0000;0.1473;-0.2899;
1191.3000;0.1457;-0.2875;
1191.6000;0.1473;-0.2851;
1191.9000;0.1449;-0.2803;
1192.2000;0.1481;-0.2731;
1192.5000;0.1481;-0.2731;
1192.8000;0.1490;-0.2636;
1193.1000;0.1441;-0.2803;
1193.4000;0.1465;-0.2707;
1193.7000;0.1481;-0.2612;
1194.0000;0.1465;-0.2636;
1194.3000;0.1498;-0.2612;
1194.6000;0.1481;-0.2684;
1194.9000;0.1481;-0.2707;
1195.2000;0.1481;-0.2779;
1195.5000;0.1457;-0.2875;
1195.8000;0.1449;-0.2851;
1196.1000;0.1465;-0.2755;
1196.4000;0.1481;-0.2684;
1196.7000;0.1620;-0.2300;
1197.0000;0.1465;-0.2731;
1197.3000;0.1465;-0.2707;
1197.6000;0.1481;-0.2612;
1197.9000;0.1490;-0.2516;
1198.2000;0.1465;-0.2564;
1198.5000;0.1498;-0.2540;
1198.8000;0.1506;-0.2612;
1199.1000;0.1498;-0.2684;
1199.4000;0.1449;-0.2707;
1199.7000;0.1481;-0.2660;
1200.0000;0.1473;-0.2803;
1200.3000;0.1481;-0.2707;
1200.6000;0.1473;-0.2731;
1200.9000;0.1457;-0.2803;
1201.2000;0.1449;-0.2731;
1201.5000;0.1481;-0.2660;
1201.8000;0.1473;-0.2636;
1202.1000;0.1473;-0.2707;
1202.4000;0.1473;-0.2707;
1202.7000;0.1522;-0.2588;
1203.0000;0.1473;-0.2779;
1203.3000;0.1457;-0.2851;
1203.6000;0.1425;-0.2995;
1203.9000;0.1481;-0.2707;
1204.2000;0.1465;-0.2707;
1204.5000;0.1408;-0.2731;
1204.8000;0.1473;-0.2612;
1205.1000;0.1416;-0.2755;
1205.4000;0.1425;-0.2731;
1205.7000;0.1351;-0.2923;
1206.0000;0.1457;-0.2660;
1206.3000;0.1465;-0.2636;
1206.6000;0.1368;-0.2947;
1206.9000;0.1481;-0.2612;
1207.2000;0.1359;-0.2875;
1207.5000;0.1457;-0.2660;
1207.8000;0.1465;-0.2684;
1208.1000;0.1473;-0.2684;
1208.4000;0.1498;-0.2612;
1208.7000;0.1473;-0.2660;
1209.0000;0.1473;-0.2779;
1209.3000;0.1473;-0.2779;
1209.6000;0.1465;-0.2827;
1209.9000;0.1457;-0.2923;
1210.2000;0.1473;-0.2875;
1210.5000;0.1490;-0.2827;
1210.8000;0.1408;-0.2971;
1211.1000;0.1465;-0.2827;
1211.4000;0.1481;-0.2779;
1211.7000;0.1416;-0.2827;
1212.0000;0.1457;-0.2588;
1212.3000;0.1490;-0.2612;
1212.6000;0.1457;-0.2731;
1212.9000;0.1441;-0.2755;
1213.2000;0.1490;-0.2684;
1213.5000;0.1490;-0.2660;
1213.8000;0.1473;-0.2684;
1214.1000;0.1506;-0.2707;
1214.4000;0.1538;-0.2588;
1214.7000;0.1449;-0.2779;
1215.0000;0.1449;-0.2875;
1215.3000;0.1481;-0.2851;
1215.6000;0.1433;-0.2971;
1215.9000;0.1490;-0.2875;
1216.2000;0.1481;-0.2971;
1216.5000;0.1449;-0.3019;
1216.8000;0.1490;-0.2875;
1217.1000;0.1473;-0.2779;
1217.4000;0.1449;-0.2851;
1217.7000;0.1538;-0.2612;
1218.0000;0.1465;-0.2755;
1218.3000;0.1449;-0.2827;
1218.6000;0.1481;-0.2827;
1218.9000;0.1465;-0.2827;
1219.2000;0.1465;-0.2779;
1219.5000;0.1473;-0.2731;
1219.8000;0.1465;-0.2731;
1220.1000;0.1473;-0.2636;
1220.4000;0.1400;-0.2923;
1220.7000;0.1400;-0.2899;
1221.0000;0.1473;-0.2684;
1221.3000;0.1465;-0.2731;
1221.6000;0.1538;-0.2492;
1221.9000;0.1481;-0.2612;
1222.2000;0.1465;-0.2660;
1222.5000;0.1473;-0.2731;
1222.8000;0.1481;-0.2707;
1223.1000;0.1473;-0.2731;
1223.4000;0.1473;-0.2803;
1223.7000;0.1490;-0.2851;
1224.0000;0.1473;-0.2827;
1224.3000;0.1481;-0.2755;
1224.6000;0.1481;-0.2660;
1224.9000;0.1465;-0.2684;
1225.2000;0.1481;-0.2636;
1225.5000;0.1465;-0.2588;
1225.8000;0.1481;-0.2588;
1226.1000;0.1441;-0.2684;
1226.4000;0.1465;-0.2707;
1226.7000;0.1465;-0.2684;
1227.0000;0.1473;-0.2660;
1227.3000;0.1465;-0.2731;
1227.6000;0.1465;-0.2684;
1227.9000;0.1457;-0.2755;
1228.2000;0.1563;-0.2420;
1228.5000;0.1498;-0.2803;
1228.8000;0.1441;-0.2899;
1229.1000;0.1498;-0.2707;
1229.4000;0.1457;-0.2803;
1229.7000;0.1465;-0.2803;
1230.0000;0.1433;-0.2803;
1230.3000;0.1465;-0.2684;
1230.6000;0.1457;-0.2684;
1230.9000;0.1465;-0.2755;
1231.2000;0.1571;-0.2420;
1231.5000;0.1465;-0.2779;
1231.8000;0.1400;-0.2947;
1232.1000;0.1457;-0.2707;
1232.4000;0.1473;-0.2636;
1232.7000;0.1498;-0.2660;
1233.0000;0.1530;-0.2588;
1233.3000;0.1449;-0.2827;
1233.6000;0.1433;-0.2851;
1233.9000;0.1465;-0.2755;
1234.2000;0.1490;-0.2731;
1234.5000;0.1473;-0.2803;
1234.8000;0.1473;-0.2827;
1235.1000;0.1433;-0.2923;
1235.4000;0.1441;-0.2827;
1235.7000;0.1441;-0.2827;
1236.0000;0.1465;-0.2803;
1236.3000;0.1506;-0.2707;
1236.6000;0.1433;-0.2947;
1236.9000;0.1481;-0.2827;
1237.2000;0.1457;-0.2755;
1237.5000;0.1498;-0.2636;
1237.8000;0.1481;-0.2684;
1238.1000;0.1457;-0.2707;
1238.4000;0.1465;-0.2684;
1238.7000;0.1481;-0.2731;
1239.0000;0.1465;-0.2827;
1239.3000;0.1473;-0.2803;
1239.6000;0.1465;-0.2851;
1239.9000;0.1473;-0.2923;
1240.2000;0.1457;-0.2995;
1240.5000;0.1473;-0.2947;
1240.8000;0.1465;-0.2995;
1241.1000;0.1473;-0.2923;
1241.4000;0.1465;-0.2851;
1241.7000;0.1481;-0.2803;
1242.0000;0.1506;-0.2779;
1242.3000;0.1506;-0.2803;
1242.6000;0.1408;-0.3139;
1242.9000;0.1457;-0.3067;
1243.2000;0.1490;-0.2995;
1243.5000;0.1457;-0.3115;
1243.8000;0.1449;-0.3115;
1244.1000;0.1473;-0.3043;
1244.4000;0.1457;-0.3091;
1244.7000;0.1433;-0.3091;
1245.0000;0.1465;-0.2875;
1245.3000;0.1457;-0.2827;
1245.6000;0.1465;-0.2755;
1245.9000;0.1465;-0.2660;
1246.2000;0.1473;-0.2684;
1246.5000;0.1457;-0.2779;
1246.8000;0.1441;-0.2875;
1247.1000;0.1481;-0.2803;
1247.4000;0.1457;-0.2995;
1247.7000;0.1522;-0.2803;
1248.0000;0.1465;-0.2851;
1248.3000;0.1571;-0.2444;
1248.6000;0.1563;-0.2492;
1248.9000;0.1563;-0.2492;
1249.2000;0.1473;-0.2731;
1249.5000;0.1425;-0.2947;
1249.8000;0.1400;-0.3019;
1250.1000;0.1441;-0.2803;
1250.4000;0.1563;-0.2564;
1250.7000;0.1473;-0.2779;
1251.0000;0.1457;-0.2684;
1251.3000;0.1400;-0.2803;
1251.6000;0.1563;-0.2444;
1251.9000;0.1473;-0.2636;
1252.2000;0.1465;-0.2731;
1252.5000;0.1490;-0.2827;
1252.8000;0.1490;-0.2851;
1253.1000;0.1547;-0.2660;
1253.4000;0.1481;-0.2875;
1253.7000;0.1416;-0.3019;
1254.0000;0.1490;-0.2899;
1254.3000;0.1473;-0.2995;
1254.6000;0.1457;-0.2995;
1254.9000;0.1465;-0.2923;
1255.2000;0.1449;-0.2971;
1255.5000;0.1465;-0.2947;
1255.8000;0.1457;-0.2995;
1256.1000;0.1465;-0.2947;
1256.4000;0.1449;-0.2971;
1256.7000;0.1481;-0.2803;
1257.0000;0.1351;-0.3091;
1257.3000;0.1465;-0.2827;
1257.6000;0.1490;-0.2755;
1257.9000;0.1473;-0.2779;
1258.2000;0.1490;-0.2803;
1258.5000;0.1465;-0.2899;
1258.8000;0.1473;-0.2851;
1259.1000;0.1465;-0.2923;
1259.4000;0.1465;-0.2827;
1259.7000;0.1465;-0.2875;
1260.0000;0.1457;-0.2779;
1260.3000;0.1465;-0.2803;
1260.6000;0.1465;-0.2707;
1260.9000;0.1465;-0.2684;
1261.2000;0.1481;-0.2636;
1261.5000;0.1465;-0.2636;
1261.8000;0.1473;-0.2588;
1262.1000;0.1465;-0.2516;
1262.4000;0.1490;-0.2516;
1262.7000;0.1465;-0.2588;
1263.0000;0.1473;-0.2564;
1263.3000;0.1481;-0.2564;
1263.6000;0.1376;-0.2851;
1263.9000;0.1465;-0.2684;
1264.2000;0.1457;-0.2731;
1264.5000;0.1490;-0.2707;
1264.8000;0.1473;-0.2707;
1265.1000;0.1465;-0.2731;
1265.4000;0.1465;-0.2755;
1265.7000;0.1465;-0.2779;
1266.0000;0.1433;-0.2899;
1266.3000;0.1457;-0.2827;
1266.6000;0.1465;-0.2779;
1266.9000;0.1473;-0.2755;
1267.2000;0.1481;-0.2731;
1267.5000;0.1498;-0.2707;
1267.8000;0.1506;-0.2684;
1268.1000;0.1481;-0.2707;
1268.4000;0.1457;-0.2684;
1268.7000;0.1457;-0.2660;
1269.0000;0.1473;-0.2660;
1269.3000;0.1490;-0.2636;
1269.6000;0.1449;-0.2684;
1269.9000;0.1514;-0.2564;
1270.2000;0.1416;-0.2803;
1270.5000;0.1465;-0.2660;
1270.8000;0.1457;-0.2684;
1271.1000;0.1473;-0.2684;
1271.4000;0.1449;-0.2731;
1271.7000;0.1465;-0.2660;
1272.0000;0.1465;-0.2612;
1272.3000;0.1433;-0.2684;
1272.6000;0.1473;-0.2468;
1272.9000;0.1465;-0.2564;
1273.2000;0.1465;-0.2684;
1273.5000;0.1465;-0.2660;
1273.8000;0.1481;-0.2588;
1274.1000;0.1473;-0.2636;
1274.4000;0.1465;-0.2636;
1274.7000;0.1490;-0.2540;
1275.0000;0.1465;-0.2588;
1275.3000;0.1465;-0.2636;
1275.6000;0.1433;-0.2731;
1275.9000;0.1433;-0.2755;
1276.2000;0.1457;-0.2779;
1276.5000;0.1473;-0.2779;
1276.8000;0.1465;-0.2851;
1277.1000;0.1449;-0.2875;
1277.4000;0.1449;-0.2947;
1277.7000;0.1481;-0.2899;
1278.0000;0.1465;-0.2851;
1278.3000;0.1481;-0.2875;
1278.6000;0.1481;-0.2851;
1278.9000;0.1449;-0.2875;
1279.2000;0.1465;-0.2875;
1279.5000;0.1481;-0.2875;
1279.8000;0.1384;-0.2995;
1280.1000;0.1481;-0.2803;
1280.4000;0.1490;-0.2803;
1280.7000;0.1473;-0.2875;
1281.0000;0.1473;-0.2923;
1281.3000;0.1481;-0.2827;
1281.6000;0.1481;-0.2851;
1281.9000;0.1441;-0.2899;
1282.2000;0.1465;-0.2803;
1282.5000;0.1481;-0.2779;
1282.8000;0.1457;-0.2803;
1283.1000;0.1465;-0.2803;
1283.4000;0.1522;-0.2660;
1283.7000;0.1473;-0.2803;
1284.0000;0.1465;-0.2875;
1284.3000;0.1457;-0.2803;
1284.6000;0.1465;-0.2755;
1284.9000;0.1473;-0.2803;
1285.2000;0.1481;-0.2803;
1285.5000;0.1490;-0.2779;
1285.8000;0.1449;-0.2851;
1286.1000;0.1473;-0.2755;
1286.4000;0.1449;-0.2803;
1286.7000;0.1457;-0.2803;
1287.0000;0.1473;-0.2779;
1287.3000;0.1465;-0.2851;
1287.6000;0.1473;-0.2779;
1287.9000;0.1416;-0.2875;
1288.2000;0.1457;-0.2803;
1288.5000;0.1351;-0.3067;
1288.8000;0.1449;-0.2899;
1289.1000;0.1498;-0.2731;
1289.4000;0.1473;-0.2803;
1289.7000;0.1465;-0.2755;
1290.0000;0.1530;-0.2564;
1290.3000;0.1465;-0.2731;
1290.6000;0.1473;-0.2827;
1290.9000;0.1457;-0.2803;
1291.2000;0.1449;-0.2755;
1291.5000;0.1490;-0.2684;
1291.8000;0.1441;-0.2803;
1292.1000;0.1465;-0.2755;
1292.4000;0.1465;-0.2827;
1292.7000;0.1457;-0.2803;
1293.0000;0.1481;-0.2827;
1293.3000;0.1457;-0.2851;
1293.6000;0.1473;-0.2803;
1293.9000;0.1481;-0.2755;
1294.2000;0.1433;-0.2851;
1294.5000;0.1465;-0.2779;
1294.8000;0.1481;-0.2779;
1295.1000;0.1457;-0.2803;
1295.4000;0.1457;-0.2803;
1295.7000;0.1514;-0.2707;
1296.0000;0.1457;-0.2923;
1296.3000;0.1473;-0.2923;
1296.6000;0.1465;-0.2923;
1296.9000;0.1425;-0.3019;
1297.2000;0.1449;-0.2995;
1297.5000;0.1449;-0.3043;
1297.8000;0.1473;-0.2995;
1298.1000;0.1473;-0.2971;
1298.4000;0.1473;-0.2899;
1298.7000;0.1400;-0.2947;
1299.0000;0.1490;-0.2684;
1299.3000;0.1595;-0.2324;
1299.6000;0.1473;-0.2636;
1299.9000;0.1465;-0.2660;
1300.2000;0.1498;-0.2707;
1300.5000;0.1498;-0.2779;
1300.8000;0.1441;-0.2755;
1301.1000;0.1425;-0.2755;
1301.4000;0.1433;-0.2803;
1301.7000;0.1457;-0.2779;
1302.0000;0.1473;-0.2755;
1302.3000;0.1433;-0.2851;
1302.6000;0.1457;-0.2851;
1302.9000;0.1457;-0.2827;
1303.2000;0.1481;-0.2827;
1303.5000;0.1481;-0.2779;
1303.8000;0.1465;-0.2899;
1304.1000;0.1530;-0.2707;
1304.4000;0.1490;-0.2779;
1304.7000;0.1473;-0.2779;
1305.0000;0.1473;-0.2707;
1305.3000;0.1457;-0.2827;
1305.6000;0.1481;-0.2731;
1305.9000;0.1473;-0.2731;
1306.2000;0.1490;-0.2731;
1306.5000;0.1481;-0.2779;
1306.8000;0.1457;-0.2803;
1307.1000;0.1473;-0.2779;
1307.4000;0.1481;-0.2684;
1307.7000;0.1457;-0.2684;
1308.0000;0.1490;-0.2684;
1308.3000;0.1457;-0.2755;
1308.6000;0.1457;-0.2731;
1308.9000;0.1465;-0.2731;
1309.2000;0.1481;-0.2707;
1309.5000;0.1449;-0.2779;
1309.8000;0.1465;-0.2707;
1310.1000;0.1441;-0.2779;
1310.4000;0.1530;-0.2516;
1310.7000;0.1457;-0.2684;
1311.0000;0.1400;-0.2803;
1311.3000;0.1465;-0.2684;
1311.6000;0.1473;-0.2636;
1311.9000;0.1400;-0.2875;
1312.2000;0.1433;-0.2851;
1312.5000;0.1481;-0.2755;
1312.8000;0.1473;-0.2779;
1313.1000;0.1473;-0.2779;
1313.4000;0.1587;-0.2372;
1313.7000;0.1490;-0.2660;
1314.0000;0.1473;-0.2684;
1314.3000;0.1457;-0.2731;
1314.6000;0.1376;-0.2899;
1314.9000;0.1506;-0.2540;
1315.2000;0.1481;-0.2636;
1315.5000;0.1465;-0.2660;
1315.8000;0.1457;-0.2707;
1316.1000;0.1481;-0.2684;
1316.4000;0.1481;-0.2707;
1316.7000;0.1465;-0.2803;
1317.0000;0.1473;-0.2803;
1317.3000;0.1473;-0.2779;
1317.6000;0.1384;-0.2923;
1317.9000;0.1433;-0.2707;
1318.2000;0.1473;-0.2684;
1318.5000;0.1473;-0.2612;
1318.8000;0.1465;-0.2588;
1319.1000;0.1481;-0.2588;
1319.4000;0.1465;-0.2684;
1319.7000;0.1465;-0.2755;
1320.0000;0.1465;-0.2660;
1320.3000;0.1465;-0.2660;
1320.6000;0.1457;-0.2660;
1320.9000;0.1441;-0.2707;
1321.2000;0.1490;-0.2636;
1321.5000;0.1457;-0.2707;
1321.8000;0.1465;-0.2684;
1322.1000;0.1555;-0.2492;
1322.4000;0.1490;-0.2660;
1322.7000;0.1490;-0.2636;
1323.0000;0.1449;-0.2731;
1323.3000;0.1441;-0.2827;
1323.6000;0.1530;-0.2588;
1323.9000;0.1490;-0.2779;
1324.2000;0.1441;-0.2923;
1324.5000;0.1481;-0.2851;
1324.8000;0.1441;-0.2827;
1325.1000;0.1449;-0.2755;
1325.4000;0.1473;-0.2803;
1325.7000;0.1473;-0.2803;
1326.0000;0.1530;-0.2684;
1326.3000;0.1473;-0.2875;
1326.6000;0.1481;-0.2827;
1326.9000;0.1465;-0.2899;
1327.2000;0.1457;-0.2947;
1327.5000;0.1465;-0.2851;
1327.8000;0.1490;-0.2803;
1328.1000;0.1376;-0.3091;
1328.4000;0.1465;-0.2851;
1328.7000;0.1490;-0.2731;
1329.0000;0.1498;-0.2684;
1329.3000;0.1473;-0.2660;
1329.6000;0.1465;-0.2660;
1329.9000;0.1441;-0.2851;
1330.2000;0.1441;-0.2899;
1330.5000;0.1441;-0.2803;
1330.8000;0.1481;-0.2707;
1331.1000;0.1498;-0.2707;
1331.4000;0.1481;-0.2827;
1331.7000;0.1473;-0.2827;
1332.0000;0.1498;-0.2779;
1332.3000;0.1457;-0.2803;
1332.6000;0.1481;-0.2803;
1332.9000;0.1498;-0.2707;
1333.2000;0.1465;-0.2875;
1333.5000;0.1481;-0.2803;
1333.8000;0.1433;-0.2923;
1334.1000;0.1481;-0.2827;
1334.4000;0.1465;-0.2851;
1334.7000;0.1457;-0.2875;
1335.0000;0.1433;-0.2923;
1335.3000;0.1490;-0.2851;
1335.6000;0.1376;-0.3235;
1335.9000;0.1465;-0.2995;
1336.2000;0.1506;-0.2899;
1336.5000;0.1473;-0.3019;
1336.8000;0.1490;-0.2995;
1337.1000;0.1490;-0.3067;
1337.4000;0.1481;-0.3187;
1337.7000;0.1481;-0.3019;
1338.0000;0.1473;-0.2899;
1338.3000;0.1481;-0.2971;
1338.6000;0.1457;-0.3043;
1338.9000;0.1433;-0.3067;
1339.2000;0.1465;-0.3115;
1339.5000;0.1490;-0.3043;
1339.8000;0.1522;-0.2851;
1340.1000;0.1376;-0.3115;
1340.4000;0.1473;-0.2851;
1340.7000;0.1359;-0.3091;
1341.0000;0.1473;-0.2731;
1341.3000;0.1457;-0.2827;
1341.6000;0.1473;-0.2684;
1341.9000;0.1449;-0.2803;
1342.2000;0.1490;-0.2755;
1342.5000;0.1465;-0.2899;
1342.8000;0.1465;-0.2971;
1343.1000;0.1522;-0.2779;
1343.4000;0.1465;-0.2875;
1343.7000;0.1530;-0.2779;
1344.0000;0.1481;-0.2899;
1344.3000;0.1425;-0.3043;
1344.6000;0.1481;-0.2875;
1344.9000;0.1457;-0.2899;
1345.2000;0.1465;-0.2899;
1345.5000;0.1514;-0.2731;
1345.8000;0.1490;-0.2779;
1346.1000;0.1490;-0.2803;
1346.4000;0.1465;-0.2875;
1346.7000;0.1457;-0.2971;
1347.0000;0.1465;-0.2971;
1347.3000;0.1481;-0.2875;
1347.6000;0.1441;-0.3043;
1347.9000;0.1473;-0.3043;
1348.2000;0.1457;-0.3019;
1348.5000;0.1473;-0.2923;
1348.8000;0.1481;-0.2947;
1349.1000;0.1416;-0.3091;
1349.4000;0.1449;-0.3043;
1349.7000;0.1481;-0.2971;
1350.0000;0.1490;-0.2971;
1350.3000;0.1473;-0.2995;
1350.6000;0.1473;-0.2971;
1350.9000;0.1449;-0.3091;
1351.2000;0.1449;-0.3067;
1351.5000;0.1457;-0.3043;
1351.8000;0.1490;-0.2995;
1352.1000;0.1457;-0.3067;
1352.4000;0.1481;-0.2923;
1352.7000;0.1465;-0.2971;
1353.0000;0.1465;-0.3019;
1353.3000;0.1465;-0.3019;
1353.6000;0.1433;-0.3043;
1353.9000;0.1465;-0.2947;
1354.2000;0.1473;-0.3019;
1354.5000;0.1498;-0.2875;
1354.8000;0.1490;-0.2899;
1355.1000;0.1473;-0.2875;
1355.4000;0.1465;-0.2875;
1355.7000;0.1490;-0.2875;
1356.0000;0.1481;-0.2923;
1356.3000;0.1473;-0.2899;
1356.6000;0.1465;-0.2899;
1356.9000;0.1530;-0.2684;
1357.2000;0.1465;-0.2755;
1357.5000;0.1498;-0.2731;
1357.8000;0.1481;-0.2755;
1358.1000;0.1481;-0.2779;
1358.4000;0.1490;-0.2731;
1358.7000;0.1498;-0.2755;
1359.0000;0.1433;-0.2899;
1359.3000;0.1416;-0.2995;
1359.6000;0.1498;-0.2779;
1359.9000;0.1498;-0.2875;
1360.2000;0.1465;-0.2875;
1360.5000;0.1457;-0.2899;
1360.8000;0.1449;-0.2947;
1361.1000;0.1473;-0.2923;
1361.4000;0.1473;-0.2947;
1361.7000;0.1555;-0.2779;
1362.0000;0.1457;-0.3019;
1362.3000;0.1473;-0.2995;
1362.6000;0.1465;-0.3067;
1362.9000;0.1457;-0.3019;
1363.2000;0.1416;-0.3187;
1363.5000;0.1563;-0.2803;
1363.8000;0.1571;-0.2779;
1364.1000;0.1473;-0.2971;
1364.4000;0.1392;-0.3139;
1364.7000;0.1522;-0.2827;
1365.0000;0.1481;-0.2947;
1365.3000;0.1457;-0.2995;
1365.6000;0.1425;-0.2995;
1365.9000;0.1498;-0.2971;
1366.2000;0.1465;-0.2995;
1366.5000;0.1481;-0.2995;
1366.8000;0.1563;-0.2731;
1367.1000;0.1465;-0.2923;
1367.4000;0.1457;-0.2947;
1367.7000;0.1465;-0.2923;
1368.0000;0.1465;-0.2947;
1368.3000;0.1522;-0.2827;
1368.6000;0.1481;-0.2947;
1368.9000;0.1465;-0.3043;
1369.2000;0.1481;-0.2923;
1369.5000;0.1433;-0.3091;
1369.8000;0.1490;-0.2971;
1370.1000;0.1490;-0.2971;
1370.4000;0.1481;-0.2995;
1370.7000;0.1481;-0.3067;
1371.0000;0.1457;-0.3043;
1371.3000;0.1473;-0.3019;
1371.6000;0.1506;-0.2995;
1371.9000;0.1473;-0.3043;
1372.2000;0.1465;-0.3043;
1372.5000;0.1457;-0.2971;
1372.8000;0.1473;-0.2923;
1373.1000;0.1473;-0.2947;
1373.4000;0.1449;-0.3091;
1373.7000;0.1481;-0.3139;
1374.0000;0.1506;-0.3043;
1374.3000;0.1465;-0.3091;
1374.6000;0.1465;-0.3115;
1374.9000;0.1506;-0.3043;
1375.2000;0.1587;-0.2803;
1375.5000;0.1490;-0.2923;
1375.8000;0.1465;-0.3115;
1376.1000;0.1465;-0.3139;
1376.4000;0.1465;-0.3163;
1376.7000;0.1481;-0.3067;
1377.0000;0.1481;-0.3091;
1377.3000;0.1604;-0.2755;
1377.6000;0.1425;-0.3187;
1377.9000;0.1481;-0.3019;
1378.2000;0.1506;-0.2971;
1378.5000;0.1490;-0.3019;
1378.8000;0.1457;-0.3091;
1379.1000;0.1465;-0.3067;
1379.4000;0.1563;-0.2803;
1379.7000;0.1490;-0.2995;
1380.0000;0.1465;-0.3043;
1380.3000;0.1473;-0.2971;
1380.6000;0.1408;-0.3139;
1380.9000;0.1547;-0.2779;
1381.2000;0.1441;-0.3019;
1381.5000;0.1481;-0.2947;
1381.8000;0.1571;-0.2803;
1382.1000;0.1457;-0.2995;
1382.4000;0.1449;-0.2995;
1382.7000;0.1514;-0.2899;
1383.0000;0.1490;-0.2995;
1383.3000;0.1481;-0.2971;
1383.6000;0.1473;-0.2899;
1383.9000;0.1465;-0.2947;
1384.2000;0.1441;-0.2995;
1384.5000;0.1449;-0.2875;
1384.8000;0.1457;-0.2851;
1385.1000;0.1441;-0.2947;
1385.4000;0.1481;-0.2899;
1385.7000;0.1481;-0.2875;
1386.0000;0.1473;-0.2923;
1386.3000;0.1538;-0.2731;
1386.6000;0.1473;-0.2947;
1386.9000;0.1490;-0.2923;
1387.2000;0.1408;-0.3115;
1387.5000;0.1457;-0.2971;
1387.8000;0.1441;-0.3019;
1388.1000;0.1473;-0.2995;
1388.4000;0.1351;-0.3283;
1388.7000;0.1441;-0.2971;
1389.0000;0.1457;-0.2971;
1389.3000;0.1465;-0.2947;
1389.6000;0.1465;-0.2995;
1389.9000;0.1473;-0.3115;
1390.2000;0.1416;-0.3259;
1390.5000;0.1481;-0.3043;
1390.8000;0.1473;-0.3067;
1391.1000;0.1473;-0.3187;
1391.4000;0.1368;-0.3522;
1391.7000;0.1441;-0.3235;
1392.0000;0.1465;-0.3163;
1392.3000;0.1433;-0.3211;
1392.6000;0.1457;-0.3187;
1392.9000;0.1481;-0.3139;
1393.2000;0.1441;-0.3283;
1393.5000;0.1473;-0.3235;
1393.8000;0.1498;-0.3115;
1394.1000;0.1449;-0.3211;
1394.4000;0.1465;-0.3259;
1394.7000;0.1473;-0.3235;
1395.0000;0.1457;-0.3283;
1395.3000;0.1457;-0.3187;
1395.6000;0.1457;-0.3211;
1395.9000;0.1506;-0.3139;
1396.2000;0.1498;-0.3163;
1396.5000;0.1359;-0.3474;
1396.8000;0.1465;-0.3235;
1397.1000;0.1465;-0.3211;
1397.4000;0.1481;-0.3115;
1397.7000;0.1473;-0.3091;
1398.0000;0.1457;-0.3091;
1398.3000;0.1457;-0.3043;
1398.6000;0.1465;-0.3067;
1398.9000;0.1449;-0.3043;
1399.2000;0.1465;-0.3019;
1399.5000;0.1441;-0.3067;
1399.8000;0.1465;-0.3019;
