time/ms;Fluo/V;P700 deltaI/I x10³;
-199.8000;0.0741;-1.0283;
-199.5000;0.0733;-1.0305;
-199.2000;0.0733;-1.0328;
-198.9000;0.0733;-1.0328;
-198.6000;0.0724;-1.0351;
-198.3000;0.0757;-1.0260;
-198.0000;0.0749;-1.0260;
-197.7000;0.0716;-1.0373;
-197.4000;0.0741;-1.0305;
-197.1000;0.0724;-1.0305;
-196.8000;0.0741;-1.0283;
-196.5000;0.0838;-1.0011;
-196.2000;0.0724;-1.0305;
-195.9000;0.0749;-1.0373;
-195.6000;0.0741;-1.0396;
-195.3000;0.0733;-1.0373;
-195.0000;0.0733;-1.0283;
-194.7000;0.0749;-1.0215;
-194.4000;0.0757;-1.0101;
-194.1000;0.0724;-1.0237;
-193.8000;0.0733;-1.0192;
-193.5000;0.0724;-1.0283;
-193.2000;0.0724;-1.0215;
-192.9000;0.0733;-1.0192;
-192.6000;0.0692;-1.0305;
-192.3000;0.0733;-1.0260;
-192.0000;0.0724;-1.0237;
-191.7000;0.0757;-1.0079;
-191.4000;0.0733;-1.0169;
-191.1000;0.0741;-1.0147;
-190.8000;0.0733;-1.0147;
-190.5000;0.0733;-1.0215;
-190.2000;0.0724;-1.0260;
-189.9000;0.0724;-1.0237;
-189.6000;0.0724;-1.0169;
-189.3000;0.0749;-1.0147;
-189.0000;0.0749;-1.0101;
-188.7000;0.0741;-1.0124;
-188.4000;0.0798;-0.9966;
-188.1000;0.0765;-1.0056;
-187.8000;0.0716;-1.0147;
-187.5000;0.0676;-1.0305;
-187.2000;0.0822;-0.9920;
-186.9000;0.0733;-1.0124;
-186.6000;0.0716;-1.0192;
-186.3000;0.0741;-1.0147;
-186.0000;0.0765;-1.0124;
-185.7000;0.0733;-1.0305;
-185.4000;0.0798;-1.0147;
-185.1000;0.0741;-1.0464;
-184.8000;0.0741;-1.0441;
-184.5000;0.0741;-1.0441;
-184.2000;0.0912;-0.9920;
-183.9000;0.0749;-1.0260;
-183.6000;0.0757;-1.0215;
-183.3000;0.0733;-1.0328;
-183.0000;0.0724;-1.0351;
-182.7000;0.0741;-1.0441;
-182.4000;0.0733;-1.0419;
-182.1000;0.0733;-1.0464;
-181.8000;0.0724;-1.0419;
-181.5000;0.0741;-1.0396;
-181.2000;0.0724;-1.0419;
-180.9000;0.0716;-1.0419;
-180.6000;0.0708;-1.0396;
-180.3000;0.0708;-1.0283;
-180.0000;0.0733;-1.0351;
-179.7000;0.0724;-1.0419;
-179.4000;0.0724;-1.0464;
-179.1000;0.0847;-1.0192;
-178.8000;0.0765;-1.0419;
-178.5000;0.0741;-1.0441;
-178.2000;0.0741;-1.0509;
-177.9000;0.0855;-1.0215;
-177.6000;0.0741;-1.0487;
-177.3000;0.0716;-1.0532;
-177.0000;0.0716;-1.0532;
-176.7000;0.0716;-1.0464;
-176.4000;0.0733;-1.0351;
-176.1000;0.0741;-1.0328;
-175.8000;0.0733;-1.0305;
-175.5000;0.0822;-1.0079;
-175.2000;0.0741;-1.0237;
-174.9000;0.0708;-1.0373;
-174.6000;0.0684;-1.0464;
-174.3000;0.0749;-1.0237;
-174.0000;0.0749;-1.0215;
-173.7000;0.0749;-1.0283;
-173.4000;0.0659;-1.0419;
-173.1000;0.0749;-1.0192;
-172.8000;0.0757;-1.0215;
-172.5000;0.0749;-1.0237;
-172.2000;0.0733;-1.0260;
-171.9000;0.0700;-1.0351;
-171.6000;0.0749;-1.0283;
-171.3000;0.0733;-1.0351;
-171.0000;0.0700;-1.0419;
-170.7000;0.0724;-1.0305;
-170.4000;0.0749;-1.0192;
-170.1000;0.0716;-1.0305;
-169.8000;0.0741;-1.0192;
-169.5000;0.0724;-1.0260;
-169.2000;0.0692;-1.0328;
-168.9000;0.0806;-1.0011;
-168.6000;0.0757;-1.0147;
-168.3000;0.0733;-1.0215;
-168.0000;0.0749;-1.0079;
-167.7000;0.0871;-0.9784;
-167.4000;0.0724;-1.0237;
-167.1000;0.0757;-1.0169;
-166.8000;0.0611;-1.0554;
-166.5000;0.0749;-1.0101;
-166.2000;0.0855;-0.9762;
-165.9000;0.0741;-1.0034;
-165.6000;0.0741;-1.0079;
-165.3000;0.0692;-1.0169;
-165.0000;0.0733;-1.0147;
-164.7000;0.0749;-1.0124;
-164.4000;0.0798;-1.0011;
-164.1000;0.0716;-1.0147;
-163.8000;0.0741;-1.0034;
-163.5000;0.0692;-1.0169;
-163.2000;0.0708;-1.0237;
-162.9000;0.0757;-1.0147;
-162.6000;0.0733;-1.0260;
-162.3000;0.0692;-1.0328;
-162.0000;0.0684;-1.0419;
-161.7000;0.0724;-1.0283;
-161.4000;0.0700;-1.0351;
-161.1000;0.0781;-1.0192;
-160.8000;0.0733;-1.0305;
-160.5000;0.0724;-1.0283;
-160.2000;0.0757;-1.0215;
-159.9000;0.0733;-1.0169;
-159.6000;0.0708;-1.0260;
-159.3000;0.0741;-1.0192;
-159.0000;0.0716;-1.0237;
-158.7000;0.0749;-1.0169;
-158.4000;0.0724;-1.0169;
-158.1000;0.0643;-1.0373;
-157.8000;0.0724;-1.0192;
-157.5000;0.0741;-1.0237;
-157.2000;0.0757;-1.0260;
-156.9000;0.0741;-1.0260;
-156.6000;0.0733;-1.0328;
-156.3000;0.0724;-1.0328;
-156.0000;0.0741;-1.0328;
-155.7000;0.0757;-1.0147;
-155.4000;0.0708;-1.0237;
-155.1000;0.0724;-1.0305;
-154.8000;0.0749;-1.0237;
-154.5000;0.0700;-1.0305;
-154.2000;0.0838;-1.0011;
-153.9000;0.0733;-1.0305;
-153.6000;0.0724;-1.0283;
-153.3000;0.0733;-1.0260;
-153.0000;0.0765;-1.0147;
-152.7000;0.0749;-1.0215;
-152.4000;0.0765;-1.0101;
-152.1000;0.0724;-1.0215;
-151.8000;0.0790;-0.9966;
-151.5000;0.0757;-1.0056;
-151.2000;0.0781;-0.9920;
-150.9000;0.0733;-1.0011;
-150.6000;0.0724;-1.0124;
-150.3000;0.0765;-1.0101;
-150.0000;0.0749;-1.0192;
-149.7000;0.0757;-1.0192;
-149.4000;0.0798;-1.0124;
-149.1000;0.0741;-1.0283;
-148.8000;0.0733;-1.0328;
-148.5000;0.0765;-1.0169;
-148.2000;0.0749;-1.0169;
-147.9000;0.0733;-1.0351;
-147.6000;0.0757;-1.0328;
-147.3000;0.0790;-1.0215;
-147.0000;0.0741;-1.0305;
-146.7000;0.0806;-1.0079;
-146.4000;0.0765;-1.0260;
-146.1000;0.0684;-1.0396;
-145.8000;0.0741;-1.0260;
-145.5000;0.0716;-1.0305;
-145.2000;0.0814;-1.0079;
-144.9000;0.0733;-1.0305;
-144.6000;0.0757;-1.0215;
-144.3000;0.0692;-1.0373;
-144.0000;0.0692;-1.0351;
-143.7000;0.0733;-1.0192;
-143.4000;0.0716;-1.0192;
-143.1000;0.0733;-1.0124;
-142.8000;0.0765;-0.9966;
-142.5000;0.0887;-0.9671;
-142.2000;0.0741;-1.0124;
-141.9000;0.0798;-1.0011;
-141.6000;0.0733;-1.0260;
-141.3000;0.0757;-1.0192;
-141.0000;0.0733;-1.0283;
-140.7000;0.0667;-1.0532;
-140.4000;0.0741;-1.0351;
-140.1000;0.0765;-1.0328;
-139.8000;0.0781;-1.0305;
-139.5000;0.0651;-1.0487;
-139.2000;0.0733;-1.0260;
-138.9000;0.0733;-1.0260;
-138.6000;0.0692;-1.0441;
-138.3000;0.0798;-1.0147;
-138.0000;0.0708;-1.0283;
-137.7000;0.0700;-1.0396;
-137.4000;0.0708;-1.0260;
-137.1000;0.0684;-1.0305;
-136.8000;0.0724;-1.0124;
-136.5000;0.0806;-0.9988;
-136.2000;0.0733;-1.0192;
-135.9000;0.0741;-1.0192;
-135.6000;0.0684;-1.0373;
-135.3000;0.0716;-1.0260;
-135.0000;0.0733;-1.0283;
-134.7000;0.0830;-1.0034;
-134.4000;0.0741;-1.0305;
-134.1000;0.0749;-1.0373;
-133.8000;0.0847;-1.0192;
-133.5000;0.0749;-1.0373;
-133.2000;0.0667;-1.0600;
-132.9000;0.0757;-1.0351;
-132.6000;0.0733;-1.0396;
-132.3000;0.0773;-1.0260;
-132.0000;0.0724;-1.0305;
-131.7000;0.0757;-1.0147;
-131.4000;0.0724;-1.0215;
-131.1000;0.0733;-1.0215;
-130.8000;0.0733;-1.0147;
-130.5000;0.0733;-1.0169;
-130.2000;0.0716;-1.0215;
-129.9000;0.0741;-1.0147;
-129.6000;0.0822;-1.0011;
-129.3000;0.0684;-1.0373;
-129.0000;0.0733;-1.0215;
-128.7000;0.0692;-1.0305;
-128.4000;0.0733;-1.0260;
-128.1000;0.0741;-1.0215;
-127.8000;0.0749;-1.0147;
-127.5000;0.0716;-1.0192;
-127.2000;0.0773;-1.0056;
-126.9000;0.0765;-1.0079;
-126.6000;0.0724;-1.0192;
-126.3000;0.0724;-1.0169;
-126.0000;0.0733;-1.0192;
-125.7000;0.0659;-1.0283;
-125.4000;0.0716;-1.0237;
-125.1000;0.0741;-1.0147;
-124.8000;0.0749;-1.0192;
-124.5000;0.0757;-1.0101;
-124.2000;0.0659;-1.0351;
-123.9000;0.0741;-1.0034;
-123.6000;0.0724;-1.0011;
-123.3000;0.0741;-1.0011;
-123.0000;0.0741;-1.0034;
-122.7000;0.0765;-1.0056;
-122.4000;0.0790;-0.9943;
-122.1000;0.0716;-1.0169;
-121.8000;0.0733;-1.0124;
-121.5000;0.0708;-1.0237;
-121.2000;0.0741;-1.0192;
-120.9000;0.0708;-1.0305;
-120.6000;0.0741;-1.0192;
-120.3000;0.0708;-1.0283;
-120.0000;0.0741;-1.0237;
-119.7000;0.0847;-0.9988;
-119.4000;0.0716;-1.0169;
-119.1000;0.0749;-1.0056;
-118.8000;0.0708;-1.0147;
-118.5000;0.0741;-1.0079;
-118.2000;0.0773;-1.0056;
-117.9000;0.0781;-1.0034;
-117.6000;0.0806;-1.0011;
-117.3000;0.0773;-1.0056;
-117.0000;0.0773;-1.0079;
-116.7000;0.0659;-1.0283;
-116.4000;0.0749;-1.0079;
-116.1000;0.0741;-1.0192;
-115.8000;0.0733;-1.0124;
-115.5000;0.0724;-1.0101;
-115.2000;0.0741;-1.0079;
-114.9000;0.0741;-1.0034;
-114.6000;0.0757;-1.0011;
-114.3000;0.0741;-1.0124;
-114.0000;0.0749;-1.0079;
-113.7000;0.0700;-1.0192;
-113.4000;0.0757;-1.0034;
-113.1000;0.0733;-1.0124;
-112.8000;0.0749;-1.0124;
-112.5000;0.0733;-1.0101;
-112.2000;0.0838;-0.9920;
-111.9000;0.0773;-1.0169;
-111.6000;0.0741;-1.0283;
-111.3000;0.0708;-1.0328;
-111.0000;0.0619;-1.0577;
-110.7000;0.0733;-1.0215;
-110.4000;0.0749;-1.0101;
-110.1000;0.0773;-1.0056;
-109.8000;0.0700;-1.0147;
-109.5000;0.0790;-0.9966;
-109.2000;0.0757;-1.0079;
-108.9000;0.0733;-1.0192;
-108.6000;0.0708;-1.0305;
-108.3000;0.0692;-1.0373;
-108.0000;0.0749;-1.0260;
-107.7000;0.0749;-1.0215;
-107.4000;0.0733;-1.0260;
-107.1000;0.0741;-1.0237;
-106.8000;0.0741;-1.0237;
-106.5000;0.0741;-1.0215;
-106.2000;0.0724;-1.0283;
-105.9000;0.0716;-1.0237;
-105.6000;0.0757;-1.0192;
-105.3000;0.0733;-1.0237;
-105.0000;0.0781;-1.0101;
-104.7000;0.0741;-1.0169;
-104.4000;0.0708;-1.0305;
-104.1000;0.0733;-1.0237;
-103.8000;0.0749;-1.0192;
-103.5000;0.0716;-1.0237;
-103.2000;0.0741;-1.0147;
-102.9000;0.0749;-1.0101;
-102.6000;0.0733;-1.0101;
-102.3000;0.0733;-0.9988;
-102.0000;0.0724;-1.0079;
-101.7000;0.0749;-0.9966;
-101.4000;0.0716;-1.0011;
-101.1000;0.0724;-1.0056;
-100.8000;0.0733;-1.0011;
-100.5000;0.0757;-0.9898;
-100.2000;0.0749;-0.9920;
-99.9000;0.0733;-0.9966;
-99.6000;0.0773;-0.9920;
-99.3000;0.0741;-0.9943;
-99.0000;0.0765;-0.9852;
-98.7000;0.0733;-0.9988;
-98.4000;0.0733;-0.9920;
-98.1000;0.0741;-0.9898;
-97.8000;0.0741;-0.9943;
-97.5000;0.0749;-0.9943;
-97.2000;0.0724;-0.9920;
-96.9000;0.0733;-0.9966;
-96.6000;0.0781;-0.9807;
-96.3000;0.0765;-0.9875;
-96.0000;0.0716;-0.9966;
-95.7000;0.0651;-1.0101;
-95.4000;0.0741;-0.9943;
-95.1000;0.0773;-0.9830;
-94.8000;0.0781;-0.9784;
-94.5000;0.0724;-0.9966;
-94.2000;0.0724;-0.9966;
-93.9000;0.0741;-0.9920;
-93.6000;0.0692;-1.0124;
-93.3000;0.0741;-1.0034;
-93.0000;0.0749;-1.0011;
-92.7000;0.0692;-1.0169;
-92.4000;0.0733;-1.0124;
-92.1000;0.0724;-1.0260;
-91.8000;0.0724;-1.0260;
-91.5000;0.0724;-1.0169;
-91.2000;0.0741;-1.0260;
-90.9000;0.0724;-1.0260;
-90.6000;0.0716;-1.0283;
-90.3000;0.0733;-1.0373;
-90.0000;0.0724;-1.0419;
-89.7000;0.0781;-1.0305;
-89.4000;0.0724;-1.0373;
-89.1000;0.0749;-1.0101;
-88.8000;0.0749;-1.0101;
-88.5000;0.0749;-1.0034;
-88.2000;0.0749;-1.0011;
-87.9000;0.0757;-1.0056;
-87.6000;0.0741;-1.0147;
-87.3000;0.0733;-1.0215;
-87.0000;0.0716;-1.0237;
-86.7000;0.0724;-1.0215;
-86.4000;0.0733;-1.0237;
-86.1000;0.0765;-1.0192;
-85.8000;0.0708;-1.0351;
-85.5000;0.0749;-1.0305;
-85.2000;0.0724;-1.0328;
-84.9000;0.0733;-1.0260;
-84.6000;0.0765;-1.0147;
-84.3000;0.0733;-1.0147;
-84.0000;0.0724;-1.0192;
-83.7000;0.0741;-1.0124;
-83.4000;0.0741;-1.0147;
-83.1000;0.0733;-1.0192;
-82.8000;0.0790;-1.0034;
-82.5000;0.0749;-0.9988;
-82.2000;0.0798;-0.9966;
-81.9000;0.0741;-1.0034;
-81.6000;0.0741;-1.0056;
-81.3000;0.0749;-1.0056;
-81.0000;0.0741;-1.0147;
-80.7000;0.0708;-1.0237;
-80.4000;0.0741;-1.0260;
-80.1000;0.0667;-1.0419;
-79.8000;0.0749;-1.0169;
-79.5000;0.0749;-1.0079;
-79.2000;0.0749;-1.0079;
-78.9000;0.0733;-1.0079;
-78.6000;0.0724;-1.0079;
-78.3000;0.0733;-1.0124;
-78.0000;0.0749;-1.0147;
-77.7000;0.0724;-1.0124;
-77.4000;0.0749;-0.9988;
-77.1000;0.0741;-1.0011;
-76.8000;0.0757;-0.9920;
-76.5000;0.0749;-1.0056;
-76.2000;0.0749;-1.0101;
-75.9000;0.0716;-1.0147;
-75.6000;0.0716;-1.0124;
-75.3000;0.0773;-1.0101;
-75.0000;0.0700;-1.0260;
-74.7000;0.0741;-1.0124;
-74.4000;0.0757;-1.0101;
-74.1000;0.0749;-1.0124;
-73.8000;0.0733;-1.0147;
-73.5000;0.0733;-1.0215;
-73.2000;0.0724;-1.0215;
-72.9000;0.0716;-1.0192;
-72.6000;0.0757;-1.0147;
-72.3000;0.0757;-1.0169;
-72.0000;0.0733;-1.0328;
-71.7000;0.0724;-1.0441;
-71.4000;0.0733;-1.0419;
-71.1000;0.0749;-1.0283;
-70.8000;0.0749;-1.0305;
-70.5000;0.0741;-1.0373;
-70.2000;0.0741;-1.0396;
-69.9000;0.0765;-1.0464;
-69.6000;0.0733;-1.0396;
-69.3000;0.0757;-1.0260;
-69.0000;0.0765;-1.0260;
-68.7000;0.0724;-1.0237;
-68.4000;0.0749;-1.0169;
-68.1000;0.0741;-1.0215;
-67.8000;0.0733;-1.0260;
-67.5000;0.0749;-1.0260;
-67.2000;0.0757;-1.0237;
-66.9000;0.0700;-1.0396;
-66.6000;0.0757;-1.0215;
-66.3000;0.0855;-0.9943;
-66.0000;0.0708;-1.0351;
-65.7000;0.0733;-1.0260;
-65.4000;0.0749;-1.0147;
-65.1000;0.0741;-1.0147;
-64.8000;0.0757;-1.0147;
-64.5000;0.0757;-1.0215;
-64.2000;0.0733;-1.0351;
-63.9000;0.0741;-1.0283;
-63.6000;0.0749;-1.0169;
-63.3000;0.0765;-1.0147;
-63.0000;0.0692;-1.0328;
-62.7000;0.0724;-1.0192;
-62.4000;0.0741;-1.0192;
-62.1000;0.0733;-1.0237;
-61.8000;0.0757;-1.0101;
-61.5000;0.0700;-1.0237;
-61.2000;0.0700;-1.0237;
-60.9000;0.0741;-1.0124;
-60.6000;0.0741;-1.0237;
-60.3000;0.0733;-1.0373;
-60.0000;0.0773;-1.0215;
-59.7000;0.0781;-1.0147;
-59.4000;0.0570;-1.0645;
-59.1000;0.0724;-1.0305;
-58.8000;0.0700;-1.0260;
-58.5000;0.0757;-1.0079;
-58.2000;0.0716;-1.0101;
-57.9000;0.0733;-1.0101;
-57.6000;0.0733;-1.0147;
-57.3000;0.0716;-1.0215;
-57.0000;0.0733;-1.0101;
-56.7000;0.0749;-1.0034;
-56.4000;0.0692;-1.0169;
-56.1000;0.0708;-1.0237;
-55.8000;0.0733;-1.0192;
-55.5000;0.0741;-1.0147;
-55.2000;0.0733;-1.0147;
-54.9000;0.0643;-1.0373;
-54.6000;0.0757;-1.0011;
-54.3000;0.0765;-0.9966;
-54.0000;0.0749;-1.0011;
-53.7000;0.0749;-0.9988;
-53.4000;0.0757;-0.9966;
-53.1000;0.0749;-0.9920;
-52.8000;0.0781;-0.9852;
-52.5000;0.0716;-1.0079;
-52.2000;0.0749;-1.0079;
-51.9000;0.0708;-1.0124;
-51.6000;0.0724;-1.0169;
-51.3000;0.0676;-1.0215;
-51.0000;0.0749;-1.0034;
-50.7000;0.0733;-1.0034;
-50.4000;0.0838;-0.9830;
-50.1000;0.0733;-1.0056;
-49.8000;0.0733;-1.0056;
-49.5000;0.0733;-1.0079;
-49.2000;0.0741;-1.0192;
-48.9000;0.0724;-1.0101;
-48.6000;0.0749;-1.0101;
-48.3000;0.0741;-1.0079;
-48.0000;0.0733;-1.0079;
-47.7000;0.0724;-1.0079;
-47.4000;0.0749;-0.9943;
-47.1000;0.0733;-0.9966;
-46.8000;0.0724;-0.9966;
-46.5000;0.0733;-0.9966;
-46.2000;0.0863;-0.9603;
-45.9000;0.0733;-0.9943;
-45.6000;0.0700;-1.0011;
-45.3000;0.0733;-1.0034;
-45.0000;0.0733;-1.0079;
-44.7000;0.0741;-1.0056;
-44.4000;0.0749;-1.0011;
-44.1000;0.0749;-1.0056;
-43.8000;0.0733;-1.0079;
-43.5000;0.0692;-1.0305;
-43.2000;0.0724;-1.0215;
-42.9000;0.0757;-1.0101;
-42.6000;0.0733;-1.0147;
-42.3000;0.0749;-1.0192;
-42.0000;0.0724;-1.0283;
-41.7000;0.0749;-1.0283;
-41.4000;0.0716;-1.0328;
-41.1000;0.0822;-1.0056;
-40.8000;0.0741;-1.0192;
-40.5000;0.0716;-1.0328;
-40.2000;0.0716;-1.0305;
-39.9000;0.0847;-0.9943;
-39.6000;0.0692;-1.0328;
-39.3000;0.0741;-1.0169;
-39.0000;0.0733;-1.0101;
-38.7000;0.0716;-1.0101;
-38.4000;0.0806;-0.9807;
-38.1000;0.0781;-0.9920;
-37.8000;0.0733;-1.0056;
-37.5000;0.0733;-1.0079;
-37.2000;0.0757;-1.0079;
-36.9000;0.0741;-1.0101;
-36.6000;0.0733;-1.0101;
-36.3000;0.0659;-1.0215;
-36.0000;0.0749;-1.0056;
-35.7000;0.0757;-1.0124;
-35.4000;0.0708;-1.0373;
-35.1000;0.0716;-1.0351;
-34.8000;0.0708;-1.0441;
-34.5000;0.0749;-1.0351;
-34.2000;0.0684;-1.0532;
-33.9000;0.0749;-1.0373;
-33.6000;0.0716;-1.0487;
-33.3000;0.0733;-1.0419;
-33.0000;0.0749;-1.0396;
-32.7000;0.0733;-1.0373;
-32.4000;0.0724;-1.0373;
-32.1000;0.0708;-1.0328;
-31.8000;0.0733;-1.0237;
-31.5000;0.0676;-1.0373;
-31.2000;0.0741;-1.0283;
-30.9000;0.0724;-1.0328;
-30.6000;0.0830;-1.0101;
-30.3000;0.0741;-1.0305;
-30.0000;0.0757;-1.0169;
-29.7000;0.0708;-1.0192;
-29.4000;0.0700;-1.0237;
-29.1000;0.0741;-1.0101;
-28.8000;0.0757;-1.0101;
-28.5000;0.0716;-1.0169;
-28.2000;0.0757;-1.0079;
-27.9000;0.0757;-1.0079;
-27.6000;0.0757;-1.0056;
-27.3000;0.0757;-1.0056;
-27.0000;0.0765;-1.0101;
-26.7000;0.0741;-1.0147;
-26.4000;0.0716;-1.0237;
-26.1000;0.0733;-1.0237;
-25.8000;0.0733;-1.0328;
-25.5000;0.0806;-1.0101;
-25.2000;0.0708;-1.0305;
-24.9000;0.0757;-1.0260;
-24.6000;0.0724;-1.0283;
-24.3000;0.0757;-1.0192;
-24.0000;0.0757;-1.0215;
-23.7000;0.0749;-1.0237;
-23.4000;0.0716;-1.0351;
-23.1000;0.0749;-1.0351;
-22.8000;0.0741;-1.0237;
-22.5000;0.0733;-1.0260;
-22.2000;0.0716;-1.0328;
-21.9000;0.0716;-1.0283;
-21.6000;0.0765;-1.0215;
-21.3000;0.0667;-1.0373;
-21.0000;0.0708;-1.0305;
-20.7000;0.0594;-1.0690;
-20.4000;0.0684;-1.0351;
-20.1000;0.0716;-1.0351;
-19.8000;0.0659;-1.0464;
-19.5000;0.0716;-1.0305;
-19.2000;0.0708;-1.0396;
-18.9000;0.0806;-1.0169;
-18.6000;0.0724;-1.0328;
-18.3000;0.0790;-1.0169;
-18.0000;0.0741;-1.0305;
-17.7000;0.0749;-1.0260;
-17.4000;0.0741;-1.0305;
-17.1000;0.0627;-1.0577;
-16.8000;0.0773;-1.0283;
-16.5000;0.0806;-1.0215;
-16.2000;0.0749;-1.0464;
-15.9000;0.0798;-1.0283;
-15.6000;0.0708;-1.0396;
-15.3000;0.0733;-1.0283;
-15.0000;0.0692;-1.0351;
-14.7000;0.0716;-1.0305;
-14.4000;0.0733;-1.0260;
-14.1000;0.0733;-1.0328;
-13.8000;0.0749;-1.0305;
-13.5000;0.0733;-1.0328;
-13.2000;0.0749;-1.0328;
-12.9000;0.0781;-1.0237;
-12.6000;0.0765;-1.0215;
-12.3000;0.0733;-1.0283;
-12.0000;0.0741;-1.0215;
-11.7000;0.0757;-1.0147;
-11.4000;0.0757;-1.0215;
-11.1000;0.0749;-1.0260;
-10.8000;0.0716;-1.0328;
-10.5000;0.0749;-1.0373;
-10.2000;0.0749;-1.0419;
-9.9000;0.0781;-1.0283;
-9.6000;0.0765;-1.0305;
-9.3000;0.0741;-1.0328;
-9.0000;0.0741;-1.0260;
-8.7000;0.0741;-1.0237;
-8.4000;0.0741;-1.0305;
-8.1000;0.0733;-1.0169;
-7.8000;0.0724;-1.0215;
-7.5000;0.0765;-1.0147;
-7.2000;0.0741;-1.0283;
-6.9000;0.0708;-1.0351;
-6.6000;0.0724;-1.0305;
-6.3000;0.0741;-1.0260;
-6.0000;0.0708;-1.0351;
-5.7000;0.0659;-1.0487;
-5.4000;0.0724;-1.0351;
-5.1000;0.0741;-1.0283;
-4.8000;0.0716;-1.0351;
-4.5000;0.0733;-1.0396;
-4.2000;0.0733;-1.0419;
-3.9000;0.0741;-1.0351;
-3.6000;0.0749;-1.0283;
-3.3000;0.0757;-1.0192;
-3.0000;0.0741;-1.0260;
-2.7000;0.0733;-1.0215;
-2.4000;0.0757;-1.0147;
-2.1000;0.0724;-1.0215;
-1.8000;0.0733;-1.0056;
-1.5000;0.0733;-1.0034;
-1.2000;0.0741;-1.0056;
-0.9000;0.0741;-1.0079;
-0.6000;0.0733;-1.0101;
-0.3000;0.0733;-1.0124;
0.0000;0.0733;-1.0124;
0.3000;0.0733;-1.0237;
0.6000;0.0749;-1.0237;
0.9000;0.0773;-1.0034;
1.2000;0.0798;-0.9966;
1.5000;0.0773;-0.9943;
1.8000;0.0814;-0.9898;
2.1000;0.0928;-0.9603;
2.4000;0.0879;-0.9739;
2.7000;0.0822;-0.9739;
3.0000;0.0830;-0.9603;
3.3000;0.0879;-0.9467;
3.6000;0.0863;-0.9467;
3.9000;0.0855;-0.9377;
4.2000;0.0724;-0.9716;
4.5000;0.0790;-0.9581;
4.8000;0.0863;-0.9309;
5.1000;0.0871;-0.9286;
5.4000;0.0879;-0.9218;
5.7000;0.0822;-0.9377;
6.0000;0.0855;-0.9377;
6.3000;0.0952;-0.9128;
6.6000;0.0855;-0.9399;
6.9000;0.0895;-0.9399;
7.2000;0.0814;-0.9535;
7.5000;0.0887;-0.9377;
7.8000;0.0863;-0.9467;
8.1000;0.0895;-0.9513;
8.4000;0.0879;-0.9626;
8.7000;0.0863;-0.9671;
9.0000;0.0887;-0.9490;
9.3000;0.0879;-0.9445;
9.6000;0.0904;-0.9377;
9.9000;0.0904;-0.9309;
10.2000;0.0871;-0.9331;
10.5000;0.0879;-0.9331;
10.8000;0.0855;-0.9309;
11.1000;0.0895;-0.9241;
11.4000;0.0895;-0.9173;
11.7000;0.0887;-0.9241;
12.0000;0.0895;-0.9196;
12.3000;0.0855;-0.9309;
12.6000;0.0879;-0.9241;
12.9000;0.0904;-0.9128;
13.2000;0.0863;-0.9241;
13.5000;0.0887;-0.9241;
13.8000;0.0895;-0.9263;
14.1000;0.0863;-0.9399;
14.4000;0.0863;-0.9331;
14.7000;0.0871;-0.9286;
15.0000;0.0895;-0.9173;
15.3000;0.0920;-0.9060;
15.6000;0.0806;-0.9399;
15.9000;0.0863;-0.9309;
16.2000;0.0879;-0.9354;
16.5000;0.0879;-0.9377;
16.8000;0.0985;-0.9060;
17.1000;0.0879;-0.9331;
17.4000;0.0879;-0.9309;
17.7000;0.0952;-0.9173;
18.0000;0.0895;-0.9331;
18.3000;0.0863;-0.9354;
18.6000;0.0838;-0.9399;
18.9000;0.0863;-0.9422;
19.2000;0.0879;-0.9377;
19.5000;0.0855;-0.9377;
19.8000;0.0879;-0.9286;
20.1000;0.0887;-0.9331;
20.4000;0.0879;-0.9377;
20.7000;0.0879;-0.9422;
21.0000;0.0977;-0.9082;
21.3000;0.0895;-0.9354;
21.6000;0.0895;-0.9331;
21.9000;0.0920;-0.9309;
22.2000;0.0879;-0.9422;
22.5000;0.0887;-0.9377;
22.8000;0.0887;-0.9422;
23.1000;0.0920;-0.9377;
23.4000;0.0879;-0.9467;
23.7000;0.0871;-0.9399;
24.0000;0.0887;-0.9399;
24.3000;0.0895;-0.9445;
24.6000;0.0879;-0.9445;
24.9000;0.0830;-0.9513;
25.2000;0.1018;-0.9037;
25.5000;0.0855;-0.9467;
25.8000;0.0895;-0.9354;
26.1000;0.0887;-0.9445;
26.4000;0.0895;-0.9467;
26.7000;0.0895;-0.9422;
27.0000;0.0895;-0.9377;
27.3000;0.0952;-0.9263;
27.6000;0.0895;-0.9445;
27.9000;0.0895;-0.9445;
28.2000;0.0920;-0.9377;
28.5000;0.0895;-0.9513;
28.8000;0.0895;-0.9467;
29.1000;0.0952;-0.9241;
29.4000;0.0887;-0.9377;
29.7000;0.0871;-0.9377;
30.0000;0.0887;-0.9422;
30.3000;0.0879;-0.9467;
30.6000;0.0887;-0.9513;
30.9000;0.0912;-0.9467;
31.2000;0.0887;-0.9558;
31.5000;0.0887;-0.9626;
31.8000;0.0912;-0.9581;
32.1000;0.0895;-0.9626;
32.4000;0.0904;-0.9490;
32.7000;0.0904;-0.9445;
33.0000;0.0863;-0.9626;
33.3000;0.0895;-0.9558;
33.6000;0.0912;-0.9399;
33.9000;0.0887;-0.9422;
34.2000;0.0895;-0.9513;
34.5000;0.0879;-0.9581;
34.8000;0.0887;-0.9649;
35.1000;0.0936;-0.9558;
35.4000;0.0904;-0.9671;
35.7000;0.0871;-0.9716;
36.0000;0.0887;-0.9626;
36.3000;0.0887;-0.9558;
36.6000;0.0863;-0.9626;
36.9000;0.0912;-0.9399;
37.2000;0.0977;-0.9263;
37.5000;0.0895;-0.9399;
37.8000;0.0887;-0.9399;
38.1000;0.0904;-0.9422;
38.4000;0.0830;-0.9603;
38.7000;0.0912;-0.9445;
39.0000;0.0895;-0.9558;
39.3000;0.0928;-0.9309;
39.6000;0.0863;-0.9535;
39.9000;0.0904;-0.9445;
40.2000;0.0822;-0.9694;
40.5000;0.0879;-0.9490;
40.8000;0.0912;-0.9399;
41.1000;0.0879;-0.9513;
41.4000;0.0985;-0.9241;
41.7000;0.0895;-0.9354;
42.0000;0.0895;-0.9399;
42.3000;0.0879;-0.9422;
42.6000;0.0887;-0.9399;
42.9000;0.0871;-0.9399;
43.2000;0.0912;-0.9354;
43.5000;0.0871;-0.9445;
43.8000;0.0855;-0.9399;
44.1000;0.0895;-0.9309;
44.4000;0.0912;-0.9354;
44.7000;0.0904;-0.9399;
45.0000;0.0879;-0.9467;
45.3000;0.0895;-0.9467;
45.6000;0.0904;-0.9535;
45.9000;0.0830;-0.9671;
46.2000;0.0895;-0.9535;
46.5000;0.0871;-0.9558;
46.8000;0.0855;-0.9626;
47.1000;0.0887;-0.9558;
47.4000;0.0895;-0.9535;
47.7000;0.0895;-0.9558;
48.0000;0.0887;-0.9626;
48.3000;0.0904;-0.9581;
48.6000;0.0904;-0.9513;
48.9000;0.0871;-0.9581;
49.2000;0.0895;-0.9581;
49.5000;0.0912;-0.9649;
49.8000;0.0887;-0.9716;
50.1000;0.0879;-0.9671;
50.4000;0.0920;-0.9535;
50.7000;0.0887;-0.9626;
51.0000;0.0895;-0.9626;
51.3000;0.0904;-0.9535;
51.6000;0.0895;-0.9603;
51.9000;0.0936;-0.9490;
52.2000;0.0887;-0.9581;
52.5000;0.0904;-0.9671;
52.8000;0.0895;-0.9716;
53.1000;0.0904;-0.9626;
53.4000;0.0895;-0.9603;
53.7000;0.0895;-0.9649;
54.0000;0.0887;-0.9694;
54.3000;0.0912;-0.9694;
54.6000;0.0838;-0.9875;
54.9000;0.0871;-0.9762;
55.2000;0.0887;-0.9784;
55.5000;0.0879;-0.9830;
55.8000;0.0904;-0.9784;
56.1000;0.0904;-0.9762;
56.4000;0.0904;-0.9739;
56.7000;0.0887;-0.9739;
57.0000;0.0814;-0.9943;
57.3000;0.0920;-0.9694;
57.6000;0.0887;-0.9694;
57.9000;0.0798;-1.0034;
58.2000;0.0904;-0.9716;
58.5000;0.0904;-0.9694;
58.8000;0.0879;-0.9830;
59.1000;0.0969;-0.9626;
59.4000;0.0993;-0.9694;
59.7000;0.0887;-0.9943;
60.0000;0.0895;-0.9943;
60.3000;0.0904;-0.9943;
60.6000;0.1050;-0.9490;
60.9000;0.0912;-0.9830;
61.2000;0.0871;-0.9943;
61.5000;0.0920;-0.9852;
61.8000;0.0895;-0.9898;
62.1000;0.0904;-0.9830;
62.4000;0.0895;-0.9898;
62.7000;0.0920;-0.9830;
63.0000;0.0912;-0.9898;
63.3000;0.0920;-0.9898;
63.6000;0.0879;-1.0056;
63.9000;0.0920;-0.9875;
64.2000;0.0969;-0.9716;
64.5000;0.0928;-0.9830;
64.8000;0.0904;-0.9875;
65.1000;0.0928;-0.9966;
65.4000;0.0912;-0.9988;
65.7000;0.0887;-1.0079;
66.0000;0.0830;-1.0237;
66.3000;0.0895;-1.0169;
66.6000;0.0871;-1.0260;
66.9000;0.0871;-1.0237;
67.2000;0.0887;-1.0215;
67.5000;0.0912;-1.0192;
67.8000;0.0912;-1.0169;
68.1000;0.0863;-1.0328;
68.4000;0.0741;-1.0622;
68.7000;0.0920;-1.0169;
69.0000;0.0952;-1.0079;
69.3000;0.0936;-1.0147;
69.6000;0.0716;-1.0554;
69.9000;0.0920;-1.0034;
70.2000;0.0895;-1.0124;
70.5000;0.0969;-0.9943;
70.8000;0.0936;-0.9966;
71.1000;0.0920;-0.9966;
71.4000;0.0887;-0.9966;
71.7000;0.0920;-0.9988;
72.0000;0.0871;-1.0101;
72.3000;0.0904;-0.9966;
72.6000;0.0936;-0.9852;
72.9000;0.0904;-0.9898;
73.2000;0.0936;-0.9898;
73.5000;0.0904;-0.9943;
73.8000;0.0879;-0.9988;
74.1000;0.0871;-0.9943;
74.4000;0.0920;-0.9830;
74.7000;0.0928;-0.9694;
75.0000;0.0904;-0.9762;
75.3000;0.0871;-0.9784;
75.6000;0.1001;-0.9603;
75.9000;0.0920;-0.9716;
76.2000;0.0920;-0.9784;
76.5000;0.0863;-0.9988;
76.8000;0.0993;-0.9671;
77.1000;0.0928;-0.9784;
77.4000;0.0904;-0.9852;
77.7000;0.0969;-0.9694;
78.0000;0.0928;-0.9807;
78.3000;0.0895;-0.9807;
78.6000;0.0887;-0.9784;
78.9000;0.0904;-0.9784;
79.2000;0.0904;-0.9762;
79.5000;0.0879;-0.9762;
79.8000;0.0895;-0.9649;
80.1000;0.0928;-0.9581;
80.4000;0.0895;-0.9603;
80.7000;0.0895;-0.9535;
81.0000;0.0871;-0.9603;
81.3000;0.0912;-0.9581;
81.6000;0.0887;-0.9807;
81.9000;0.0871;-0.9920;
82.2000;0.0904;-0.9807;
82.5000;0.0936;-0.9898;
82.8000;0.0912;-0.9966;
83.1000;0.0912;-0.9966;
83.4000;0.0928;-0.9943;
83.7000;0.0912;-0.9943;
84.0000;0.0936;-0.9875;
84.3000;0.0920;-0.9898;
84.6000;0.0887;-0.9943;
84.9000;0.0879;-0.9875;
85.2000;0.0904;-0.9852;
85.5000;0.0904;-0.9807;
85.8000;0.0912;-0.9739;
86.1000;0.0920;-0.9739;
86.4000;0.0904;-0.9807;
86.7000;0.0928;-0.9762;
87.0000;0.0879;-1.0011;
87.3000;0.0895;-0.9966;
87.6000;0.0936;-0.9762;
87.9000;0.0928;-0.9807;
88.2000;0.0936;-0.9875;
88.5000;0.0961;-0.9830;
88.8000;0.0904;-0.9920;
89.1000;0.0895;-0.9943;
89.4000;0.0912;-0.9852;
89.7000;0.0895;-0.9943;
90.0000;0.0887;-0.9988;
90.3000;0.0928;-0.9875;
90.6000;0.0887;-1.0034;
90.9000;0.0904;-0.9920;
91.2000;0.0895;-0.9943;
91.5000;0.0904;-0.9898;
91.8000;0.0912;-0.9920;
92.1000;0.0895;-1.0011;
92.4000;0.0904;-1.0056;
92.7000;0.0912;-0.9966;
93.0000;0.0936;-0.9943;
93.3000;0.0904;-1.0011;
93.6000;0.0936;-0.9920;
93.9000;0.0920;-0.9966;
94.2000;0.0904;-1.0056;
94.5000;0.0895;-1.0079;
94.8000;0.0928;-0.9852;
95.1000;0.0830;-1.0056;
95.4000;0.0920;-0.9852;
95.7000;0.0895;-0.9943;
96.0000;0.0904;-0.9966;
96.3000;0.0904;-1.0011;
96.6000;0.0879;-0.9988;
96.9000;0.0912;-0.9830;
97.2000;0.0904;-0.9830;
97.5000;0.0912;-0.9943;
97.8000;0.0920;-0.9898;
98.1000;0.0879;-1.0011;
98.4000;0.0895;-0.9898;
98.7000;0.0920;-0.9784;
99.0000;0.0969;-0.9535;
99.3000;0.0928;-0.9694;
99.6000;0.0912;-0.9807;
99.9000;0.0912;-0.9807;
100.2000;0.0895;-0.9739;
100.5000;0.0928;-0.9649;
100.8000;0.0895;-0.9694;
101.1000;0.0895;-0.9716;
101.4000;0.0920;-0.9626;
101.7000;0.0920;-0.9671;
102.0000;0.0912;-0.9716;
102.3000;0.0904;-0.9671;
102.6000;0.0904;-0.9649;
102.9000;0.0936;-0.9603;
103.2000;0.0895;-0.9626;
103.5000;0.0904;-0.9603;
103.8000;0.0912;-0.9626;
104.1000;0.0895;-0.9694;
104.4000;0.0928;-0.9671;
104.7000;0.0879;-0.9875;
105.0000;0.0920;-0.9807;
105.3000;0.0895;-0.9920;
105.6000;0.0920;-0.9898;
105.9000;0.0928;-0.9852;
106.2000;0.0920;-0.9830;
106.5000;0.0871;-1.0034;
106.8000;0.0904;-0.9988;
107.1000;0.0904;-1.0011;
107.4000;0.0806;-1.0283;
107.7000;0.0912;-1.0101;
108.0000;0.0936;-1.0079;
108.3000;0.0838;-1.0283;
108.6000;0.0920;-1.0079;
108.9000;0.0936;-1.0034;
109.2000;0.0912;-0.9988;
109.5000;0.0928;-0.9920;
109.8000;0.0912;-0.9943;
110.1000;0.0741;-1.0419;
110.4000;0.0904;-1.0011;
110.7000;0.0928;-0.9898;
111.0000;0.0895;-0.9875;
111.3000;0.0781;-1.0237;
111.6000;0.0912;-0.9966;
111.9000;0.0895;-0.9943;
112.2000;0.0863;-1.0034;
112.5000;0.0961;-0.9762;
112.8000;0.0920;-0.9898;
113.1000;0.0928;-0.9943;
113.4000;0.0928;-0.9920;
113.7000;0.0928;-0.9852;
114.0000;0.0904;-0.9807;
114.3000;0.0920;-0.9784;
114.6000;0.0920;-0.9875;
114.9000;0.0985;-0.9626;
115.2000;0.0912;-0.9807;
115.5000;0.0912;-0.9830;
115.8000;0.0993;-0.9626;
116.1000;0.0928;-0.9739;
116.4000;0.0928;-0.9739;
116.7000;0.0904;-0.9694;
117.0000;0.0847;-0.9852;
117.3000;0.0912;-0.9716;
117.6000;0.0904;-0.9716;
117.9000;0.0944;-0.9626;
118.2000;0.0952;-0.9558;
118.5000;0.0961;-0.9490;
118.8000;0.0920;-0.9581;
119.1000;0.0969;-0.9422;
119.4000;0.0920;-0.9467;
119.7000;0.0928;-0.9535;
120.0000;0.0928;-0.9558;
120.3000;0.0790;-0.9830;
120.6000;0.0912;-0.9558;
120.9000;0.0920;-0.9535;
121.2000;0.0895;-0.9535;
121.5000;0.0814;-0.9943;
121.8000;0.1001;-0.9558;
122.1000;0.0863;-0.9966;
122.4000;0.0936;-0.9739;
122.7000;0.0912;-0.9716;
123.0000;0.0920;-0.9762;
123.3000;0.0920;-0.9762;
123.6000;0.0936;-0.9762;
123.9000;0.0920;-0.9807;
124.2000;0.0912;-0.9852;
124.5000;0.0904;-0.9852;
124.8000;0.0920;-0.9875;
125.1000;0.0952;-0.9739;
125.4000;0.0936;-0.9762;
125.7000;0.0952;-0.9694;
126.0000;0.0928;-0.9784;
126.3000;0.0912;-0.9875;
126.6000;0.0920;-0.9784;
126.9000;0.0961;-0.9671;
127.2000;0.0879;-0.9830;
127.5000;0.0920;-0.9649;
127.8000;0.0912;-0.9626;
128.1000;0.0928;-0.9671;
128.4000;0.0936;-0.9716;
128.7000;0.0928;-0.9784;
129.0000;0.0904;-0.9807;
129.3000;0.0928;-0.9739;
129.6000;0.0912;-0.9762;
129.9000;0.0895;-0.9716;
130.2000;0.0904;-0.9716;
130.5000;0.0895;-0.9784;
130.8000;0.0855;-0.9852;
131.1000;0.0912;-0.9626;
131.4000;0.0944;-0.9581;
131.7000;0.0944;-0.9716;
132.0000;0.0895;-0.9898;
132.3000;0.0944;-0.9807;
132.6000;0.0920;-0.9784;
132.9000;0.0952;-0.9603;
133.2000;0.0912;-0.9626;
133.5000;0.0798;-0.9875;
133.8000;0.0920;-0.9581;
134.1000;0.0920;-0.9671;
134.4000;0.0928;-0.9739;
134.7000;0.0944;-0.9671;
135.0000;0.0944;-0.9694;
135.3000;0.0887;-0.9762;
135.6000;0.0904;-0.9784;
135.9000;0.0904;-0.9830;
136.2000;0.0895;-0.9807;
136.5000;0.0944;-0.9694;
136.8000;0.0904;-0.9784;
137.1000;0.0895;-0.9762;
137.4000;0.0920;-0.9671;
137.7000;0.0895;-0.9694;
138.0000;0.0928;-0.9581;
138.3000;0.0936;-0.9535;
138.6000;0.0912;-0.9716;
138.9000;0.0904;-0.9762;
139.2000;0.0879;-0.9762;
139.5000;0.0920;-0.9784;
139.8000;0.0912;-0.9784;
140.1000;0.0944;-0.9694;
140.4000;0.0928;-0.9671;
140.7000;0.0904;-0.9739;
141.0000;0.0944;-0.9603;
141.3000;0.0928;-0.9626;
141.6000;0.0928;-0.9558;
141.9000;0.0879;-0.9649;
142.2000;0.0928;-0.9626;
142.5000;0.0830;-0.9830;
142.8000;0.0904;-0.9739;
143.1000;0.0928;-0.9762;
143.4000;0.0936;-0.9694;
143.7000;0.0920;-0.9694;
144.0000;0.0912;-0.9694;
144.3000;0.0895;-0.9716;
144.6000;0.0838;-0.9943;
144.9000;0.0920;-0.9716;
145.2000;0.0928;-0.9716;
145.5000;0.0895;-0.9784;
145.8000;0.0928;-0.9739;
146.1000;0.0871;-0.9830;
146.4000;0.0920;-0.9694;
146.7000;0.0944;-0.9626;
147.0000;0.0944;-0.9649;
147.3000;0.0904;-0.9671;
147.6000;0.0879;-0.9739;
147.9000;0.0944;-0.9649;
148.2000;0.0904;-0.9762;
148.5000;0.0952;-0.9581;
148.8000;0.0879;-0.9762;
149.1000;0.0863;-0.9852;
149.4000;0.0928;-0.9784;
149.7000;0.0790;-1.0215;
150.0000;0.0904;-0.9875;
150.3000;0.0928;-0.9762;
150.6000;0.0920;-0.9852;
150.9000;0.0928;-0.9807;
151.2000;0.0993;-0.9671;
151.5000;0.0944;-0.9739;
151.8000;0.0895;-0.9762;
152.1000;0.0895;-0.9626;
152.4000;0.0928;-0.9649;
152.7000;0.0952;-0.9558;
153.0000;0.0977;-0.9467;
153.3000;0.0904;-0.9603;
153.6000;0.0920;-0.9535;
153.9000;0.0936;-0.9490;
154.2000;0.0895;-0.9535;
154.5000;0.1066;-0.9128;
154.8000;0.0912;-0.9558;
155.1000;0.0904;-0.9490;
155.4000;0.0920;-0.9445;
155.7000;0.0928;-0.9513;
156.0000;0.0936;-0.9581;
156.3000;0.0944;-0.9603;
156.6000;0.0904;-0.9694;
156.9000;0.0936;-0.9626;
157.2000;0.0944;-0.9649;
157.5000;0.0928;-0.9716;
157.8000;0.0977;-0.9694;
158.1000;0.0887;-0.9807;
158.4000;0.0871;-0.9762;
158.7000;0.0969;-0.9513;
159.0000;0.0895;-0.9784;
159.3000;0.0912;-0.9784;
159.6000;0.0904;-0.9739;
159.9000;0.0920;-0.9626;
160.2000;0.0920;-0.9716;
160.5000;0.0912;-0.9649;
160.8000;0.0920;-0.9626;
161.1000;0.0879;-0.9694;
161.4000;0.0928;-0.9649;
161.7000;0.0936;-0.9603;
162.0000;0.0863;-0.9762;
162.3000;0.0920;-0.9649;
162.6000;0.0952;-0.9603;
162.9000;0.0952;-0.9581;
163.2000;0.0912;-0.9649;
163.5000;0.0928;-0.9581;
163.8000;0.0928;-0.9649;
164.1000;0.0904;-0.9739;
164.4000;0.0944;-0.9694;
164.7000;0.0920;-0.9739;
165.0000;0.0806;-0.9966;
165.3000;0.0920;-0.9762;
165.6000;0.0928;-0.9830;
165.9000;0.0928;-0.9898;
166.2000;0.0920;-0.9898;
166.5000;0.0904;-0.9966;
166.8000;0.0936;-0.9807;
167.1000;0.0928;-0.9762;
167.4000;0.0838;-0.9943;
167.7000;0.0904;-0.9716;
168.0000;0.0920;-0.9739;
168.3000;0.0912;-0.9830;
168.6000;0.0944;-0.9762;
168.9000;0.0936;-0.9830;
169.2000;0.0928;-0.9852;
169.5000;0.0806;-1.0192;
169.8000;0.0904;-0.9966;
170.1000;0.0912;-0.9852;
170.4000;0.0912;-0.9830;
170.7000;0.0904;-0.9830;
171.0000;0.0977;-0.9671;
171.3000;0.0944;-0.9807;
171.6000;0.0928;-0.9830;
171.9000;0.0928;-0.9830;
172.2000;0.0928;-0.9784;
172.5000;0.1058;-0.9422;
172.8000;0.0887;-0.9875;
173.1000;0.0952;-0.9581;
173.4000;0.0936;-0.9671;
173.7000;0.0895;-0.9739;
174.0000;0.1001;-0.9558;
174.3000;0.0920;-0.9716;
174.6000;0.0936;-0.9716;
174.9000;0.0847;-1.0011;
175.2000;0.0936;-0.9875;
175.5000;0.0936;-0.9852;
175.8000;0.0944;-0.9830;
176.1000;0.0928;-0.9830;
176.4000;0.0912;-0.9852;
176.7000;0.0920;-0.9898;
177.0000;0.0936;-0.9807;
177.3000;0.0920;-0.9784;
177.6000;0.0944;-0.9739;
177.9000;0.0969;-0.9649;
178.2000;0.0912;-0.9830;
178.5000;0.0977;-0.9671;
178.8000;0.0912;-0.9807;
179.1000;0.0920;-0.9807;
179.4000;0.0936;-0.9784;
179.7000;0.0904;-0.9875;
180.0000;0.0928;-0.9762;
180.3000;0.0912;-0.9875;
180.6000;0.0928;-0.9807;
180.9000;0.0920;-0.9762;
181.2000;0.0928;-0.9762;
181.5000;0.0936;-0.9716;
181.8000;0.0928;-0.9739;
182.1000;0.0928;-0.9716;
182.4000;0.0912;-0.9762;
182.7000;0.0920;-0.9716;
183.0000;0.0944;-0.9581;
183.3000;0.0928;-0.9694;
183.6000;0.0920;-0.9807;
183.9000;0.0912;-0.9739;
184.2000;0.0928;-0.9694;
184.5000;0.0944;-0.9649;
184.8000;0.0944;-0.9671;
185.1000;0.0920;-0.9739;
185.4000;0.0944;-0.9739;
185.7000;0.0928;-0.9852;
186.0000;0.0920;-0.9875;
186.3000;0.0912;-0.9784;
186.6000;0.0944;-0.9649;
186.9000;0.0969;-0.9535;
187.2000;0.0969;-0.9490;
187.5000;0.0952;-0.9535;
187.8000;0.0944;-0.9581;
188.1000;0.0928;-0.9762;
188.4000;0.0936;-0.9762;
188.7000;0.0912;-0.9807;
189.0000;0.0847;-0.9943;
189.3000;0.0977;-0.9649;
189.6000;0.0920;-0.9784;
189.9000;0.0993;-0.9603;
190.2000;0.0928;-0.9784;
190.5000;0.0920;-0.9898;
190.8000;0.0920;-0.9988;
191.1000;0.0920;-0.9943;
191.4000;0.0944;-0.9830;
191.7000;0.0936;-0.9875;
192.0000;0.0928;-0.9898;
192.3000;0.0920;-0.9943;
192.6000;0.0904;-1.0011;
192.9000;0.0936;-0.9966;
193.2000;0.0928;-0.9966;
193.5000;0.0969;-0.9830;
193.8000;0.0895;-0.9988;
194.1000;0.0912;-0.9898;
194.4000;0.0928;-0.9784;
194.7000;0.0895;-0.9784;
195.0000;0.0847;-0.9920;
195.3000;0.0912;-0.9739;
195.6000;0.0838;-0.9966;
195.9000;0.0904;-0.9852;
196.2000;0.0936;-0.9762;
196.5000;0.0879;-0.9807;
196.8000;0.0912;-0.9739;
197.1000;0.0952;-0.9671;
197.4000;0.0944;-0.9716;
197.7000;0.0912;-0.9852;
198.0000;0.0936;-0.9875;
198.3000;0.0928;-0.9966;
198.6000;0.0887;-1.0237;
198.9000;0.0920;-1.0169;
199.2000;0.0920;-1.0079;
199.5000;0.0928;-0.9988;
199.8000;0.0904;-1.0034;
200.1000;0.0928;-0.9920;
200.4000;0.0944;-0.9830;
200.7000;0.0936;-0.9784;
201.0000;0.0952;-0.9716;
201.3000;0.0928;-0.9716;
201.6000;0.0920;-0.9762;
201.9000;0.0961;-0.9716;
202.2000;0.0936;-0.9807;
202.5000;0.0944;-0.9784;
202.8000;0.1001;-0.9649;
203.1000;0.0928;-0.9762;
203.4000;0.0895;-0.9898;
203.7000;0.0961;-0.9716;
204.0000;0.0936;-0.9875;
204.3000;0.0977;-0.9762;
204.6000;0.0863;-1.0034;
204.9000;0.0920;-0.9807;
205.2000;0.0920;-0.9694;
205.5000;0.0863;-0.9671;
205.8000;0.0928;-0.9603;
206.1000;0.0895;-0.9694;
206.4000;0.0936;-0.9671;
206.7000;0.0847;-0.9988;
207.0000;0.0928;-0.9762;
207.3000;0.0936;-0.9830;
207.6000;0.0944;-0.9739;
207.9000;0.0912;-0.9784;
208.2000;0.0920;-0.9762;
208.5000;0.0912;-0.9807;
208.8000;0.0928;-0.9739;
209.1000;0.1001;-0.9513;
209.4000;0.0928;-0.9762;
209.7000;0.0944;-0.9671;
210.0000;0.0977;-0.9490;
210.3000;0.0904;-0.9807;
210.6000;0.1018;-0.9490;
210.9000;0.0920;-0.9716;
211.2000;0.0887;-0.9852;
211.5000;0.0912;-0.9762;
211.8000;0.0928;-0.9694;
212.1000;0.0863;-0.9966;
212.4000;0.0928;-0.9807;
212.7000;0.0969;-0.9716;
213.0000;0.0936;-0.9739;
213.3000;0.0863;-0.9920;
213.6000;0.0944;-0.9762;
213.9000;0.0912;-0.9875;
214.2000;0.0920;-0.9807;
214.5000;0.0985;-0.9671;
214.8000;0.0895;-0.9875;
215.1000;0.0936;-0.9784;
215.4000;0.0798;-1.0034;
215.7000;0.0895;-0.9784;
216.0000;0.0920;-0.9626;
216.3000;0.0936;-0.9558;
216.6000;0.0895;-0.9626;
216.9000;0.0928;-0.9558;
217.2000;0.0936;-0.9558;
217.5000;0.0928;-0.9603;
217.8000;0.0952;-0.9603;
218.1000;0.0928;-0.9581;
218.4000;0.0936;-0.9581;
218.7000;0.0920;-0.9716;
219.0000;0.0855;-0.9943;
219.3000;0.0928;-0.9830;
219.6000;0.0904;-0.9898;
219.9000;0.0912;-0.9875;
220.2000;0.0944;-0.9716;
220.5000;0.0912;-0.9762;
220.8000;0.0936;-0.9784;
221.1000;0.0977;-0.9762;
221.4000;0.0912;-0.9875;
221.7000;0.0920;-0.9852;
222.0000;0.0855;-1.0034;
222.3000;0.0920;-0.9807;
222.6000;0.0952;-0.9739;
222.9000;0.0928;-0.9875;
223.2000;0.0895;-0.9875;
223.5000;0.0944;-0.9762;
223.8000;0.0912;-0.9875;
224.1000;0.0920;-0.9784;
224.4000;0.0944;-0.9739;
224.7000;0.0928;-0.9852;
225.0000;0.0920;-0.9875;
225.3000;0.0961;-0.9716;
225.6000;0.0920;-0.9830;
225.9000;0.0936;-0.9739;
226.2000;0.0912;-0.9807;
226.5000;0.0944;-0.9716;
226.8000;0.0936;-0.9694;
227.1000;0.0952;-0.9603;
227.4000;0.0879;-0.9762;
227.7000;0.0952;-0.9603;
228.0000;0.0961;-0.9649;
228.3000;0.0920;-0.9762;
228.6000;0.0952;-0.9671;
228.9000;0.0936;-0.9739;
229.2000;0.0928;-0.9784;
229.5000;0.0944;-0.9762;
229.8000;0.0936;-0.9807;
230.1000;0.0920;-0.9920;
230.4000;0.0912;-1.0011;
230.7000;0.0920;-0.9966;
231.0000;0.0920;-1.0034;
231.3000;0.0895;-1.0034;
231.6000;0.0887;-1.0011;
231.9000;0.0912;-0.9943;
232.2000;0.0952;-0.9807;
232.5000;0.0944;-0.9807;
232.8000;0.0944;-0.9784;
233.1000;0.0944;-0.9784;
233.4000;0.0936;-0.9943;
233.7000;0.0936;-0.9830;
234.0000;0.0936;-0.9739;
234.3000;0.0944;-0.9671;
234.6000;0.0879;-0.9807;
234.9000;0.0895;-0.9807;
235.2000;0.0936;-0.9784;
235.5000;0.0928;-0.9875;
235.8000;0.0912;-0.9898;
236.1000;0.0993;-0.9739;
236.4000;0.0912;-0.9920;
236.7000;0.0928;-0.9898;
237.0000;0.0920;-0.9830;
237.3000;0.0977;-0.9694;
237.6000;0.0985;-0.9694;
237.9000;0.0969;-0.9830;
238.2000;0.0928;-0.9920;
238.5000;0.0969;-0.9898;
238.8000;0.0928;-0.9988;
239.1000;0.0969;-0.9762;
239.4000;0.0936;-0.9898;
239.7000;0.0936;-0.9898;
240.0000;0.0952;-0.9830;
240.3000;0.0920;-0.9807;
240.6000;0.0961;-0.9852;
240.9000;0.0936;-0.9898;
241.2000;0.0928;-0.9852;
241.5000;0.0912;-0.9875;
241.8000;0.0855;-1.0011;
242.1000;0.1018;-0.9649;
242.4000;0.0944;-0.9898;
242.7000;0.0920;-0.9943;
243.0000;0.0879;-1.0034;
243.3000;0.0936;-0.9920;
243.6000;0.0952;-0.9830;
243.9000;0.0944;-0.9762;
244.2000;0.0944;-0.9807;
244.5000;0.1018;-0.9649;
244.8000;0.0895;-0.9875;
245.1000;0.0904;-0.9830;
245.4000;0.0936;-0.9649;
245.7000;0.0912;-0.9716;
246.0000;0.0936;-0.9716;
246.3000;0.0928;-0.9694;
246.6000;0.0928;-0.9739;
246.9000;0.0920;-0.9784;
247.2000;0.0944;-0.9807;
247.5000;0.0912;-0.9966;
247.8000;0.0936;-0.9898;
248.1000;0.0936;-0.9898;
248.4000;0.0977;-0.9784;
248.7000;0.0912;-0.9966;
249.0000;0.0944;-0.9875;
249.3000;0.0863;-1.0147;
249.6000;0.0928;-0.9966;
249.9000;0.0928;-1.0056;
250.2000;0.0912;-1.0124;
250.5000;0.0904;-1.0079;
250.8000;0.0887;-1.0079;
251.1000;0.0944;-0.9920;
251.4000;0.0879;-1.0079;
251.7000;0.0952;-0.9898;
252.0000;0.0912;-0.9988;
252.3000;0.0936;-1.0011;
252.6000;0.0936;-0.9966;
252.9000;0.0944;-0.9943;
253.2000;0.0952;-0.9784;
253.5000;0.0952;-0.9784;
253.8000;0.0936;-0.9875;
254.1000;0.0936;-0.9943;
254.4000;0.0904;-1.0011;
254.7000;0.0977;-0.9852;
255.0000;0.0920;-1.0011;
255.3000;0.0952;-0.9898;
255.6000;0.0944;-0.9898;
255.9000;0.0936;-0.9943;
256.2000;0.0895;-1.0034;
256.5000;0.0936;-0.9898;
256.8000;0.0920;-0.9830;
257.1000;0.0944;-0.9739;
257.4000;0.0944;-0.9739;
257.7000;0.0961;-0.9762;
258.0000;0.0944;-0.9694;
258.3000;0.0920;-0.9762;
258.6000;0.0928;-0.9649;
258.9000;0.0887;-0.9716;
259.2000;0.0944;-0.9581;
259.5000;0.0920;-0.9671;
259.8000;0.0928;-0.9716;
260.1000;0.0912;-0.9762;
260.4000;0.0952;-0.9671;
260.7000;0.0912;-0.9807;
261.0000;0.0904;-0.9830;
261.3000;0.0920;-0.9807;
261.6000;0.0871;-0.9966;
261.9000;0.0863;-0.9920;
262.2000;0.0904;-0.9739;
262.5000;0.0928;-0.9762;
262.8000;0.0928;-0.9830;
263.1000;0.0920;-0.9898;
263.4000;0.0944;-0.9852;
263.7000;0.0895;-0.9966;
264.0000;0.0936;-0.9898;
264.3000;0.0961;-0.9830;
264.6000;0.0895;-1.0079;
264.9000;0.0928;-1.0034;
265.2000;0.0936;-0.9920;
265.5000;0.0920;-0.9988;
265.8000;0.1001;-0.9716;
266.1000;0.0944;-0.9875;
266.4000;0.0904;-0.9920;
266.7000;0.0944;-0.9875;
267.0000;0.0928;-0.9966;
267.3000;0.0936;-0.9988;
267.6000;0.0936;-0.9943;
267.9000;0.0912;-0.9898;
268.2000;0.0912;-0.9830;
268.5000;0.0936;-0.9762;
268.8000;0.0952;-0.9830;
269.1000;0.0977;-0.9739;
269.4000;0.0952;-0.9762;
269.7000;0.1001;-0.9694;
270.0000;0.0952;-0.9875;
270.3000;0.0944;-0.9943;
270.6000;0.0912;-0.9988;
270.9000;0.0928;-0.9943;
271.2000;0.0920;-0.9988;
271.5000;0.0928;-0.9943;
271.8000;0.1034;-0.9626;
272.1000;0.0928;-0.9852;
272.4000;0.0912;-0.9875;
272.7000;0.0904;-0.9852;
273.0000;0.0928;-0.9716;
273.3000;0.0944;-0.9739;
273.6000;0.0912;-0.9784;
273.9000;0.0952;-0.9649;
274.2000;0.0928;-0.9739;
274.5000;0.0944;-0.9807;
274.8000;0.0944;-0.9830;
275.1000;0.0920;-0.9852;
275.4000;0.0952;-0.9807;
275.7000;0.0887;-0.9943;
276.0000;0.0936;-0.9830;
276.3000;0.0936;-0.9762;
276.6000;0.0912;-0.9739;
276.9000;0.0961;-0.9671;
277.2000;0.0961;-0.9626;
277.5000;0.0928;-0.9649;
277.8000;0.0895;-0.9739;
278.1000;0.0912;-0.9603;
278.4000;0.0920;-0.9581;
278.7000;0.0928;-0.9581;
279.0000;0.0928;-0.9445;
279.3000;0.0936;-0.9513;
279.6000;0.0936;-0.9535;
279.9000;0.0961;-0.9445;
280.2000;0.0904;-0.9649;
280.5000;0.0920;-0.9626;
280.8000;0.0944;-0.9603;
281.1000;0.0920;-0.9716;
281.4000;0.0895;-0.9784;
281.7000;0.0928;-0.9694;
282.0000;0.0936;-0.9694;
282.3000;0.0952;-0.9739;
282.6000;0.0928;-0.9739;
282.9000;0.0928;-0.9716;
283.2000;0.0920;-0.9739;
283.5000;0.0944;-0.9671;
283.8000;0.0928;-0.9649;
284.1000;0.0912;-0.9762;
284.4000;0.1001;-0.9490;
284.7000;0.0920;-0.9694;
285.0000;0.0928;-0.9694;
285.3000;0.0928;-0.9694;
285.6000;0.1009;-0.9581;
285.9000;0.0920;-0.9807;
286.2000;0.0920;-0.9852;
286.5000;0.0920;-0.9898;
286.8000;0.0912;-0.9920;
287.1000;0.0944;-0.9716;
287.4000;0.0879;-0.9852;
287.7000;0.0928;-0.9649;
288.0000;0.0936;-0.9626;
288.3000;0.0912;-0.9649;
288.6000;0.0920;-0.9739;
288.9000;0.0944;-0.9716;
289.2000;0.0887;-0.9875;
289.5000;0.0912;-0.9784;
289.8000;0.0895;-0.9807;
290.1000;0.1018;-0.9467;
290.4000;0.0944;-0.9671;
290.7000;0.0912;-0.9739;
291.0000;0.0944;-0.9716;
291.3000;0.0928;-0.9762;
291.6000;0.0904;-0.9694;
291.9000;0.0944;-0.9581;
292.2000;0.0936;-0.9626;
292.5000;0.0952;-0.9513;
292.8000;0.0944;-0.9581;
293.1000;0.0944;-0.9649;
293.4000;0.0952;-0.9626;
293.7000;0.0952;-0.9671;
294.0000;0.0944;-0.9649;
294.3000;0.0928;-0.9694;
294.6000;0.0944;-0.9626;
294.9000;0.0887;-0.9762;
295.2000;0.0928;-0.9581;
295.5000;0.0879;-0.9603;
295.8000;0.0928;-0.9603;
296.1000;0.0920;-0.9603;
296.4000;0.0993;-0.9467;
296.7000;0.0904;-0.9671;
297.0000;0.0912;-0.9716;
297.3000;0.0936;-0.9739;
297.6000;0.0936;-0.9716;
297.9000;0.0944;-0.9649;
298.2000;0.0912;-0.9716;
298.5000;0.0912;-0.9716;
298.8000;0.0920;-0.9739;
299.1000;0.0920;-0.9716;
299.4000;0.0912;-0.9762;
299.7000;0.0847;-0.9943;
300.0000;0.0952;-0.9649;
300.3000;0.0936;-0.9739;
300.6000;0.0912;-0.9875;
300.9000;0.0944;-0.9807;
301.2000;0.0912;-0.9830;
301.5000;0.0912;-0.9762;
301.8000;0.0912;-0.9830;
302.1000;0.0944;-0.9671;
302.4000;0.0952;-0.9626;
302.7000;0.0944;-0.9581;
303.0000;0.0920;-0.9694;
303.3000;0.0936;-0.9626;
303.6000;0.0936;-0.9558;
303.9000;0.0936;-0.9535;
304.2000;0.0993;-0.9467;
304.5000;0.0944;-0.9513;
304.8000;0.0920;-0.9626;
305.1000;0.0985;-0.9467;
305.4000;0.0936;-0.9671;
305.7000;0.0920;-0.9739;
306.0000;0.0904;-0.9762;
306.3000;0.0944;-0.9694;
306.6000;0.0936;-0.9807;
306.9000;0.0936;-0.9830;
307.2000;0.0814;-1.0124;
307.5000;0.0920;-0.9875;
307.8000;0.0920;-0.9920;
308.1000;0.0871;-1.0034;
308.4000;0.0920;-0.9966;
308.7000;0.0936;-0.9920;
309.0000;0.0904;-0.9943;
309.3000;0.0912;-0.9830;
309.6000;0.0961;-0.9649;
309.9000;0.0920;-0.9875;
310.2000;0.0904;-0.9852;
310.5000;0.0912;-0.9898;
310.8000;0.0936;-0.9830;
311.1000;0.0912;-0.9943;
311.4000;0.0920;-0.9920;
311.7000;0.0936;-0.9830;
312.0000;0.0830;-1.0034;
312.3000;0.0920;-0.9920;
312.6000;0.0977;-0.9762;
312.9000;0.0928;-0.9875;
313.2000;0.0912;-0.9966;
313.5000;0.0952;-0.9898;
313.8000;0.0936;-0.9898;
314.1000;0.0936;-0.9943;
314.4000;0.0920;-1.0101;
314.7000;0.1058;-0.9739;
315.0000;0.0912;-0.9988;
315.3000;0.0928;-0.9898;
315.6000;0.0928;-0.9830;
315.9000;0.0944;-0.9875;
316.2000;0.0936;-0.9898;
316.5000;0.0952;-0.9852;
316.8000;0.0944;-0.9875;
317.1000;0.0920;-1.0079;
317.4000;0.0904;-1.0101;
317.7000;0.0936;-1.0056;
318.0000;0.0952;-0.9943;
318.3000;0.0928;-0.9875;
318.6000;0.0952;-0.9762;
318.9000;0.0952;-0.9716;
319.2000;0.0936;-0.9762;
319.5000;0.0936;-0.9762;
319.8000;0.0928;-0.9762;
320.1000;0.0936;-0.9739;
320.4000;0.0928;-0.9739;
320.7000;0.0928;-0.9694;
321.0000;0.0928;-0.9671;
321.3000;0.0944;-0.9581;
321.6000;0.0895;-0.9694;
321.9000;0.0936;-0.9694;
322.2000;0.0912;-0.9762;
322.5000;0.0936;-0.9762;
322.8000;0.0961;-0.9739;
323.1000;0.0977;-0.9762;
323.4000;0.0904;-0.9943;
323.7000;0.0944;-0.9807;
324.0000;0.0912;-0.9943;
324.3000;0.0920;-0.9988;
324.6000;0.0920;-0.9920;
324.9000;0.0961;-0.9830;
325.2000;0.0961;-0.9784;
325.5000;0.0944;-0.9830;
325.8000;0.0928;-0.9898;
326.1000;0.0952;-0.9898;
326.4000;0.0952;-0.9966;
326.7000;0.0920;-1.0056;
327.0000;0.0920;-1.0056;
327.3000;0.0920;-0.9898;
327.6000;0.0912;-0.9898;
327.9000;0.0928;-0.9784;
328.2000;0.0969;-0.9784;
328.5000;0.0920;-0.9943;
328.8000;0.0952;-0.9852;
329.1000;0.0920;-0.9807;
329.4000;0.0936;-0.9762;
329.7000;0.0887;-0.9920;
330.0000;0.0920;-0.9943;
330.3000;0.0952;-0.9966;
330.6000;0.0944;-0.9943;
330.9000;0.0944;-0.9988;
331.2000;0.0928;-1.0011;
331.5000;0.0936;-0.9898;
331.8000;0.0944;-0.9920;
332.1000;0.0993;-0.9739;
332.4000;0.0863;-1.0079;
332.7000;0.0928;-0.9920;
333.0000;0.0952;-0.9920;
333.3000;0.0912;-0.9988;
333.6000;0.1018;-0.9671;
333.9000;0.0936;-0.9807;
334.2000;0.1066;-0.9445;
334.5000;0.0952;-0.9694;
334.8000;0.0944;-0.9716;
335.1000;0.0912;-0.9830;
335.4000;0.0936;-0.9739;
335.7000;0.0936;-0.9739;
336.0000;0.0822;-0.9943;
336.3000;0.0904;-0.9830;
336.6000;0.0912;-0.9852;
336.9000;0.0920;-0.9830;
337.2000;0.0912;-0.9784;
337.5000;0.0912;-0.9762;
337.8000;0.0969;-0.9626;
338.1000;0.0936;-0.9626;
338.4000;0.0920;-0.9694;
338.7000;0.1001;-0.9513;
339.0000;0.0895;-0.9807;
339.3000;0.0912;-0.9807;
339.6000;0.0895;-0.9898;
339.9000;0.0928;-0.9830;
340.2000;0.0936;-0.9762;
340.5000;0.0969;-0.9671;
340.8000;0.0936;-0.9716;
341.1000;0.0936;-0.9784;
341.4000;0.0920;-0.9830;
341.7000;0.0944;-0.9716;
342.0000;0.0928;-0.9739;
342.3000;0.0936;-0.9807;
342.6000;0.0944;-0.9830;
342.9000;0.0961;-0.9716;
343.2000;0.0944;-0.9739;
343.5000;0.0936;-0.9739;
343.8000;0.0928;-0.9739;
344.1000;0.0936;-0.9716;
344.4000;0.0912;-0.9762;
344.7000;0.0806;-1.0079;
345.0000;0.0879;-0.9898;
345.3000;0.0944;-0.9784;
345.6000;0.0928;-0.9807;
345.9000;0.0928;-0.9807;
346.2000;0.0928;-0.9830;
346.5000;0.0936;-0.9807;
346.8000;0.0928;-0.9830;
347.1000;0.1074;-0.9422;
347.4000;0.0961;-0.9784;
347.7000;0.0928;-0.9784;
348.0000;0.0928;-0.9694;
348.3000;0.0936;-0.9671;
348.6000;0.0944;-0.9649;
348.9000;0.0928;-0.9694;
349.2000;0.0944;-0.9716;
349.5000;0.0920;-0.9784;
349.8000;0.0936;-0.9784;
350.1000;0.0920;-0.9830;
350.4000;0.0928;-0.9852;
350.7000;0.0928;-0.9830;
351.0000;0.0887;-0.9943;
351.3000;0.0928;-0.9898;
351.6000;0.0944;-0.9943;
351.9000;0.1018;-0.9716;
352.2000;0.0944;-0.9943;
352.5000;0.0904;-1.0011;
352.8000;0.0944;-0.9875;
353.1000;0.0936;-0.9830;
353.4000;0.0936;-0.9762;
353.7000;0.0944;-0.9716;
354.0000;0.0936;-0.9807;
354.3000;0.0928;-0.9739;
354.6000;0.0879;-0.9852;
354.9000;0.0920;-0.9784;
355.2000;0.0912;-0.9830;
355.5000;0.0985;-0.9649;
355.8000;0.0912;-0.9830;
356.1000;0.0936;-0.9762;
356.4000;0.0912;-0.9762;
356.7000;0.0912;-0.9694;
357.0000;0.0920;-0.9626;
357.3000;0.0895;-0.9739;
357.6000;0.0944;-0.9716;
357.9000;0.0928;-0.9716;
358.2000;0.0936;-0.9581;
358.5000;0.0806;-0.9875;
358.8000;0.0944;-0.9535;
359.1000;0.0912;-0.9716;
359.4000;0.0944;-0.9649;
359.7000;0.0928;-0.9739;
360.0000;0.0920;-0.9762;
360.3000;0.0928;-0.9762;
360.6000;0.0928;-0.9716;
360.9000;0.0928;-0.9762;
361.2000;0.0936;-0.9762;
361.5000;0.0928;-0.9807;
361.8000;0.0928;-0.9762;
362.1000;0.0928;-0.9784;
362.4000;0.0936;-0.9784;
362.7000;0.0936;-0.9694;
363.0000;0.0920;-0.9626;
363.3000;0.0920;-0.9581;
363.6000;0.0928;-0.9535;
363.9000;0.0912;-0.9581;
364.2000;0.0928;-0.9603;
364.5000;0.0936;-0.9603;
364.8000;0.0944;-0.9626;
365.1000;0.0969;-0.9626;
365.4000;0.0920;-0.9716;
365.7000;0.0936;-0.9671;
366.0000;0.0977;-0.9558;
366.3000;0.0928;-0.9739;
366.6000;0.0928;-0.9716;
366.9000;0.0952;-0.9649;
367.2000;0.0920;-0.9716;
367.5000;0.0961;-0.9581;
367.8000;0.0944;-0.9671;
368.1000;0.0985;-0.9535;
368.4000;0.0961;-0.9626;
368.7000;0.0936;-0.9716;
369.0000;0.0920;-0.9830;
369.3000;0.0936;-0.9784;
369.6000;0.0969;-0.9739;
369.9000;0.0961;-0.9739;
370.2000;0.0936;-0.9807;
370.5000;0.0928;-0.9830;
370.8000;0.0936;-0.9830;
371.1000;0.0904;-0.9852;
371.4000;0.0944;-0.9694;
371.7000;0.0944;-0.9694;
372.0000;0.0928;-0.9807;
372.3000;0.0944;-0.9784;
372.6000;0.0879;-0.9830;
372.9000;0.0952;-0.9649;
373.2000;0.0936;-0.9671;
373.5000;0.0887;-0.9807;
373.8000;0.0936;-0.9671;
374.1000;0.0855;-0.9966;
374.4000;0.0944;-0.9762;
374.7000;0.0952;-0.9694;
375.0000;0.0961;-0.9649;
375.3000;0.0928;-0.9603;
375.6000;0.0936;-0.9581;
375.9000;0.0952;-0.9581;
376.2000;0.0952;-0.9581;
376.5000;0.0920;-0.9694;
376.8000;0.0977;-0.9603;
377.1000;0.0928;-0.9649;
377.4000;0.0928;-0.9694;
377.7000;0.0961;-0.9626;
378.0000;0.0928;-0.9739;
378.3000;0.0952;-0.9784;
378.6000;0.0936;-0.9830;
378.9000;0.1018;-0.9626;
379.2000;0.0912;-0.9852;
379.5000;0.0936;-0.9830;
379.8000;0.0944;-0.9875;
380.1000;0.0952;-0.9898;
380.4000;0.0985;-0.9898;
380.7000;0.0912;-1.0034;
381.0000;0.0912;-0.9966;
381.3000;0.0936;-0.9875;
381.6000;0.0912;-0.9966;
381.9000;0.0928;-0.9943;
382.2000;0.0944;-0.9943;
382.5000;0.0961;-0.9898;
382.8000;0.0952;-0.9807;
383.1000;0.0928;-0.9739;
383.4000;0.0944;-0.9762;
383.7000;0.0936;-0.9762;
384.0000;0.1001;-0.9535;
384.3000;0.0928;-0.9716;
384.6000;0.0904;-0.9898;
384.9000;0.0920;-0.9852;
385.2000;0.0928;-0.9739;
385.5000;0.0928;-0.9852;
385.8000;0.0944;-0.9784;
386.1000;0.0969;-0.9671;
386.4000;0.0944;-0.9784;
386.7000;0.0920;-0.9852;
387.0000;0.0928;-0.9852;
387.3000;0.0952;-0.9830;
387.6000;0.0952;-0.9762;
387.9000;0.0969;-0.9762;
388.2000;0.0944;-0.9920;
388.5000;0.0928;-0.9988;
388.8000;0.0928;-0.9966;
389.1000;0.0928;-0.9920;
389.4000;0.0920;-0.9988;
389.7000;0.0936;-0.9988;
390.0000;0.0928;-0.9988;
390.3000;0.0952;-0.9988;
390.6000;0.0912;-1.0079;
390.9000;0.0961;-0.9898;
391.2000;0.0928;-0.9920;
391.5000;0.0928;-0.9988;
391.8000;0.0952;-0.9898;
392.1000;0.0961;-0.9852;
392.4000;0.0928;-0.9807;
392.7000;0.0928;-0.9784;
393.0000;0.0969;-0.9716;
393.3000;0.0952;-0.9762;
393.6000;0.0961;-0.9739;
393.9000;0.0969;-0.9694;
394.2000;0.0928;-0.9739;
394.5000;0.0920;-0.9762;
394.8000;0.0928;-0.9784;
395.1000;0.0904;-0.9830;
395.4000;0.0928;-0.9784;
395.7000;0.0936;-0.9716;
396.0000;0.0887;-0.9784;
396.3000;0.0928;-0.9762;
396.6000;0.0928;-0.9784;
396.9000;0.0920;-0.9762;
397.2000;0.0920;-0.9762;
397.5000;0.0904;-0.9920;
397.8000;0.0936;-0.9898;
398.1000;0.0952;-0.9988;
398.4000;0.0928;-1.0079;
398.7000;0.0928;-0.9920;
399.0000;0.0920;-0.9898;
399.3000;0.0936;-0.9830;
399.6000;0.0863;-1.0056;
399.9000;0.0993;-0.9716;
400.2000;0.0928;-0.9852;
400.5000;0.1083;-0.9467;
400.8000;0.0904;-0.9875;
401.1000;0.0895;-0.9852;
401.4000;0.0936;-0.9784;
401.7000;0.0928;-0.9784;
402.0000;0.0912;-0.9830;
402.3000;0.0928;-0.9807;
402.6000;0.1001;-0.9581;
402.9000;0.0961;-0.9694;
403.2000;0.0928;-0.9739;
403.5000;0.0936;-0.9671;
403.8000;0.0952;-0.9671;
404.1000;0.0944;-0.9671;
404.4000;0.0920;-0.9830;
404.7000;0.0920;-0.9807;
405.0000;0.0928;-0.9875;
405.3000;0.0944;-0.9784;
405.6000;0.0952;-0.9739;
405.9000;0.0920;-0.9807;
406.2000;0.0920;-0.9807;
406.5000;0.0944;-0.9694;
406.8000;0.0928;-0.9739;
407.1000;0.0936;-0.9716;
407.4000;0.0895;-0.9784;
407.7000;0.0952;-0.9671;
408.0000;0.0936;-0.9626;
408.3000;0.0904;-0.9694;
408.6000;0.0936;-0.9603;
408.9000;0.0936;-0.9694;
409.2000;0.0952;-0.9671;
409.5000;0.0936;-0.9739;
409.8000;0.0912;-0.9807;
410.1000;0.0920;-0.9807;
410.4000;0.0904;-0.9875;
410.7000;0.0928;-0.9807;
411.0000;0.0920;-0.9716;
411.3000;0.0944;-0.9671;
411.6000;0.0928;-0.9739;
411.9000;0.0952;-0.9784;
412.2000;0.0928;-0.9852;
412.5000;0.0952;-0.9898;
412.8000;0.0944;-0.9943;
413.1000;0.0969;-0.9898;
413.4000;0.0985;-0.9852;
413.7000;0.0936;-0.9966;
414.0000;0.0912;-0.9988;
414.3000;0.0928;-0.9852;
414.6000;0.0912;-0.9852;
414.9000;0.0912;-0.9807;
415.2000;0.0928;-0.9830;
415.5000;0.0838;-1.0124;
415.8000;0.0993;-0.9784;
416.1000;0.0912;-0.9988;
416.4000;0.1018;-0.9694;
416.7000;0.0944;-0.9875;
417.0000;0.0969;-0.9852;
417.3000;0.0936;-0.9988;
417.6000;0.0904;-1.0079;
417.9000;0.0904;-1.0079;
418.2000;0.0904;-1.0034;
418.5000;0.0928;-1.0011;
418.8000;0.0920;-0.9988;
419.1000;0.0944;-0.9875;
419.4000;0.0944;-0.9898;
419.7000;0.0928;-0.9898;
420.0000;0.0936;-0.9898;
420.3000;0.0936;-0.9830;
420.6000;0.0912;-0.9875;
420.9000;0.0928;-0.9739;
421.2000;0.0952;-0.9762;
421.5000;0.0969;-0.9762;
421.8000;0.0936;-0.9830;
422.1000;0.1034;-0.9581;
422.4000;0.0928;-0.9762;
422.7000;0.0928;-0.9898;
423.0000;0.0936;-0.9830;
423.3000;0.0936;-0.9875;
423.6000;0.0936;-0.9920;
423.9000;0.0952;-0.9966;
424.2000;0.0944;-0.9966;
424.5000;0.0961;-0.9943;
424.8000;0.0944;-1.0011;
425.1000;0.0928;-1.0124;
425.4000;0.0920;-1.0079;
425.7000;0.0928;-1.0079;
426.0000;0.0912;-1.0215;
426.3000;0.0928;-1.0305;
426.6000;0.0912;-1.0373;
426.9000;0.0904;-1.0328;
427.2000;0.0944;-1.0101;
427.5000;0.0912;-1.0124;
427.8000;0.0912;-1.0011;
428.1000;0.0928;-0.9943;
428.4000;0.0928;-0.9966;
428.7000;0.0944;-0.9852;
429.0000;0.0985;-0.9739;
429.3000;0.0928;-0.9830;
429.6000;0.0928;-0.9852;
429.9000;0.0904;-0.9807;
430.2000;0.0904;-0.9784;
430.5000;0.0961;-0.9716;
430.8000;0.0928;-0.9716;
431.1000;0.0928;-0.9649;
431.4000;0.0904;-0.9671;
431.7000;0.0912;-0.9649;
432.0000;0.0936;-0.9603;
432.3000;0.0961;-0.9671;
432.6000;0.0936;-0.9671;
432.9000;0.0928;-0.9671;
433.2000;0.0920;-0.9739;
433.5000;0.0920;-0.9739;
433.8000;0.0936;-0.9694;
434.1000;0.0920;-0.9649;
434.4000;0.0944;-0.9626;
434.7000;0.0928;-0.9694;
435.0000;0.0944;-0.9581;
435.3000;0.0936;-0.9626;
435.6000;0.0895;-0.9762;
435.9000;0.0977;-0.9581;
436.2000;0.0936;-0.9694;
436.5000;0.0863;-0.9830;
436.8000;0.0928;-0.9716;
437.1000;0.0944;-0.9852;
437.4000;0.0871;-1.0056;
437.7000;0.0928;-0.9762;
438.0000;0.0928;-0.9762;
438.3000;0.0944;-0.9649;
438.6000;0.1001;-0.9490;
438.9000;0.0855;-0.9898;
439.2000;0.0928;-0.9626;
439.5000;0.0928;-0.9626;
439.8000;0.0944;-0.9558;
440.1000;0.0920;-0.9671;
440.4000;0.0920;-0.9535;
440.7000;0.0928;-0.9467;
441.0000;0.0928;-0.9467;
441.3000;0.0936;-0.9467;
441.6000;0.0887;-0.9603;
441.9000;0.0936;-0.9558;
442.2000;0.1009;-0.9354;
442.5000;0.0936;-0.9581;
442.8000;0.0936;-0.9626;
443.1000;0.0904;-0.9830;
443.4000;0.0920;-0.9649;
443.7000;0.0920;-0.9626;
444.0000;0.0920;-0.9649;
444.3000;0.0855;-0.9807;
444.6000;0.0936;-0.9626;
444.9000;0.0928;-0.9581;
445.2000;0.0920;-0.9626;
445.5000;0.0895;-0.9716;
445.8000;0.0928;-0.9649;
446.1000;0.0928;-0.9603;
446.4000;0.0920;-0.9603;
446.7000;0.0952;-0.9603;
447.0000;0.0838;-0.9898;
447.3000;0.0895;-0.9739;
447.6000;0.1001;-0.9490;
447.9000;0.0936;-0.9671;
448.2000;0.0936;-0.9581;
448.5000;0.0920;-0.9626;
448.8000;0.0895;-0.9784;
449.1000;0.0944;-0.9671;
449.4000;0.1034;-0.9377;
449.7000;0.0985;-0.9603;
450.0000;0.0969;-0.9716;
450.3000;0.0936;-0.9875;
450.6000;0.0928;-0.9943;
450.9000;0.0920;-0.9966;
451.2000;0.0977;-0.9762;
451.5000;0.0936;-0.9875;
451.8000;0.0928;-0.9988;
452.1000;0.0920;-0.9898;
452.4000;0.0936;-0.9920;
452.7000;0.0920;-1.0011;
453.0000;0.0977;-0.9852;
453.3000;0.0920;-0.9943;
453.6000;0.0944;-0.9784;
453.9000;0.0952;-0.9694;
454.2000;0.0928;-0.9716;
454.5000;0.0904;-0.9762;
454.8000;0.0961;-0.9603;
455.1000;0.0944;-0.9649;
455.4000;0.0936;-0.9694;
455.7000;0.0961;-0.9581;
456.0000;0.0944;-0.9739;
456.3000;0.0928;-0.9807;
456.6000;0.0961;-0.9671;
456.9000;0.0855;-0.9920;
457.2000;0.0928;-0.9694;
457.5000;0.0961;-0.9581;
457.8000;0.1018;-0.9399;
458.1000;0.0952;-0.9626;
458.4000;0.0912;-0.9716;
458.7000;0.0920;-0.9784;
459.0000;0.0952;-0.9694;
459.3000;0.0912;-0.9875;
459.6000;0.0944;-0.9784;
459.9000;0.0985;-0.9626;
460.2000;0.0944;-0.9694;
460.5000;0.0944;-0.9762;
460.8000;0.0887;-0.9966;
461.1000;0.0952;-0.9852;
461.4000;0.0928;-0.9898;
461.7000;0.0944;-0.9852;
462.0000;0.0952;-0.9807;
462.3000;0.0863;-0.9966;
462.6000;0.1009;-0.9626;
462.9000;0.0920;-0.9898;
463.2000;0.0944;-0.9875;
463.5000;0.0936;-0.9920;
463.8000;0.0904;-0.9898;
464.1000;0.0944;-0.9807;
464.4000;0.0944;-0.9739;
464.7000;0.0928;-0.9649;
465.0000;0.0952;-0.9581;
465.3000;0.0920;-0.9694;
465.6000;0.0944;-0.9671;
465.9000;0.0928;-0.9671;
466.2000;0.0944;-0.9694;
466.5000;0.0961;-0.9694;
466.8000;0.0928;-0.9762;
467.1000;0.0944;-0.9716;
467.4000;0.0920;-0.9762;
467.7000;0.0928;-0.9694;
468.0000;0.0920;-0.9716;
468.3000;0.0985;-0.9513;
468.6000;0.0936;-0.9535;
468.9000;0.0895;-0.9694;
469.2000;0.0855;-0.9830;
469.5000;0.0961;-0.9558;
469.8000;0.0920;-0.9762;
470.1000;0.0944;-0.9807;
470.4000;0.0936;-0.9807;
470.7000;0.0936;-0.9784;
471.0000;0.0855;-0.9988;
471.3000;0.0928;-0.9852;
471.6000;0.0936;-0.9830;
471.9000;0.0904;-0.9920;
472.2000;0.0904;-0.9920;
472.5000;0.0814;-1.0056;
472.8000;0.0969;-0.9671;
473.1000;0.0985;-0.9626;
473.4000;0.1042;-0.9513;
473.7000;0.0977;-0.9671;
474.0000;0.0928;-0.9739;
474.3000;0.0928;-0.9739;
474.6000;0.0977;-0.9626;
474.9000;0.0936;-0.9716;
475.2000;0.0944;-0.9784;
475.5000;0.0969;-0.9784;
475.8000;0.0993;-0.9762;
476.1000;0.0985;-0.9762;
476.4000;0.0920;-0.9920;
476.7000;0.0920;-0.9920;
477.0000;0.1018;-0.9626;
477.3000;0.0920;-0.9875;
477.6000;0.0936;-0.9784;
477.9000;0.0961;-0.9807;
478.2000;0.0912;-0.9898;
478.5000;0.0944;-0.9875;
478.8000;0.0944;-0.9875;
479.1000;0.0969;-0.9875;
479.4000;0.0952;-0.9898;
479.7000;0.0961;-0.9762;
480.0000;0.0912;-0.9830;
480.3000;0.0912;-0.9762;
480.6000;0.0928;-0.9784;
480.9000;0.0895;-0.9852;
481.2000;0.0936;-0.9739;
481.5000;0.0961;-0.9626;
481.8000;0.0944;-0.9649;
482.1000;0.0912;-0.9716;
482.4000;0.0977;-0.9603;
482.7000;0.1009;-0.9513;
483.0000;0.0961;-0.9581;
483.3000;0.0928;-0.9671;
483.6000;0.0855;-0.9830;
483.9000;0.0936;-0.9716;
484.2000;0.0969;-0.9558;
484.5000;0.0920;-0.9626;
484.8000;0.0814;-0.9966;
485.1000;0.0961;-0.9671;
485.4000;0.0806;-1.0079;
485.7000;0.0928;-0.9739;
486.0000;0.0936;-0.9716;
486.3000;0.0993;-0.9603;
486.6000;0.0961;-0.9671;
486.9000;0.0871;-0.9966;
487.2000;0.0928;-0.9898;
487.5000;0.0952;-0.9852;
487.8000;0.0887;-1.0011;
488.1000;0.0920;-0.9875;
488.4000;0.0952;-0.9852;
488.7000;0.0879;-0.9966;
489.0000;0.0928;-0.9830;
489.3000;0.0944;-0.9830;
489.6000;0.0977;-0.9875;
489.9000;0.1058;-0.9649;
490.2000;0.0912;-0.9943;
490.5000;0.0993;-0.9739;
490.8000;0.0920;-0.9943;
491.1000;0.0944;-0.9875;
491.4000;0.0928;-0.9898;
491.7000;0.0944;-0.9875;
492.0000;0.1001;-0.9784;
492.3000;0.0912;-0.9943;
492.6000;0.0920;-0.9920;
492.9000;0.0879;-1.0056;
493.2000;0.0944;-0.9807;
493.5000;0.0993;-0.9784;
493.8000;0.0895;-1.0079;
494.1000;0.0928;-0.9966;
494.4000;0.0944;-0.9920;
494.7000;0.0969;-0.9762;
495.0000;0.0944;-0.9784;
495.3000;0.0952;-0.9830;
495.6000;0.0961;-0.9807;
495.9000;0.0928;-0.9898;
496.2000;0.0920;-0.9943;
496.5000;0.0830;-1.0124;
496.8000;0.0961;-0.9807;
497.1000;0.0904;-0.9898;
497.4000;0.0936;-0.9807;
497.7000;0.0920;-0.9830;
498.0000;0.0944;-0.9852;
498.3000;0.0928;-0.9943;
498.6000;0.1009;-0.9784;
498.9000;0.0944;-0.9898;
499.2000;0.0952;-0.9898;
499.5000;0.0961;-0.9875;
499.8000;0.0847;-1.0101;
500.1000;0.0912;-0.9875;
500.4000;0.0928;-0.9784;
500.7000;0.0895;-0.9807;
501.0000;0.0920;-0.9807;
501.3000;0.0920;-0.9762;
501.6000;0.0952;-0.9694;
501.9000;0.0912;-0.9784;
502.2000;0.0952;-0.9807;
502.5000;0.0944;-0.9739;
502.8000;0.0847;-0.9966;
503.1000;0.0993;-0.9694;
503.4000;0.0952;-0.9716;
503.7000;0.0936;-0.9875;
504.0000;0.0928;-0.9920;
504.3000;0.0928;-0.9920;
504.6000;0.0944;-0.9852;
504.9000;0.0912;-0.9875;
505.2000;0.0920;-0.9784;
505.5000;0.0961;-0.9716;
505.8000;0.0944;-0.9762;
506.1000;0.0920;-0.9852;
506.4000;0.0944;-0.9875;
506.7000;0.0944;-0.9784;
507.0000;0.0961;-0.9694;
507.3000;0.0920;-0.9762;
507.6000;0.0944;-0.9716;
507.9000;0.0895;-0.9875;
508.2000;0.0944;-0.9649;
508.5000;0.0969;-0.9535;
508.8000;0.0969;-0.9490;
509.1000;0.0920;-0.9649;
509.4000;0.0944;-0.9671;
509.7000;0.0961;-0.9626;
510.0000;0.0961;-0.9535;
510.3000;0.0928;-0.9558;
510.6000;0.1026;-0.9241;
510.9000;0.1058;-0.9173;
511.2000;0.0928;-0.9558;
511.5000;0.0928;-0.9603;
511.8000;0.0961;-0.9467;
512.1000;0.0936;-0.9467;
512.4000;0.0936;-0.9649;
512.7000;0.0944;-0.9603;
513.0000;0.0920;-0.9716;
513.3000;0.0871;-0.9830;
513.6000;0.0961;-0.9626;
513.9000;0.1009;-0.9490;
514.2000;0.0879;-0.9807;
514.5000;0.0952;-0.9581;
514.8000;0.0936;-0.9603;
515.1000;0.0806;-0.9920;
515.4000;0.0928;-0.9603;
515.7000;0.0920;-0.9603;
516.0000;0.0936;-0.9558;
516.3000;0.0920;-0.9626;
516.6000;0.0936;-0.9649;
516.9000;0.0928;-0.9739;
517.2000;0.0920;-0.9694;
517.5000;0.0863;-0.9852;
517.8000;0.0920;-0.9694;
518.1000;0.0920;-0.9694;
518.4000;0.0936;-0.9694;
518.7000;0.0944;-0.9739;
519.0000;0.0944;-0.9671;
519.3000;0.0920;-0.9671;
519.6000;0.0977;-0.9467;
519.9000;0.0977;-0.9513;
520.2000;0.0952;-0.9581;
520.5000;0.1083;-0.9286;
520.8000;0.0895;-0.9807;
521.1000;0.0928;-0.9739;
521.4000;0.0944;-0.9716;
521.7000;0.0887;-0.9830;
522.0000;0.0936;-0.9739;
522.3000;0.0920;-0.9807;
522.6000;0.0887;-0.9943;
522.9000;0.0928;-0.9784;
523.2000;0.0912;-0.9716;
523.5000;0.0936;-0.9558;
523.8000;0.0928;-0.9581;
524.1000;0.0928;-0.9558;
524.4000;0.0928;-0.9603;
524.7000;0.0944;-0.9603;
525.0000;0.0912;-0.9784;
525.3000;0.0928;-0.9784;
525.6000;0.0920;-0.9830;
525.9000;0.0920;-0.9830;
526.2000;0.0920;-0.9898;
526.5000;0.0920;-0.9852;
526.8000;0.0920;-0.9762;
527.1000;0.0920;-0.9784;
527.4000;0.0961;-0.9784;
527.7000;0.0936;-0.9875;
528.0000;0.0904;-0.9988;
528.3000;0.0928;-0.9943;
528.6000;0.0904;-0.9966;
528.9000;0.1050;-0.9513;
529.2000;0.0928;-0.9830;
529.5000;0.0961;-0.9784;
529.8000;0.0944;-0.9830;
530.1000;0.0944;-0.9875;
530.4000;0.0944;-0.9943;
530.7000;0.0920;-0.9988;
531.0000;0.1009;-0.9694;
531.3000;0.1050;-0.9581;
531.6000;0.0928;-0.9807;
531.9000;0.1083;-0.9490;
532.2000;0.0928;-1.0011;
532.5000;0.1026;-0.9762;
532.8000;0.0977;-0.9852;
533.1000;0.0904;-1.0011;
533.4000;0.0961;-0.9920;
533.7000;0.0977;-0.9898;
534.0000;0.0936;-0.9852;
534.3000;0.0920;-0.9830;
534.6000;0.0879;-0.9898;
534.9000;0.0928;-0.9694;
535.2000;0.0912;-0.9807;
535.5000;0.0985;-0.9626;
535.8000;0.0928;-0.9830;
536.1000;0.1001;-0.9603;
536.4000;0.0936;-0.9852;
536.7000;0.0814;-1.0147;
537.0000;0.0985;-0.9830;
537.3000;0.0936;-1.0034;
537.6000;0.0928;-0.9920;
537.9000;0.0944;-0.9852;
538.2000;0.0928;-0.9966;
538.5000;0.0920;-0.9920;
538.8000;0.0944;-0.9875;
539.1000;0.1074;-0.9581;
539.4000;0.0944;-0.9852;
539.7000;0.0928;-0.9898;
540.0000;0.0944;-0.9943;
540.3000;0.0944;-0.9988;
540.6000;0.1018;-0.9807;
540.9000;0.0920;-0.9988;
541.2000;0.0920;-0.9920;
541.5000;0.0749;-1.0373;
541.8000;0.0912;-0.9988;
542.1000;0.0912;-0.9943;
542.4000;0.0928;-0.9920;
542.7000;0.1009;-0.9762;
543.0000;0.0944;-0.9898;
543.3000;0.0944;-0.9943;
543.6000;0.1034;-0.9807;
543.9000;0.0969;-0.9966;
544.2000;0.1001;-0.9807;
544.5000;0.0912;-1.0056;
544.8000;0.0920;-1.0011;
545.1000;0.0944;-0.9943;
545.4000;0.0912;-1.0101;
545.7000;0.0936;-0.9966;
546.0000;0.0936;-0.9943;
546.3000;0.0936;-0.9988;
546.6000;0.0944;-0.9943;
546.9000;0.0936;-0.9966;
547.2000;0.0969;-0.9898;
547.5000;0.0977;-0.9762;
547.8000;0.0936;-0.9830;
548.1000;0.0928;-0.9943;
548.4000;0.0928;-0.9943;
548.7000;0.0936;-0.9920;
549.0000;0.0944;-0.9852;
549.3000;0.0912;-0.9852;
549.6000;0.0969;-0.9694;
549.9000;0.0928;-0.9830;
550.2000;0.0928;-0.9898;
550.5000;0.0928;-0.9920;
550.8000;0.0920;-1.0056;
551.1000;0.0920;-1.0079;
551.4000;0.0944;-0.9943;
551.7000;0.1009;-0.9649;
552.0000;0.0928;-0.9716;
552.3000;0.0936;-0.9603;
552.6000;0.0904;-0.9739;
552.9000;0.0920;-0.9784;
553.2000;0.0904;-0.9875;
553.5000;0.0952;-0.9762;
553.8000;0.0944;-0.9807;
554.1000;0.0928;-0.9739;
554.4000;0.0952;-0.9694;
554.7000;0.0928;-0.9626;
555.0000;0.0912;-0.9671;
555.3000;0.0920;-0.9830;
555.6000;0.0912;-0.9784;
555.9000;0.0912;-0.9807;
556.2000;0.0920;-0.9852;
556.5000;0.0928;-0.9830;
556.8000;0.0928;-0.9875;
557.1000;0.0928;-0.9988;
557.4000;0.0920;-1.0079;
557.7000;0.0904;-1.0056;
558.0000;0.0952;-0.9920;
558.3000;0.0936;-0.9920;
558.6000;0.0920;-0.9920;
558.9000;0.0944;-0.9852;
559.2000;0.0936;-0.9920;
559.5000;0.0952;-0.9875;
559.8000;0.0961;-0.9875;
560.1000;0.0928;-0.9898;
560.4000;0.0944;-0.9875;
560.7000;0.1001;-0.9762;
561.0000;0.0920;-0.9988;
561.3000;0.0871;-1.0124;
561.6000;0.0920;-0.9988;
561.9000;0.0928;-0.9898;
562.2000;0.0863;-1.0011;
562.5000;0.1066;-0.9422;
562.8000;0.0952;-0.9649;
563.1000;0.0936;-0.9671;
563.4000;0.0928;-0.9762;
563.7000;0.0920;-0.9716;
564.0000;0.0969;-0.9626;
564.3000;0.0920;-0.9830;
564.6000;0.0895;-0.9830;
564.9000;0.0928;-0.9739;
565.2000;0.0920;-0.9807;
565.5000;0.0912;-0.9852;
565.8000;0.0920;-0.9875;
566.1000;0.0977;-0.9784;
566.4000;0.0928;-0.9898;
566.7000;0.0944;-0.9830;
567.0000;0.0920;-0.9875;
567.3000;0.0928;-0.9852;
567.6000;0.1066;-0.9535;
567.9000;0.0944;-0.9875;
568.2000;0.0871;-1.0034;
568.5000;0.0936;-0.9943;
568.8000;0.1001;-0.9784;
569.1000;0.0944;-0.9830;
569.4000;0.0944;-0.9875;
569.7000;0.0944;-0.9943;
570.0000;0.0871;-1.0056;
570.3000;0.0920;-0.9943;
570.6000;0.0969;-0.9784;
570.9000;0.0944;-0.9875;
571.2000;0.0969;-0.9830;
571.5000;0.0952;-0.9943;
571.8000;0.0985;-0.9920;
572.1000;0.0920;-1.0034;
572.4000;0.0936;-0.9943;
572.7000;0.0936;-0.9988;
573.0000;0.0928;-0.9943;
573.3000;0.0952;-0.9875;
573.6000;0.0912;-0.9920;
573.9000;0.0944;-0.9694;
574.2000;0.0944;-0.9784;
574.5000;0.0912;-0.9898;
574.8000;0.0928;-0.9898;
575.1000;0.0936;-0.9830;
575.4000;0.0944;-0.9762;
575.7000;0.0936;-0.9875;
576.0000;0.0912;-0.9966;
576.3000;0.0920;-0.9988;
576.6000;0.0912;-0.9920;
576.9000;0.0936;-0.9807;
577.2000;0.0952;-0.9739;
577.5000;0.1026;-0.9490;
577.8000;0.0928;-0.9716;
578.1000;0.0952;-0.9671;
578.4000;0.0944;-0.9830;
578.7000;0.0928;-0.9943;
579.0000;0.0912;-1.0124;
579.3000;0.0944;-1.0079;
579.6000;0.0944;-1.0034;
579.9000;0.0912;-1.0056;
580.2000;0.0944;-0.9966;
580.5000;0.0928;-0.9920;
580.8000;0.0912;-1.0011;
581.1000;0.0895;-1.0192;
581.4000;0.0912;-1.0147;
581.7000;0.0904;-1.0169;
582.0000;0.0912;-1.0124;
582.3000;0.1009;-0.9875;
582.6000;0.0920;-1.0056;
582.9000;0.1018;-0.9671;
583.2000;0.0928;-0.9830;
583.5000;0.0920;-0.9852;
583.8000;0.0936;-0.9830;
584.1000;0.0928;-0.9898;
584.4000;0.0961;-0.9943;
584.7000;0.0936;-0.9943;
585.0000;0.0944;-1.0034;
585.3000;0.0985;-0.9784;
585.6000;0.0928;-0.9875;
585.9000;0.0952;-0.9694;
586.2000;0.1034;-0.9467;
586.5000;0.0944;-0.9762;
586.8000;0.0952;-0.9694;
587.1000;0.0961;-0.9626;
587.4000;0.0936;-0.9603;
587.7000;0.0920;-0.9694;
588.0000;0.0928;-0.9716;
588.3000;0.0928;-0.9671;
588.6000;0.0879;-0.9807;
588.9000;0.0920;-0.9716;
589.2000;0.0936;-0.9739;
589.5000;0.0879;-0.9830;
589.8000;0.0936;-0.9784;
590.1000;0.0928;-0.9830;
590.4000;0.0920;-0.9898;
590.7000;0.0920;-0.9830;
591.0000;0.0936;-0.9807;
591.3000;0.0904;-0.9875;
591.6000;0.1001;-0.9649;
591.9000;0.0936;-0.9852;
592.2000;0.0936;-0.9830;
592.5000;0.0936;-0.9830;
592.8000;0.0944;-0.9739;
593.1000;0.0936;-0.9762;
593.4000;0.0936;-0.9762;
593.7000;0.0944;-0.9694;
594.0000;0.0879;-0.9852;
594.3000;0.0912;-0.9762;
594.6000;0.0944;-0.9671;
594.9000;0.0912;-0.9807;
595.2000;0.0904;-0.9830;
595.5000;0.0928;-0.9875;
595.8000;0.0985;-0.9784;
596.1000;0.0944;-0.9784;
596.4000;0.0936;-0.9807;
596.7000;0.0920;-0.9898;
597.0000;0.0961;-0.9716;
597.3000;0.0936;-0.9739;
597.6000;0.0928;-0.9762;
597.9000;0.0944;-0.9739;
598.2000;0.0952;-0.9784;
598.5000;0.0944;-0.9739;
598.8000;0.0920;-0.9762;
599.1000;0.0936;-0.9739;
599.4000;0.0920;-0.9830;
599.7000;0.0944;-0.9739;
600.0000;0.0936;-0.9920;
600.3000;0.0977;-0.9807;
600.6000;0.0928;-0.9966;
600.9000;0.0912;-1.0147;
601.2000;0.0895;-1.0215;
601.5000;0.0920;-1.0147;
601.8000;0.0830;-1.0419;
602.1000;0.0936;-1.0237;
602.4000;0.0952;-1.0192;
602.7000;0.0977;-1.0147;
603.0000;0.0822;-1.0509;
603.3000;0.0912;-1.0305;
603.6000;0.0863;-1.0419;
603.9000;0.0904;-1.0441;
604.2000;0.0887;-1.0487;
604.5000;0.0887;-1.0532;
604.8000;0.0822;-1.0690;
605.1000;0.0944;-1.0396;
605.4000;0.0871;-1.0645;
605.7000;0.0871;-1.0645;
606.0000;0.0806;-1.0940;
606.3000;0.0847;-1.0804;
606.6000;0.0879;-1.0736;
606.9000;0.0847;-1.0894;
607.2000;0.0871;-1.0917;
607.5000;0.0895;-1.0713;
607.8000;0.0798;-1.0985;
608.1000;0.0838;-1.0849;
608.4000;0.0895;-1.0713;
608.7000;0.0887;-1.0713;
609.0000;0.0814;-1.0826;
609.3000;0.0871;-1.0622;
609.6000;0.0879;-1.0668;
609.9000;0.0952;-1.0441;
610.2000;0.0863;-1.0645;
610.5000;0.0871;-1.0622;
610.8000;0.0863;-1.0622;
611.1000;0.0863;-1.0668;
611.4000;0.0863;-1.0758;
611.7000;0.0830;-1.0781;
612.0000;0.0855;-1.0713;
612.3000;0.0912;-1.0622;
612.6000;0.0847;-1.0781;
612.9000;0.0838;-1.0781;
613.2000;0.0863;-1.0690;
613.5000;0.0871;-1.0532;
613.8000;0.0847;-1.0600;
614.1000;0.0863;-1.0645;
614.4000;0.0847;-1.0622;
614.7000;0.0863;-1.0577;
615.0000;0.0847;-1.0622;
615.3000;0.0863;-1.0577;
615.6000;0.0798;-1.0713;
615.9000;0.0961;-1.0192;
616.2000;0.0879;-1.0419;
616.5000;0.0855;-1.0464;
616.8000;0.0871;-1.0396;
617.1000;0.0855;-1.0464;
617.4000;0.0847;-1.0487;
617.7000;0.0871;-1.0464;
618.0000;0.0847;-1.0554;
618.3000;0.0822;-1.0645;
618.6000;0.0830;-1.0600;
618.9000;0.0855;-1.0622;
619.2000;0.0871;-1.0600;
619.5000;0.0822;-1.0736;
619.8000;0.0871;-1.0645;
620.1000;0.0855;-1.0600;
620.4000;0.0847;-1.0600;
620.7000;0.0855;-1.0532;
621.0000;0.0830;-1.0668;
621.3000;0.0871;-1.0622;
621.6000;0.0863;-1.0668;
621.9000;0.1009;-1.0328;
622.2000;0.0847;-1.0736;
622.5000;0.0838;-1.0690;
622.8000;0.0838;-1.0690;
623.1000;0.0838;-1.0690;
623.4000;0.0936;-1.0464;
623.7000;0.0838;-1.0645;
624.0000;0.0798;-1.0781;
624.3000;0.0741;-1.0826;
624.6000;0.0863;-1.0577;
624.9000;0.0920;-1.0487;
625.2000;0.0847;-1.0804;
625.5000;0.0716;-1.1166;
625.8000;0.0830;-1.0826;
626.1000;0.0855;-1.0781;
626.4000;0.0912;-1.0736;
626.7000;0.0830;-1.0962;
627.0000;0.0716;-1.1166;
627.3000;0.0830;-1.0849;
627.6000;0.0838;-1.0849;
627.9000;0.0765;-1.0940;
628.2000;0.0781;-1.0826;
628.5000;0.0838;-1.0713;
628.8000;0.0863;-1.0713;
629.1000;0.0847;-1.0622;
629.4000;0.0847;-1.0645;
629.7000;0.0928;-1.0532;
630.0000;0.0830;-1.0713;
630.3000;0.0814;-1.0849;
630.6000;0.0741;-1.1075;
630.9000;0.0847;-1.0826;
631.2000;0.0830;-1.0872;
631.5000;0.0871;-1.0736;
631.8000;0.0863;-1.0736;
632.1000;0.0969;-1.0509;
632.4000;0.0855;-1.0804;
632.7000;0.0814;-1.0872;
633.0000;0.0838;-1.0736;
633.3000;0.0822;-1.0804;
633.6000;0.0838;-1.0894;
633.9000;0.0838;-1.0872;
634.2000;0.0830;-1.0849;
634.5000;0.0830;-1.0736;
634.8000;0.0838;-1.0758;
635.1000;0.0838;-1.0849;
635.4000;0.0863;-1.0758;
635.7000;0.0855;-1.0804;
636.0000;0.0838;-1.0985;
636.3000;0.0814;-1.1098;
636.6000;0.0847;-1.1030;
636.9000;0.0814;-1.1143;
637.2000;0.0847;-1.1053;
637.5000;0.0830;-1.1075;
637.8000;0.0798;-1.1121;
638.1000;0.0863;-1.1007;
638.4000;0.0806;-1.1053;
638.7000;0.0855;-1.0894;
639.0000;0.0838;-1.1007;
639.3000;0.0838;-1.1030;
639.6000;0.0830;-1.1075;
639.9000;0.0855;-1.0985;
640.2000;0.0847;-1.1007;
640.5000;0.0822;-1.0962;
640.8000;0.0773;-1.1075;
641.1000;0.0790;-1.1030;
641.4000;0.0838;-1.0849;
641.7000;0.0920;-1.0645;
642.0000;0.0806;-1.0985;
642.3000;0.0814;-1.0962;
642.6000;0.0822;-1.1007;
642.9000;0.0847;-1.0894;
643.2000;0.0855;-1.0872;
643.5000;0.0855;-1.0758;
643.8000;0.0830;-1.0736;
644.1000;0.0838;-1.0645;
644.4000;0.0798;-1.0736;
644.7000;0.0855;-1.0645;
645.0000;0.0790;-1.0849;
645.3000;0.0830;-1.0781;
645.6000;0.0830;-1.0849;
645.9000;0.0855;-1.0758;
646.2000;0.0830;-1.0826;
646.5000;0.0806;-1.0826;
646.8000;0.0814;-1.0849;
647.1000;0.0863;-1.0690;
647.4000;0.0830;-1.0713;
647.7000;0.0781;-1.0781;
648.0000;0.0822;-1.0781;
648.3000;0.0928;-1.0487;
648.6000;0.0814;-1.0736;
648.9000;0.0847;-1.0758;
649.2000;0.0847;-1.0713;
649.5000;0.0830;-1.0781;
649.8000;0.0806;-1.0758;
650.1000;0.0814;-1.0872;
650.4000;0.0806;-1.0962;
650.7000;0.0830;-1.0872;
651.0000;0.0855;-1.0849;
651.3000;0.0781;-1.1053;
651.6000;0.0830;-1.1007;
651.9000;0.0904;-1.0849;
652.2000;0.0814;-1.1053;
652.5000;0.0814;-1.0985;
652.8000;0.0773;-1.1143;
653.1000;0.0830;-1.0962;
653.4000;0.0847;-1.0917;
653.7000;0.0822;-1.0940;
654.0000;0.0822;-1.0894;
654.3000;0.0830;-1.0849;
654.6000;0.0790;-1.0894;
654.9000;0.0871;-1.0668;
655.2000;0.0887;-1.0645;
655.5000;0.0838;-1.0690;
655.8000;0.0822;-1.0645;
656.1000;0.0830;-1.0690;
656.4000;0.0838;-1.0690;
656.7000;0.0806;-1.0668;
657.0000;0.0838;-1.0758;
657.3000;0.0798;-1.0826;
657.6000;0.0798;-1.0872;
657.9000;0.0798;-1.0917;
658.2000;0.0838;-1.0826;
658.5000;0.0757;-1.1007;
658.8000;0.0838;-1.0826;
659.1000;0.0724;-1.1007;
659.4000;0.0830;-1.0736;
659.7000;0.0806;-1.0894;
660.0000;0.0806;-1.0962;
660.3000;0.0806;-1.1030;
660.6000;0.0781;-1.1075;
660.9000;0.0830;-1.0985;
661.2000;0.0895;-1.0713;
661.5000;0.0822;-1.0940;
661.8000;0.0814;-1.1007;
662.1000;0.0798;-1.1030;
662.4000;0.0814;-1.0985;
662.7000;0.0814;-1.1053;
663.0000;0.0798;-1.1121;
663.3000;0.0822;-1.1007;
663.6000;0.0806;-1.0940;
663.9000;0.0814;-1.0940;
664.2000;0.0822;-1.1053;
664.5000;0.0814;-1.1030;
664.8000;0.0863;-1.0849;
665.1000;0.0806;-1.0940;
665.4000;0.0814;-1.0826;
665.7000;0.0822;-1.0872;
666.0000;0.0790;-1.1030;
666.3000;0.0830;-1.1007;
666.6000;0.0798;-1.1030;
666.9000;0.0822;-1.0985;
667.2000;0.0830;-1.0917;
667.5000;0.0830;-1.0894;
667.8000;0.0798;-1.1030;
668.1000;0.0781;-1.1075;
668.4000;0.0822;-1.1053;
668.7000;0.0814;-1.1143;
669.0000;0.0724;-1.1370;
669.3000;0.0814;-1.1098;
669.6000;0.0944;-1.0736;
669.9000;0.0757;-1.1166;
670.2000;0.0798;-1.1098;
670.5000;0.0798;-1.1053;
670.8000;0.0814;-1.0985;
671.1000;0.0806;-1.0962;
671.4000;0.0830;-1.0872;
671.7000;0.0830;-1.0826;
672.0000;0.0806;-1.0894;
672.3000;0.0798;-1.0804;
672.6000;0.0838;-1.0736;
672.9000;0.0798;-1.0804;
673.2000;0.0838;-1.0736;
673.5000;0.0814;-1.0690;
673.8000;0.0863;-1.0645;
674.1000;0.0806;-1.0713;
674.4000;0.0822;-1.0781;
674.7000;0.0822;-1.0781;
675.0000;0.0806;-1.0826;
675.3000;0.0822;-1.0781;
675.6000;0.0798;-1.0849;
675.9000;0.0830;-1.0736;
676.2000;0.0806;-1.0804;
676.5000;0.0806;-1.0804;
676.8000;0.0798;-1.0826;
677.1000;0.0798;-1.0758;
677.4000;0.0806;-1.0781;
677.7000;0.0822;-1.0758;
678.0000;0.0863;-1.0509;
678.3000;0.0798;-1.0690;
678.6000;0.0806;-1.0645;
678.9000;0.0790;-1.0690;
679.2000;0.0790;-1.0713;
679.5000;0.0765;-1.0736;
679.8000;0.0814;-1.0509;
680.1000;0.0887;-1.0464;
680.4000;0.0814;-1.0690;
680.7000;0.0814;-1.0736;
681.0000;0.0830;-1.0645;
681.3000;0.0781;-1.0804;
681.6000;0.0822;-1.0690;
681.9000;0.0830;-1.0645;
682.2000;0.0806;-1.0690;
682.5000;0.0822;-1.0645;
682.8000;0.0830;-1.0736;
683.1000;0.0773;-1.0962;
683.4000;0.0814;-1.0917;
683.7000;0.0814;-1.0917;
684.0000;0.0814;-1.0940;
684.3000;0.0781;-1.0940;
684.6000;0.0781;-1.0940;
684.9000;0.0814;-1.0826;
685.2000;0.0830;-1.0781;
685.5000;0.0798;-1.0872;
685.8000;0.0814;-1.0826;
686.1000;0.0798;-1.0872;
686.4000;0.0790;-1.0826;
686.7000;0.0790;-1.0781;
687.0000;0.0790;-1.0758;
687.3000;0.0838;-1.0645;
687.6000;0.0806;-1.0713;
687.9000;0.0822;-1.0849;
688.2000;0.0790;-1.0917;
688.5000;0.0781;-1.0804;
688.8000;0.0814;-1.0690;
689.1000;0.0806;-1.0781;
689.4000;0.0814;-1.0668;
689.7000;0.0806;-1.0690;
690.0000;0.0838;-1.0736;
690.3000;0.0806;-1.0781;
690.6000;0.0806;-1.0872;
690.9000;0.0773;-1.0781;
691.2000;0.0814;-1.0645;
691.5000;0.0798;-1.0713;
691.8000;0.0806;-1.0736;
692.1000;0.0814;-1.0872;
692.4000;0.0814;-1.0872;
692.7000;0.0822;-1.0940;
693.0000;0.0814;-1.1030;
693.3000;0.0806;-1.0985;
693.6000;0.0798;-1.1007;
693.9000;0.0822;-1.1030;
694.2000;0.0830;-1.0962;
694.5000;0.0798;-1.0962;
694.8000;0.0895;-1.0645;
695.1000;0.0822;-1.0758;
695.4000;0.0676;-1.1166;
695.7000;0.0798;-1.0826;
696.0000;0.0814;-1.0781;
696.3000;0.0773;-1.0940;
696.6000;0.0806;-1.0849;
696.9000;0.0773;-1.0940;
697.2000;0.0822;-1.0758;
697.5000;0.0830;-1.0849;
697.8000;0.0830;-1.0781;
698.1000;0.0790;-1.0849;
698.4000;0.0838;-1.0713;
698.7000;0.0814;-1.0804;
699.0000;0.0912;-1.0532;
699.3000;0.0790;-1.0781;
699.6000;0.0830;-1.0713;
699.9000;0.0838;-1.0690;
700.2000;0.0765;-1.0849;
700.5000;0.0773;-1.0736;
700.8000;0.0806;-1.0668;
701.1000;0.0790;-1.0758;
701.4000;0.0806;-1.0668;
701.7000;0.0790;-1.0622;
702.0000;0.0798;-1.0645;
702.3000;0.0822;-1.0532;
702.6000;0.0806;-1.0577;
702.9000;0.0676;-1.0849;
703.2000;0.0798;-1.0487;
703.5000;0.0790;-1.0577;
703.8000;0.0830;-1.0554;
704.1000;0.0781;-1.0645;
704.4000;0.0806;-1.0577;
704.7000;0.0806;-1.0577;
705.0000;0.0814;-1.0554;
705.3000;0.0798;-1.0600;
705.6000;0.0790;-1.0668;
705.9000;0.0830;-1.0645;
706.2000;0.0790;-1.0622;
706.5000;0.0822;-1.0532;
706.8000;0.0806;-1.0577;
707.1000;0.0749;-1.0736;
707.4000;0.0806;-1.0509;
707.7000;0.0806;-1.0554;
708.0000;0.0806;-1.0600;
708.3000;0.0806;-1.0668;
708.6000;0.0790;-1.0713;
708.9000;0.0749;-1.0758;
709.2000;0.0814;-1.0600;
709.5000;0.0798;-1.0532;
709.8000;0.0822;-1.0532;
710.1000;0.0790;-1.0622;
710.4000;0.0806;-1.0600;
710.7000;0.0798;-1.0668;
711.0000;0.0806;-1.0622;
711.3000;0.0806;-1.0645;
711.6000;0.0806;-1.0690;
711.9000;0.0806;-1.0758;
712.2000;0.0806;-1.0849;
712.5000;0.0781;-1.0962;
712.8000;0.0806;-1.0826;
713.1000;0.0798;-1.0781;
713.4000;0.0806;-1.0668;
713.7000;0.0806;-1.0804;
714.0000;0.0798;-1.0872;
714.3000;0.0830;-1.0758;
714.6000;0.0806;-1.0826;
714.9000;0.0806;-1.0713;
715.2000;0.0798;-1.0736;
715.5000;0.0814;-1.0622;
715.8000;0.0830;-1.0532;
716.1000;0.0830;-1.0600;
716.4000;0.0895;-1.0351;
716.7000;0.0790;-1.0509;
717.0000;0.0838;-1.0487;
717.3000;0.0871;-1.0283;
717.6000;0.0814;-1.0464;
717.9000;0.0830;-1.0577;
718.2000;0.0814;-1.0645;
718.5000;0.0806;-1.0668;
718.8000;0.0700;-1.1053;
719.1000;0.0806;-1.0804;
719.4000;0.0773;-1.0872;
719.7000;0.0814;-1.0804;
720.0000;0.0798;-1.0736;
720.3000;0.0790;-1.0690;
720.6000;0.0798;-1.0713;
720.9000;0.0838;-1.0600;
721.2000;0.0806;-1.0668;
721.5000;0.0790;-1.0713;
721.8000;0.0798;-1.0690;
722.1000;0.0822;-1.0622;
722.4000;0.0790;-1.0713;
722.7000;0.0798;-1.0690;
723.0000;0.0887;-1.0396;
723.3000;0.0822;-1.0622;
723.6000;0.0798;-1.0645;
723.9000;0.0822;-1.0668;
724.2000;0.0741;-1.0940;
724.5000;0.0814;-1.0849;
724.8000;0.0757;-1.0985;
725.1000;0.0651;-1.1121;
725.4000;0.0798;-1.0781;
725.7000;0.0944;-1.0373;
726.0000;0.0814;-1.0668;
726.3000;0.0814;-1.0713;
726.6000;0.0822;-1.0758;
726.9000;0.0806;-1.0804;
727.2000;0.0806;-1.0940;
727.5000;0.0798;-1.0894;
727.8000;0.0806;-1.0826;
728.1000;0.0773;-1.0962;
728.4000;0.0798;-1.0917;
728.7000;0.0773;-1.0962;
729.0000;0.0806;-1.0872;
729.3000;0.0806;-1.0894;
729.6000;0.0830;-1.0758;
729.9000;0.0790;-1.0872;
730.2000;0.0806;-1.0917;
730.5000;0.0806;-1.0962;
730.8000;0.0895;-1.0668;
731.1000;0.0806;-1.0826;
731.4000;0.0781;-1.0917;
731.7000;0.0814;-1.0713;
732.0000;0.0790;-1.0781;
732.3000;0.0798;-1.0758;
732.6000;0.0781;-1.0872;
732.9000;0.0765;-1.0894;
733.2000;0.0806;-1.0736;
733.5000;0.0806;-1.0713;
733.8000;0.0806;-1.0804;
734.1000;0.0781;-1.0872;
734.4000;0.0806;-1.0736;
734.7000;0.0806;-1.0849;
735.0000;0.0798;-1.0872;
735.3000;0.0765;-1.0940;
735.6000;0.0781;-1.0872;
735.9000;0.0790;-1.0849;
736.2000;0.0790;-1.0894;
736.5000;0.0790;-1.0849;
736.8000;0.0757;-1.0872;
737.1000;0.0798;-1.0736;
737.4000;0.0798;-1.0713;
737.7000;0.0781;-1.0758;
738.0000;0.0814;-1.0713;
738.3000;0.0814;-1.0781;
738.6000;0.0798;-1.0849;
738.9000;0.0781;-1.0894;
739.2000;0.0798;-1.0758;
739.5000;0.0822;-1.0690;
739.8000;0.0586;-1.1279;
740.1000;0.0798;-1.0826;
740.4000;0.0822;-1.0872;
740.7000;0.0822;-1.0849;
741.0000;0.0838;-1.0781;
741.3000;0.0741;-1.0940;
741.6000;0.0798;-1.0736;
741.9000;0.0781;-1.0894;
742.2000;0.0790;-1.0781;
742.5000;0.0781;-1.0804;
742.8000;0.0773;-1.0736;
743.1000;0.0765;-1.0781;
743.4000;0.0895;-1.0464;
743.7000;0.0790;-1.0690;
744.0000;0.0798;-1.0758;
744.3000;0.0814;-1.0781;
744.6000;0.0806;-1.0804;
744.9000;0.0806;-1.0736;
745.2000;0.0790;-1.0781;
745.5000;0.0822;-1.0690;
745.8000;0.0798;-1.0622;
746.1000;0.0798;-1.0713;
746.4000;0.0798;-1.0736;
746.7000;0.0798;-1.0758;
747.0000;0.0798;-1.0758;
747.3000;0.0790;-1.0713;
747.6000;0.0806;-1.0668;
747.9000;0.0790;-1.0668;
748.2000;0.0806;-1.0554;
748.5000;0.0798;-1.0622;
748.8000;0.0765;-1.0713;
749.1000;0.0781;-1.0713;
749.4000;0.0806;-1.0713;
749.7000;0.0790;-1.0736;
750.0000;0.0790;-1.0645;
750.3000;0.0798;-1.0668;
750.6000;0.0806;-1.0645;
750.9000;0.0749;-1.0781;
751.2000;0.0798;-1.0758;
751.5000;0.0781;-1.0781;
751.8000;0.0798;-1.0690;
752.1000;0.0798;-1.0645;
752.4000;0.0806;-1.0690;
752.7000;0.0781;-1.0713;
753.0000;0.0781;-1.0736;
753.3000;0.0781;-1.0804;
753.6000;0.0790;-1.0826;
753.9000;0.0798;-1.0826;
754.2000;0.0790;-1.0781;
754.5000;0.0790;-1.0804;
754.8000;0.0798;-1.0781;
755.1000;0.0781;-1.0804;
755.4000;0.0781;-1.0894;
755.7000;0.0790;-1.0917;
756.0000;0.0781;-1.0872;
756.3000;0.0814;-1.0713;
756.6000;0.0790;-1.0736;
756.9000;0.0773;-1.0826;
757.2000;0.0806;-1.0713;
757.5000;0.0798;-1.0826;
757.8000;0.0814;-1.0781;
758.1000;0.0773;-1.0872;
758.4000;0.0830;-1.0758;
758.7000;0.0635;-1.1279;
759.0000;0.0798;-1.1007;
759.3000;0.0798;-1.0962;
759.6000;0.0847;-1.0758;
759.9000;0.0806;-1.0894;
760.2000;0.0822;-1.0826;
760.5000;0.0814;-1.0758;
760.8000;0.0904;-1.0532;
761.1000;0.0790;-1.0781;
761.4000;0.0757;-1.0849;
761.7000;0.0790;-1.0736;
762.0000;0.0692;-1.0985;
762.3000;0.0757;-1.0826;
762.6000;0.0790;-1.0826;
762.9000;0.0757;-1.0985;
763.2000;0.0814;-1.0872;
763.5000;0.0790;-1.0872;
763.8000;0.0765;-1.1030;
764.1000;0.0798;-1.0940;
764.4000;0.0798;-1.0917;
764.7000;0.0708;-1.1053;
765.0000;0.0806;-1.0781;
765.3000;0.0790;-1.0849;
765.6000;0.0790;-1.0962;
765.9000;0.0790;-1.0962;
766.2000;0.0790;-1.0894;
766.5000;0.0806;-1.0849;
766.8000;0.0814;-1.0849;
767.1000;0.0798;-1.0872;
767.4000;0.0806;-1.0804;
767.7000;0.0798;-1.0826;
768.0000;0.0708;-1.1053;
768.3000;0.0806;-1.0849;
768.6000;0.0806;-1.0849;
768.9000;0.0806;-1.0872;
769.2000;0.0798;-1.0872;
769.5000;0.0757;-1.0917;
769.8000;0.0790;-1.0894;
770.1000;0.0733;-1.1189;
770.4000;0.0806;-1.0985;
770.7000;0.0781;-1.1007;
771.0000;0.0814;-1.0849;
771.3000;0.0798;-1.0781;
771.6000;0.0830;-1.0600;
771.9000;0.0798;-1.0690;
772.2000;0.0773;-1.0645;
772.5000;0.0790;-1.0622;
772.8000;0.0830;-1.0509;
773.1000;0.0781;-1.0645;
773.4000;0.0871;-1.0396;
773.7000;0.0798;-1.0600;
774.0000;0.0781;-1.0645;
774.3000;0.0798;-1.0736;
774.6000;0.0773;-1.0758;
774.9000;0.0887;-1.0509;
775.2000;0.0790;-1.0758;
775.5000;0.0798;-1.0668;
775.8000;0.0757;-1.0781;
776.1000;0.0814;-1.0645;
776.4000;0.0814;-1.0713;
776.7000;0.0790;-1.0758;
777.0000;0.0790;-1.0736;
777.3000;0.0773;-1.0713;
777.6000;0.0790;-1.0690;
777.9000;0.0838;-1.0600;
778.2000;0.0781;-1.0826;
778.5000;0.0790;-1.0781;
778.8000;0.0765;-1.0781;
779.1000;0.0806;-1.0645;
779.4000;0.0781;-1.0713;
779.7000;0.0847;-1.0577;
780.0000;0.0781;-1.0645;
780.3000;0.0806;-1.0600;
780.6000;0.0790;-1.0509;
780.9000;0.0781;-1.0487;
781.2000;0.0830;-1.0328;
781.5000;0.0798;-1.0464;
781.8000;0.0806;-1.0441;
782.1000;0.0773;-1.0554;
782.4000;0.0765;-1.0645;
782.7000;0.0969;-1.0260;
783.0000;0.0765;-1.0804;
783.3000;0.0798;-1.0690;
783.6000;0.0724;-1.0894;
783.9000;0.0798;-1.0690;
784.2000;0.0790;-1.0713;
784.5000;0.0790;-1.0781;
784.8000;0.0798;-1.0804;
785.1000;0.0790;-1.0894;
785.4000;0.0814;-1.0894;
785.7000;0.0798;-1.0917;
786.0000;0.0708;-1.1234;
786.3000;0.0757;-1.1075;
786.6000;0.0790;-1.1030;
786.9000;0.0790;-1.1075;
787.2000;0.0822;-1.1030;
787.5000;0.0781;-1.1075;
787.8000;0.0798;-1.0985;
788.1000;0.0773;-1.0940;
788.4000;0.0773;-1.0940;
788.7000;0.0790;-1.0826;
789.0000;0.0790;-1.0849;
789.3000;0.0781;-1.0872;
789.6000;0.0790;-1.0872;
789.9000;0.0798;-1.0826;
790.2000;0.0790;-1.0849;
790.5000;0.0814;-1.0781;
790.8000;0.0773;-1.0826;
791.1000;0.0757;-1.0781;
791.4000;0.0781;-1.0690;
791.7000;0.0781;-1.0645;
792.0000;0.0781;-1.0713;
792.3000;0.0741;-1.0826;
792.6000;0.0798;-1.0758;
792.9000;0.0741;-1.0917;
793.2000;0.0790;-1.0894;
793.5000;0.0814;-1.0894;
793.8000;0.0790;-1.0962;
794.1000;0.0757;-1.0962;
794.4000;0.0757;-1.0940;
794.7000;0.0765;-1.0894;
795.0000;0.0806;-1.0690;
795.3000;0.0773;-1.0713;
795.6000;0.0781;-1.0645;
795.9000;0.0879;-1.0464;
796.2000;0.0667;-1.1053;
796.5000;0.0798;-1.0804;
796.8000;0.0781;-1.0849;
797.1000;0.0749;-1.0940;
797.4000;0.0798;-1.0804;
797.7000;0.0781;-1.0804;
798.0000;0.0724;-1.0940;
798.3000;0.0781;-1.0917;
798.6000;0.0765;-1.0849;
798.9000;0.0773;-1.0736;
799.2000;0.0814;-1.0577;
799.5000;0.0749;-1.0736;
799.8000;0.0765;-1.0758;
800.1000;0.0773;-1.0758;
800.4000;0.0814;-1.0668;
800.7000;0.0790;-1.0645;
801.0000;0.0773;-1.0645;
801.3000;0.0781;-1.0713;
801.6000;0.0790;-1.0713;
801.9000;0.0790;-1.0668;
802.2000;0.0781;-1.0668;
802.5000;0.0749;-1.0736;
802.8000;0.0781;-1.0622;
803.1000;0.0781;-1.0600;
803.4000;0.0765;-1.0713;
803.7000;0.0798;-1.0668;
804.0000;0.0798;-1.0622;
804.3000;0.0781;-1.0668;
804.6000;0.0790;-1.0668;
804.9000;0.0773;-1.0668;
805.2000;0.0757;-1.0736;
805.5000;0.0790;-1.0713;
805.8000;0.0757;-1.0804;
806.1000;0.0781;-1.0849;
806.4000;0.0806;-1.0690;
806.7000;0.0757;-1.0872;
807.0000;0.0798;-1.0849;
807.3000;0.0781;-1.0940;
807.6000;0.0790;-1.0962;
807.9000;0.0822;-1.0849;
808.2000;0.0773;-1.0940;
808.5000;0.0790;-1.0849;
808.8000;0.0773;-1.0826;
809.1000;0.0781;-1.0872;
809.4000;0.0749;-1.1007;
809.7000;0.0806;-1.0894;
810.0000;0.0781;-1.0985;
810.3000;0.0781;-1.0985;
810.6000;0.0790;-1.0872;
810.9000;0.0806;-1.0758;
811.2000;0.0765;-1.0736;
811.5000;0.0757;-1.0804;
811.8000;0.0838;-1.0622;
812.1000;0.0781;-1.0781;
812.4000;0.0790;-1.0713;
812.7000;0.0806;-1.0690;
813.0000;0.0781;-1.0894;
813.3000;0.0790;-1.0849;
813.6000;0.0765;-1.0894;
813.9000;0.0765;-1.0826;
814.2000;0.0790;-1.0758;
814.5000;0.0790;-1.0713;
814.8000;0.0822;-1.0668;
815.1000;0.0806;-1.0736;
815.4000;0.0781;-1.0804;
815.7000;0.0773;-1.0826;
816.0000;0.0847;-1.0532;
816.3000;0.0757;-1.0894;
816.6000;0.0757;-1.0849;
816.9000;0.0814;-1.0781;
817.2000;0.0773;-1.0849;
817.5000;0.0781;-1.0736;
817.8000;0.0781;-1.0690;
818.1000;0.0830;-1.0600;
818.4000;0.0781;-1.0804;
818.7000;0.0765;-1.0849;
819.0000;0.0806;-1.0758;
819.3000;0.0806;-1.0781;
819.6000;0.0798;-1.0804;
819.9000;0.0700;-1.1098;
820.2000;0.0757;-1.1053;
820.5000;0.0773;-1.0940;
820.8000;0.0822;-1.0826;
821.1000;0.0790;-1.0917;
821.4000;0.0757;-1.1030;
821.7000;0.0838;-1.0804;
822.0000;0.0790;-1.0872;
822.3000;0.0765;-1.0804;
822.6000;0.0757;-1.0917;
822.9000;0.0749;-1.0940;
823.2000;0.0790;-1.0917;
823.5000;0.0773;-1.1007;
823.8000;0.0790;-1.1007;
824.1000;0.0806;-1.0962;
824.4000;0.0773;-1.0985;
824.7000;0.0781;-1.0985;
825.0000;0.0757;-1.0917;
825.3000;0.0790;-1.0872;
825.6000;0.0765;-1.0872;
825.9000;0.0790;-1.0826;
826.2000;0.0749;-1.0940;
826.5000;0.0781;-1.0826;
826.8000;0.0781;-1.0826;
827.1000;0.0733;-1.0894;
827.4000;0.0757;-1.0781;
827.7000;0.0781;-1.0713;
828.0000;0.0806;-1.0622;
828.3000;0.0798;-1.0645;
828.6000;0.0765;-1.0690;
828.9000;0.0733;-1.0758;
829.2000;0.0741;-1.0713;
829.5000;0.0790;-1.0622;
829.8000;0.0773;-1.0781;
830.1000;0.0765;-1.0849;
830.4000;0.0798;-1.0713;
830.7000;0.0822;-1.0577;
831.0000;0.0790;-1.0577;
831.3000;0.0790;-1.0509;
831.6000;0.0773;-1.0600;
831.9000;0.0936;-1.0237;
832.2000;0.0863;-1.0487;
832.5000;0.0692;-1.0940;
832.8000;0.0765;-1.0826;
833.1000;0.0781;-1.0826;
833.4000;0.0765;-1.0826;
833.7000;0.0814;-1.0736;
834.0000;0.0961;-1.0351;
834.3000;0.0790;-1.0940;
834.6000;0.0781;-1.1007;
834.9000;0.0798;-1.0962;
835.2000;0.0790;-1.0940;
835.5000;0.0798;-1.0940;
835.8000;0.0781;-1.0940;
836.1000;0.0765;-1.1007;
836.4000;0.0757;-1.0940;
836.7000;0.0765;-1.1030;
837.0000;0.0781;-1.1030;
837.3000;0.0773;-1.1075;
837.6000;0.0773;-1.1121;
837.9000;0.0749;-1.1121;
838.2000;0.0773;-1.1075;
838.5000;0.0781;-1.0985;
838.8000;0.0790;-1.0917;
839.1000;0.0798;-1.0894;
839.4000;0.0798;-1.0940;
839.7000;0.0806;-1.0940;
840.0000;0.0790;-1.0985;
840.3000;0.0741;-1.1007;
840.6000;0.0765;-1.0940;
840.9000;0.0773;-1.0894;
841.2000;0.0781;-1.0872;
841.5000;0.0790;-1.0826;
841.8000;0.0830;-1.0758;
842.1000;0.0781;-1.0940;
842.4000;0.0781;-1.0940;
842.7000;0.0798;-1.0872;
843.0000;0.0765;-1.0894;
843.3000;0.0806;-1.0826;
843.6000;0.0790;-1.0781;
843.9000;0.0790;-1.0736;
844.2000;0.0781;-1.0736;
844.5000;0.0765;-1.0781;
844.8000;0.0781;-1.0690;
845.1000;0.0798;-1.0713;
845.4000;0.0781;-1.0804;
845.7000;0.0790;-1.0781;
846.0000;0.0773;-1.0690;
846.3000;0.0798;-1.0736;
846.6000;0.0814;-1.0645;
846.9000;0.0765;-1.0736;
847.2000;0.0773;-1.0668;
847.5000;0.0798;-1.0713;
847.8000;0.0765;-1.0781;
848.1000;0.0806;-1.0690;
848.4000;0.0757;-1.0758;
848.7000;0.0790;-1.0713;
849.0000;0.0781;-1.0713;
849.3000;0.0765;-1.0826;
849.6000;0.0781;-1.0826;
849.9000;0.0806;-1.0758;
850.2000;0.0765;-1.0849;
850.5000;0.0773;-1.0872;
850.8000;0.0790;-1.0917;
851.1000;0.0781;-1.0872;
851.4000;0.0790;-1.0804;
851.7000;0.0749;-1.0985;
852.0000;0.0814;-1.0917;
852.3000;0.0749;-1.1075;
852.6000;0.0781;-1.0962;
852.9000;0.0781;-1.0917;
853.2000;0.0765;-1.0894;
853.5000;0.0741;-1.0962;
853.8000;0.0790;-1.0826;
854.1000;0.0830;-1.0622;
854.4000;0.0765;-1.0781;
854.7000;0.0790;-1.0736;
855.0000;0.0798;-1.0713;
855.3000;0.0773;-1.0736;
855.6000;0.0822;-1.0554;
855.9000;0.0781;-1.0622;
856.2000;0.0814;-1.0487;
856.5000;0.0781;-1.0577;
856.8000;0.0781;-1.0600;
857.1000;0.0781;-1.0577;
857.4000;0.0822;-1.0509;
857.7000;0.0806;-1.0600;
858.0000;0.0781;-1.0736;
858.3000;0.0822;-1.0713;
858.6000;0.0806;-1.0849;
858.9000;0.0887;-1.0645;
859.2000;0.0781;-1.0872;
859.5000;0.0765;-1.0872;
859.8000;0.0806;-1.0758;
860.1000;0.0765;-1.0872;
860.4000;0.0790;-1.0894;
860.7000;0.0855;-1.0713;
861.0000;0.0790;-1.0826;
861.3000;0.0773;-1.0826;
861.6000;0.0822;-1.0736;
861.9000;0.0781;-1.0826;
862.2000;0.0806;-1.0736;
862.5000;0.0790;-1.0781;
862.8000;0.0765;-1.0781;
863.1000;0.0814;-1.0622;
863.4000;0.0773;-1.0804;
863.7000;0.0790;-1.0781;
864.0000;0.0790;-1.0736;
864.3000;0.0781;-1.0736;
864.6000;0.0790;-1.0690;
864.9000;0.0773;-1.0622;
865.2000;0.0798;-1.0554;
865.5000;0.0781;-1.0577;
865.8000;0.0790;-1.0532;
866.1000;0.0806;-1.0554;
866.4000;0.0765;-1.0713;
866.7000;0.0806;-1.0577;
867.0000;0.0781;-1.0554;
867.3000;0.0757;-1.0622;
867.6000;0.0790;-1.0622;
867.9000;0.0733;-1.0781;
868.2000;0.0741;-1.0645;
868.5000;0.0830;-1.0487;
868.8000;0.0798;-1.0600;
869.1000;0.0790;-1.0645;
869.4000;0.0814;-1.0532;
869.7000;0.0814;-1.0464;
870.0000;0.0773;-1.0577;
870.3000;0.0806;-1.0554;
870.6000;0.0765;-1.0600;
870.9000;0.0757;-1.0600;
871.2000;0.0773;-1.0645;
871.5000;0.0790;-1.0622;
871.8000;0.0790;-1.0645;
872.1000;0.0798;-1.0600;
872.4000;0.0765;-1.0622;
872.7000;0.0830;-1.0464;
873.0000;0.0773;-1.0668;
873.3000;0.0749;-1.0758;
873.6000;0.0773;-1.0758;
873.9000;0.0838;-1.0645;
874.2000;0.0765;-1.0668;
874.5000;0.0790;-1.0622;
874.8000;0.0700;-1.0917;
875.1000;0.0781;-1.0758;
875.4000;0.0790;-1.0668;
875.7000;0.0822;-1.0668;
876.0000;0.0806;-1.0804;
876.3000;0.0781;-1.0804;
876.6000;0.0781;-1.0758;
876.9000;0.0830;-1.0600;
877.2000;0.0814;-1.0668;
877.5000;0.0773;-1.0758;
877.8000;0.0733;-1.0872;
878.1000;0.0781;-1.0736;
878.4000;0.0765;-1.0758;
878.7000;0.0757;-1.0849;
879.0000;0.0790;-1.0713;
879.3000;0.0806;-1.0690;
879.6000;0.0749;-1.0713;
879.9000;0.0708;-1.0826;
880.2000;0.0700;-1.0826;
880.5000;0.0806;-1.0600;
880.8000;0.0773;-1.0690;
881.1000;0.0700;-1.0894;
881.4000;0.0790;-1.0781;
881.7000;0.0749;-1.0872;
882.0000;0.0773;-1.0872;
882.3000;0.0863;-1.0690;
882.6000;0.0781;-1.0872;
882.9000;0.0773;-1.0894;
883.2000;0.0765;-1.1007;
883.5000;0.0773;-1.1007;
883.8000;0.0781;-1.0894;
884.1000;0.0822;-1.0804;
884.4000;0.0798;-1.0872;
884.7000;0.0757;-1.1007;
885.0000;0.0798;-1.0940;
885.3000;0.0790;-1.0962;
885.6000;0.0790;-1.0894;
885.9000;0.0773;-1.0849;
886.2000;0.0765;-1.0826;
886.5000;0.0790;-1.0758;
886.8000;0.0773;-1.0781;
887.1000;0.0757;-1.0917;
887.4000;0.0765;-1.0849;
887.7000;0.0781;-1.0894;
888.0000;0.0855;-1.0690;
888.3000;0.0830;-1.0781;
888.6000;0.0814;-1.0781;
888.9000;0.0847;-1.0645;
889.2000;0.0920;-1.0487;
889.5000;0.0781;-1.0736;
889.8000;0.0798;-1.0600;
890.1000;0.0716;-1.0781;
890.4000;0.0790;-1.0622;
890.7000;0.0798;-1.0622;
891.0000;0.0733;-1.0713;
891.3000;0.0781;-1.0622;
891.6000;0.0822;-1.0622;
891.9000;0.0757;-1.0758;
892.2000;0.0790;-1.0668;
892.5000;0.0773;-1.0713;
892.8000;0.0765;-1.0713;
893.1000;0.0773;-1.0622;
893.4000;0.0781;-1.0645;
893.7000;0.0790;-1.0554;
894.0000;0.0765;-1.0645;
894.3000;0.0781;-1.0577;
894.6000;0.0822;-1.0487;
894.9000;0.0765;-1.0532;
895.2000;0.0781;-1.0532;
895.5000;0.0790;-1.0509;
895.8000;0.0773;-1.0577;
896.1000;0.0773;-1.0622;
896.4000;0.0773;-1.0509;
896.7000;0.0773;-1.0464;
897.0000;0.0765;-1.0509;
897.3000;0.0757;-1.0464;
897.6000;0.0790;-1.0396;
897.9000;0.0887;-1.0124;
898.2000;0.0790;-1.0419;
898.5000;0.0765;-1.0622;
898.8000;0.0773;-1.0713;
899.1000;0.0790;-1.0690;
899.4000;0.0765;-1.0645;
899.7000;0.0790;-1.0532;
900.0000;0.0749;-1.0600;
900.3000;0.0781;-1.0554;
900.6000;0.0773;-1.0532;
900.9000;0.0749;-1.0622;
901.2000;0.0765;-1.0554;
901.5000;0.0773;-1.0532;
901.8000;0.0790;-1.0509;
902.1000;0.0798;-1.0464;
902.4000;0.0773;-1.0622;
902.7000;0.0708;-1.0849;
903.0000;0.0757;-1.0804;
903.3000;0.0773;-1.0781;
903.6000;0.0781;-1.0758;
903.9000;0.0790;-1.0804;
904.2000;0.0790;-1.0826;
904.5000;0.0790;-1.0804;
904.8000;0.0790;-1.0758;
905.1000;0.0781;-1.0713;
905.4000;0.0781;-1.0645;
905.7000;0.0790;-1.0509;
906.0000;0.0781;-1.0577;
906.3000;0.0733;-1.0713;
906.6000;0.0790;-1.0509;
906.9000;0.0790;-1.0487;
907.2000;0.0773;-1.0464;
907.5000;0.0790;-1.0441;
907.8000;0.0830;-1.0419;
908.1000;0.0765;-1.0622;
908.4000;0.0814;-1.0532;
908.7000;0.0781;-1.0554;
909.0000;0.0806;-1.0577;
909.3000;0.0863;-1.0305;
909.6000;0.0781;-1.0577;
909.9000;0.0838;-1.0487;
910.2000;0.0822;-1.0509;
910.5000;0.0765;-1.0645;
910.8000;0.0781;-1.0600;
911.1000;0.0741;-1.0645;
911.4000;0.0781;-1.0554;
911.7000;0.0806;-1.0577;
912.0000;0.0879;-1.0487;
912.3000;0.0790;-1.0668;
912.6000;0.0724;-1.0804;
912.9000;0.0700;-1.0872;
913.2000;0.0765;-1.0668;
913.5000;0.0781;-1.0645;
913.8000;0.0790;-1.0645;
914.1000;0.0773;-1.0668;
914.4000;0.0790;-1.0713;
914.7000;0.0773;-1.0690;
915.0000;0.0822;-1.0509;
915.3000;0.0798;-1.0554;
915.6000;0.0798;-1.0487;
915.9000;0.0773;-1.0577;
916.2000;0.0773;-1.0600;
916.5000;0.0757;-1.0600;
916.8000;0.0806;-1.0554;
917.1000;0.0757;-1.0668;
917.4000;0.0765;-1.0622;
917.7000;0.0814;-1.0487;
918.0000;0.0781;-1.0554;
918.3000;0.0781;-1.0622;
918.6000;0.0781;-1.0600;
918.9000;0.0806;-1.0532;
919.2000;0.0814;-1.0487;
919.5000;0.0749;-1.0645;
919.8000;0.0806;-1.0487;
920.1000;0.0781;-1.0532;
920.4000;0.0790;-1.0464;
920.7000;0.0724;-1.0690;
921.0000;0.0798;-1.0554;
921.3000;0.0773;-1.0668;
921.6000;0.0733;-1.0690;
921.9000;0.0765;-1.0600;
922.2000;0.0773;-1.0554;
922.5000;0.0822;-1.0441;
922.8000;0.0659;-1.0826;
923.1000;0.0749;-1.0600;
923.4000;0.0765;-1.0554;
923.7000;0.0822;-1.0464;
924.0000;0.0863;-1.0373;
924.3000;0.0757;-1.0690;
924.6000;0.0692;-1.0872;
924.9000;0.0822;-1.0554;
925.2000;0.0790;-1.0668;
925.5000;0.0806;-1.0645;
925.8000;0.0773;-1.0781;
926.1000;0.0773;-1.0849;
926.4000;0.0733;-1.0940;
926.7000;0.0773;-1.0804;
927.0000;0.0733;-1.0849;
927.3000;0.0781;-1.0668;
927.6000;0.0733;-1.0804;
927.9000;0.0765;-1.0804;
928.2000;0.0708;-1.0985;
928.5000;0.0700;-1.0894;
928.8000;0.0790;-1.0577;
929.1000;0.0798;-1.0622;
929.4000;0.0822;-1.0554;
929.7000;0.0830;-1.0487;
930.0000;0.0765;-1.0622;
930.3000;0.0798;-1.0622;
930.6000;0.0781;-1.0645;
930.9000;0.0716;-1.0736;
931.2000;0.0822;-1.0509;
931.5000;0.0798;-1.0622;
931.8000;0.0790;-1.0600;
932.1000;0.0790;-1.0532;
932.4000;0.0781;-1.0600;
932.7000;0.0724;-1.0622;
933.0000;0.0765;-1.0622;
933.3000;0.0863;-1.0509;
933.6000;0.0757;-1.0736;
933.9000;0.0773;-1.0713;
934.2000;0.0773;-1.0645;
934.5000;0.0773;-1.0622;
934.8000;0.0798;-1.0532;
935.1000;0.0781;-1.0577;
935.4000;0.0765;-1.0532;
935.7000;0.0871;-1.0237;
936.0000;0.0749;-1.0554;
936.3000;0.0741;-1.0600;
936.6000;0.0741;-1.0713;
936.9000;0.0749;-1.0781;
937.2000;0.0781;-1.0668;
937.5000;0.0741;-1.0668;
937.8000;0.0749;-1.0645;
938.1000;0.0773;-1.0600;
938.4000;0.0700;-1.0872;
938.7000;0.0765;-1.0668;
939.0000;0.0790;-1.0577;
939.3000;0.0790;-1.0577;
939.6000;0.0790;-1.0645;
939.9000;0.0773;-1.0600;
940.2000;0.0790;-1.0645;
940.5000;0.0733;-1.0804;
940.8000;0.0773;-1.0713;
941.1000;0.0765;-1.0849;
941.4000;0.0806;-1.0736;
941.7000;0.0757;-1.0917;
942.0000;0.0757;-1.0872;
942.3000;0.0798;-1.0645;
942.6000;0.0773;-1.0690;
942.9000;0.0741;-1.0826;
943.2000;0.0806;-1.0645;
943.5000;0.0741;-1.0804;
943.8000;0.0773;-1.0781;
944.1000;0.0773;-1.0826;
944.4000;0.0781;-1.0781;
944.7000;0.0773;-1.0804;
945.0000;0.0757;-1.0781;
945.3000;0.0806;-1.0622;
945.6000;0.0773;-1.0622;
945.9000;0.0757;-1.0736;
946.2000;0.0773;-1.0713;
946.5000;0.0790;-1.0622;
946.8000;0.0781;-1.0622;
947.1000;0.0741;-1.0713;
947.4000;0.0781;-1.0600;
947.7000;0.0781;-1.0690;
948.0000;0.0781;-1.0713;
948.3000;0.0765;-1.0668;
948.6000;0.0741;-1.0781;
948.9000;0.0749;-1.0872;
949.2000;0.0830;-1.0645;
949.5000;0.0716;-1.0985;
949.8000;0.0724;-1.0917;
950.1000;0.0781;-1.0736;
950.4000;0.0798;-1.0781;
950.7000;0.0790;-1.0872;
951.0000;0.0749;-1.0985;
951.3000;0.0749;-1.0894;
951.6000;0.0733;-1.0872;
951.9000;0.0773;-1.0917;
952.2000;0.0855;-1.0826;
952.5000;0.0716;-1.1075;
952.8000;0.0773;-1.0940;
953.1000;0.0757;-1.0872;
953.4000;0.0790;-1.0804;
953.7000;0.0765;-1.0894;
954.0000;0.0781;-1.0894;
954.3000;0.0757;-1.0917;
954.6000;0.0781;-1.0894;
954.9000;0.0871;-1.0668;
955.2000;0.0790;-1.0849;
955.5000;0.0871;-1.0645;
955.8000;0.0781;-1.0849;
956.1000;0.0798;-1.0872;
956.4000;0.0798;-1.0894;
956.7000;0.0773;-1.0872;
957.0000;0.0790;-1.0872;
957.3000;0.0757;-1.1007;
957.6000;0.0798;-1.0917;
957.9000;0.0773;-1.0894;
958.2000;0.0773;-1.0826;
958.5000;0.0749;-1.0872;
958.8000;0.0781;-1.0781;
959.1000;0.0781;-1.0826;
959.4000;0.0773;-1.0872;
959.7000;0.0724;-1.0917;
960.0000;0.0773;-1.0758;
960.3000;0.0790;-1.0804;
960.6000;0.0814;-1.0736;
960.9000;0.0798;-1.0781;
961.2000;0.0773;-1.0804;
961.5000;0.0741;-1.0804;
961.8000;0.0790;-1.0690;
962.1000;0.0773;-1.0781;
962.4000;0.0790;-1.0713;
962.7000;0.0765;-1.0713;
963.0000;0.0822;-1.0622;
963.3000;0.0781;-1.0736;
963.6000;0.0724;-1.0962;
963.9000;0.0765;-1.0781;
964.2000;0.0806;-1.0690;
964.5000;0.0757;-1.0736;
964.8000;0.0733;-1.0849;
965.1000;0.0765;-1.0690;
965.4000;0.0790;-1.0622;
965.7000;0.0733;-1.0826;
966.0000;0.0790;-1.0713;
966.3000;0.0781;-1.0736;
966.6000;0.0798;-1.0645;
966.9000;0.0757;-1.0668;
967.2000;0.0790;-1.0668;
967.5000;0.0773;-1.0781;
967.8000;0.0814;-1.0690;
968.1000;0.0798;-1.0849;
968.4000;0.0781;-1.0940;
968.7000;0.0790;-1.0894;
969.0000;0.0773;-1.0872;
969.3000;0.0773;-1.0758;
969.6000;0.0765;-1.0849;
969.9000;0.0814;-1.0804;
970.2000;0.0781;-1.0872;
970.5000;0.0757;-1.0917;
970.8000;0.0741;-1.0917;
971.1000;0.0773;-1.0894;
971.4000;0.0798;-1.0826;
971.7000;0.0765;-1.0940;
972.0000;0.0781;-1.0826;
972.3000;0.0773;-1.0872;
972.6000;0.0773;-1.0872;
972.9000;0.0847;-1.0713;
973.2000;0.0781;-1.0894;
973.5000;0.0814;-1.0872;
973.8000;0.0822;-1.0872;
974.1000;0.0781;-1.0917;
974.4000;0.0741;-1.0985;
974.7000;0.0781;-1.0849;
975.0000;0.0741;-1.0985;
975.3000;0.0773;-1.0826;
975.6000;0.0773;-1.0894;
975.9000;0.0765;-1.0826;
976.2000;0.0773;-1.0872;
976.5000;0.0790;-1.0917;
976.8000;0.0765;-1.0894;
977.1000;0.0773;-1.0872;
977.4000;0.0781;-1.0894;
977.7000;0.0781;-1.0781;
978.0000;0.0879;-1.0487;
978.3000;0.0733;-1.0713;
978.6000;0.0676;-1.0940;
978.9000;0.0773;-1.0758;
979.2000;0.0781;-1.0668;
979.5000;0.0798;-1.0736;
979.8000;0.0798;-1.0758;
980.1000;0.0765;-1.0894;
980.4000;0.0749;-1.0917;
980.7000;0.0757;-1.0917;
981.0000;0.0798;-1.0758;
981.3000;0.0773;-1.0758;
981.6000;0.0765;-1.0758;
981.9000;0.0765;-1.0713;
982.2000;0.0765;-1.0645;
982.5000;0.0781;-1.0487;
982.8000;0.0790;-1.0532;
983.1000;0.0838;-1.0441;
983.4000;0.0781;-1.0600;
983.7000;0.0798;-1.0532;
984.0000;0.0773;-1.0713;
984.3000;0.0798;-1.0690;
984.6000;0.0790;-1.0736;
984.9000;0.0790;-1.0804;
985.2000;0.0790;-1.0804;
985.5000;0.0757;-1.0917;
985.8000;0.0749;-1.0940;
986.1000;0.0765;-1.0849;
986.4000;0.0773;-1.0758;
986.7000;0.0773;-1.0826;
987.0000;0.0773;-1.0872;
987.3000;0.0765;-1.1030;
987.6000;0.0847;-1.0781;
987.9000;0.0692;-1.1121;
988.2000;0.0765;-1.0917;
988.5000;0.0765;-1.0872;
988.8000;0.0798;-1.0804;
989.1000;0.0798;-1.0826;
989.4000;0.0798;-1.0849;
989.7000;0.0798;-1.0736;
990.0000;0.0798;-1.0622;
990.3000;0.0757;-1.0758;
990.6000;0.0781;-1.0736;
990.9000;0.0773;-1.0736;
991.2000;0.0757;-1.0781;
991.5000;0.0822;-1.0668;
991.8000;0.0781;-1.0713;
992.1000;0.0773;-1.0713;
992.4000;0.0773;-1.0713;
992.7000;0.0790;-1.0645;
993.0000;0.0757;-1.0736;
993.3000;0.0773;-1.0713;
993.6000;0.0781;-1.0713;
993.9000;0.0814;-1.0622;
994.2000;0.0790;-1.0645;
994.5000;0.0773;-1.0690;
994.8000;0.0773;-1.0690;
995.1000;0.0806;-1.0668;
995.4000;0.0765;-1.0781;
995.7000;0.0814;-1.0713;
996.0000;0.0847;-1.0668;
996.3000;0.0773;-1.0894;
996.6000;0.0830;-1.0713;
996.9000;0.0757;-1.0894;
997.2000;0.0798;-1.0804;
997.5000;0.0757;-1.0872;
997.8000;0.0765;-1.0781;
998.1000;0.0765;-1.0736;
998.4000;0.0700;-1.0849;
998.7000;0.0757;-1.0736;
999.0000;0.0781;-1.0668;
999.3000;0.0830;-1.0509;
999.6000;0.0692;-1.0804;
999.9000;0.0765;-1.0668;
1000.2000;0.0781;-1.0600;
1000.5000;0.0781;-1.0668;
1000.8000;0.0765;-1.0645;
1001.1000;0.0806;-1.0487;
1001.4000;0.0781;-1.0554;
1001.7000;0.0790;-1.0622;
1002.0000;0.0749;-1.0781;
1002.3000;0.0757;-1.0736;
1002.6000;0.0749;-1.0758;
1002.9000;0.0765;-1.0781;
1003.2000;0.0790;-1.0713;
1003.5000;0.0773;-1.0781;
1003.8000;0.0781;-1.0736;
1004.1000;0.0659;-1.1075;
1004.4000;0.0773;-1.0736;
1004.7000;0.0586;-1.1143;
1005.0000;0.0716;-1.0781;
1005.3000;0.0781;-1.0577;
1005.6000;0.0790;-1.0577;
1005.9000;0.0643;-1.1007;
1006.2000;0.0773;-1.0736;
1006.5000;0.0781;-1.0736;
1006.8000;0.0757;-1.0713;
1007.1000;0.0838;-1.0487;
1007.4000;0.0765;-1.0577;
1007.7000;0.0798;-1.0600;
1008.0000;0.0790;-1.0622;
1008.3000;0.0773;-1.0622;
1008.6000;0.0822;-1.0487;
1008.9000;0.0798;-1.0577;
1009.2000;0.0773;-1.0690;
1009.5000;0.0781;-1.0668;
1009.8000;0.0798;-1.0532;
1010.1000;0.0765;-1.0577;
1010.4000;0.0798;-1.0554;
1010.7000;0.0790;-1.0554;
1011.0000;0.0814;-1.0487;
1011.3000;0.0790;-1.0441;
1011.6000;0.0790;-1.0419;
1011.9000;0.0773;-1.0373;
1012.2000;0.0781;-1.0328;
1012.5000;0.0773;-1.0260;
1012.8000;0.0757;-1.0464;
1013.1000;0.0765;-1.0464;
1013.4000;0.0757;-1.0419;
1013.7000;0.0765;-1.0373;
1014.0000;0.0798;-1.0328;
1014.3000;0.0765;-1.0351;
1014.6000;0.0790;-1.0328;
1014.9000;0.0716;-1.0645;
1015.2000;0.0830;-1.0328;
1015.5000;0.0773;-1.0487;
1015.8000;0.0716;-1.0577;
1016.1000;0.0790;-1.0509;
1016.4000;0.0773;-1.0532;
1016.7000;0.0814;-1.0373;
1017.0000;0.0781;-1.0441;
1017.3000;0.0773;-1.0419;
1017.6000;0.0765;-1.0509;
1017.9000;0.0757;-1.0577;
1018.2000;0.0773;-1.0532;
1018.5000;0.0749;-1.0622;
1018.8000;0.0781;-1.0532;
1019.1000;0.0749;-1.0622;
1019.4000;0.0749;-1.0645;
1019.7000;0.0773;-1.0577;
1020.0000;0.0814;-1.0396;
1020.3000;0.0757;-1.0554;
1020.6000;0.0765;-1.0577;
1020.9000;0.0790;-1.0554;
1021.2000;0.0773;-1.0577;
1021.5000;0.0773;-1.0600;
1021.8000;0.0814;-1.0532;
1022.1000;0.0773;-1.0736;
1022.4000;0.0765;-1.0781;
1022.7000;0.0765;-1.0758;
1023.0000;0.0692;-1.0962;
1023.3000;0.0757;-1.0758;
1023.6000;0.0765;-1.0804;
1023.9000;0.0773;-1.0736;
1024.2000;0.0806;-1.0554;
1024.5000;0.0765;-1.0668;
1024.8000;0.0757;-1.0645;
1025.1000;0.0741;-1.0713;
1025.4000;0.0781;-1.0622;
1025.7000;0.0733;-1.0713;
1026.0000;0.0806;-1.0532;
1026.3000;0.0765;-1.0600;
1026.6000;0.0781;-1.0532;
1026.9000;0.0757;-1.0690;
1027.2000;0.0724;-1.0826;
1027.5000;0.0765;-1.0690;
1027.8000;0.0765;-1.0622;
1028.1000;0.0724;-1.0758;
1028.4000;0.0773;-1.0622;
1028.7000;0.0855;-1.0419;
1029.0000;0.0781;-1.0577;
1029.3000;0.0798;-1.0509;
1029.6000;0.0798;-1.0509;
1029.9000;0.0781;-1.0441;
1030.2000;0.0749;-1.0487;
1030.5000;0.0724;-1.0668;
1030.8000;0.0790;-1.0464;
1031.1000;0.0773;-1.0487;
1031.4000;0.0765;-1.0600;
1031.7000;0.0765;-1.0645;
1032.0000;0.0765;-1.0577;
1032.3000;0.0765;-1.0554;
1032.6000;0.0757;-1.0622;
1032.9000;0.0790;-1.0645;
1033.2000;0.0790;-1.0713;
1033.5000;0.0773;-1.0804;
1033.8000;0.0765;-1.0826;
1034.1000;0.0790;-1.0622;
1034.4000;0.0798;-1.0622;
1034.7000;0.0733;-1.0781;
1035.0000;0.0773;-1.0600;
1035.3000;0.0757;-1.0600;
1035.6000;0.0781;-1.0622;
1035.9000;0.0781;-1.0645;
1036.2000;0.0781;-1.0668;
1036.5000;0.0757;-1.0713;
1036.8000;0.0798;-1.0554;
1037.1000;0.0765;-1.0600;
1037.4000;0.0757;-1.0487;
1037.7000;0.0741;-1.0509;
1038.0000;0.0757;-1.0532;
1038.3000;0.0773;-1.0532;
1038.6000;0.0765;-1.0554;
1038.9000;0.0765;-1.0554;
1039.2000;0.0790;-1.0419;
1039.5000;0.0781;-1.0351;
1039.8000;0.0773;-1.0532;
1040.1000;0.0773;-1.0577;
1040.4000;0.0781;-1.0554;
1040.7000;0.0781;-1.0554;
1041.0000;0.0659;-1.0894;
1041.3000;0.0757;-1.0713;
1041.6000;0.0781;-1.0690;
1041.9000;0.0822;-1.0690;
1042.2000;0.0781;-1.0804;
1042.5000;0.0781;-1.0736;
1042.8000;0.0790;-1.0736;
1043.1000;0.0781;-1.0804;
1043.4000;0.0781;-1.0826;
1043.7000;0.0765;-1.0781;
1044.0000;0.0757;-1.0781;
1044.3000;0.0773;-1.0713;
1044.6000;0.0773;-1.0622;
1044.9000;0.0692;-1.0872;
1045.2000;0.0757;-1.0622;
1045.5000;0.0733;-1.0690;
1045.8000;0.0741;-1.0622;
1046.1000;0.0773;-1.0554;
1046.4000;0.0684;-1.0872;
1046.7000;0.0773;-1.0668;
1047.0000;0.0814;-1.0600;
1047.3000;0.0887;-1.0373;
1047.6000;0.0757;-1.0690;
1047.9000;0.0790;-1.0713;
1048.2000;0.0781;-1.0758;
1048.5000;0.0684;-1.1030;
1048.8000;0.0806;-1.0736;
1049.1000;0.0757;-1.0804;
1049.4000;0.0790;-1.0781;
1049.7000;0.0757;-1.0917;
1050.0000;0.0749;-1.0849;
1050.3000;0.0773;-1.0804;
1050.6000;0.0806;-1.0781;
1050.9000;0.0798;-1.0758;
1051.2000;0.0773;-1.0758;
1051.5000;0.0790;-1.0736;
1051.8000;0.0781;-1.0736;
1052.1000;0.0765;-1.0826;
1052.4000;0.0806;-1.0872;
1052.7000;0.0765;-1.1007;
1053.0000;0.0757;-1.0940;
1053.3000;0.0765;-1.0872;
1053.6000;0.0790;-1.0781;
1053.9000;0.0741;-1.0826;
1054.2000;0.0749;-1.0872;
1054.5000;0.0773;-1.0781;
1054.8000;0.0757;-1.0758;
1055.1000;0.0781;-1.0713;
1055.4000;0.0781;-1.0690;
1055.7000;0.0765;-1.0781;
1056.0000;0.0814;-1.0622;
1056.3000;0.0765;-1.0690;
1056.6000;0.0781;-1.0690;
1056.9000;0.0790;-1.0713;
1057.2000;0.0773;-1.0690;
1057.5000;0.0790;-1.0577;
1057.8000;0.0700;-1.0713;
1058.1000;0.0749;-1.0668;
1058.4000;0.0773;-1.0622;
1058.7000;0.0765;-1.0736;
1059.0000;0.0757;-1.0804;
1059.3000;0.0781;-1.0758;
1059.6000;0.0781;-1.0713;
1059.9000;0.0765;-1.0668;
1060.2000;0.0765;-1.0668;
1060.5000;0.0790;-1.0736;
1060.8000;0.0781;-1.0668;
1061.1000;0.0806;-1.0464;
1061.4000;0.0773;-1.0532;
1061.7000;0.0790;-1.0532;
1062.0000;0.0757;-1.0645;
1062.3000;0.0773;-1.0713;
1062.6000;0.0724;-1.0758;
1062.9000;0.0676;-1.0940;
1063.2000;0.0773;-1.0736;
1063.5000;0.0651;-1.1007;
1063.8000;0.0765;-1.0690;
1064.1000;0.0716;-1.0804;
1064.4000;0.0773;-1.0645;
1064.7000;0.0781;-1.0713;
1065.0000;0.0904;-1.0441;
1065.3000;0.0765;-1.0804;
1065.6000;0.0765;-1.0736;
1065.9000;0.0798;-1.0622;
1066.2000;0.0806;-1.0554;
1066.5000;0.0781;-1.0554;
1066.8000;0.0757;-1.0668;
1067.1000;0.0749;-1.0668;
1067.4000;0.0904;-1.0283;
1067.7000;0.0790;-1.0464;
1068.0000;0.0757;-1.0622;
1068.3000;0.0912;-1.0237;
1068.6000;0.0798;-1.0532;
1068.9000;0.0790;-1.0577;
1069.2000;0.0838;-1.0464;
1069.5000;0.0724;-1.0872;
1069.8000;0.0798;-1.0668;
1070.1000;0.0798;-1.0622;
1070.4000;0.0724;-1.0781;
1070.7000;0.0822;-1.0668;
1071.0000;0.0920;-1.0283;
1071.3000;0.0741;-1.0781;
1071.6000;0.0781;-1.0668;
1071.9000;0.0765;-1.0758;
1072.2000;0.0765;-1.0758;
1072.5000;0.0773;-1.0690;
1072.8000;0.0781;-1.0736;
1073.1000;0.0773;-1.0736;
1073.4000;0.0773;-1.0713;
1073.7000;0.0757;-1.0668;
1074.0000;0.0790;-1.0577;
1074.3000;0.0765;-1.0645;
1074.6000;0.0781;-1.0600;
1074.9000;0.0773;-1.0645;
1075.2000;0.0822;-1.0509;
1075.5000;0.0790;-1.0668;
1075.8000;0.0749;-1.0872;
1076.1000;0.0765;-1.0804;
1076.4000;0.0838;-1.0645;
1076.7000;0.0765;-1.0713;
1077.0000;0.0781;-1.0713;
1077.3000;0.0806;-1.0804;
1077.6000;0.0790;-1.0872;
1077.9000;0.0773;-1.0917;
1078.2000;0.0692;-1.1166;
1078.5000;0.0773;-1.0917;
1078.8000;0.0757;-1.0917;
1079.1000;0.0773;-1.0849;
1079.4000;0.0741;-1.0962;
1079.7000;0.0781;-1.0736;
1080.0000;0.0790;-1.0713;
1080.3000;0.0806;-1.0736;
1080.6000;0.0830;-1.0713;
1080.9000;0.0781;-1.0781;
1081.2000;0.0798;-1.0690;
1081.5000;0.0757;-1.0849;
1081.8000;0.0838;-1.0736;
1082.1000;0.0741;-1.1053;
1082.4000;0.0765;-1.1075;
1082.7000;0.0765;-1.1143;
1083.0000;0.0790;-1.1098;
1083.3000;0.0757;-1.1075;
1083.6000;0.0798;-1.1053;
1083.9000;0.0773;-1.1030;
1084.2000;0.0806;-1.0917;
1084.5000;0.0757;-1.1075;
1084.8000;0.0790;-1.0985;
1085.1000;0.0814;-1.0872;
1085.4000;0.0847;-1.0690;
1085.7000;0.0765;-1.0781;
1086.0000;0.0773;-1.0736;
1086.3000;0.0765;-1.0758;
1086.6000;0.0749;-1.0849;
1086.9000;0.0790;-1.0713;
1087.2000;0.0790;-1.0690;
1087.5000;0.0798;-1.0645;
1087.8000;0.0773;-1.0622;
1088.1000;0.0716;-1.0781;
1088.4000;0.0781;-1.0600;
1088.7000;0.0822;-1.0532;
1089.0000;0.0708;-1.0826;
1089.3000;0.0765;-1.0781;
1089.6000;0.0773;-1.0758;
1089.9000;0.0773;-1.0736;
1090.2000;0.0798;-1.0736;
1090.5000;0.0781;-1.0758;
1090.8000;0.0790;-1.0758;
1091.1000;0.0773;-1.0758;
1091.4000;0.0863;-1.0464;
1091.7000;0.0790;-1.0736;
1092.0000;0.0798;-1.0577;
1092.3000;0.0781;-1.0622;
1092.6000;0.0724;-1.0826;
1092.9000;0.0757;-1.0736;
1093.2000;0.0790;-1.0690;
1093.5000;0.0773;-1.0736;
1093.8000;0.0814;-1.0690;
1094.1000;0.0798;-1.0826;
1094.4000;0.0838;-1.0713;
1094.7000;0.0749;-1.0781;
1095.0000;0.0765;-1.0690;
1095.3000;0.0757;-1.0690;
1095.6000;0.0692;-1.0894;
1095.9000;0.0806;-1.0577;
1096.2000;0.0920;-1.0169;
1096.5000;0.0733;-1.0645;
1096.8000;0.0773;-1.0577;
1097.1000;0.0781;-1.0622;
1097.4000;0.0757;-1.0826;
1097.7000;0.0798;-1.0690;
1098.0000;0.0749;-1.0736;
1098.3000;0.0765;-1.0690;
1098.6000;0.0757;-1.0713;
1098.9000;0.0781;-1.0600;
1099.2000;0.0781;-1.0622;
1099.5000;0.0757;-1.0690;
1099.8000;0.0765;-1.0758;
1100.1000;0.0790;-1.0758;
1100.4000;0.0765;-1.0804;
1100.7000;0.0798;-1.0758;
1101.0000;0.0781;-1.0804;
1101.3000;0.0773;-1.0804;
1101.6000;0.0781;-1.0781;
1101.9000;0.0773;-1.0804;
1102.2000;0.0749;-1.0804;
1102.5000;0.0757;-1.0826;
1102.8000;0.0765;-1.0713;
1103.1000;0.0757;-1.0668;
1103.4000;0.0765;-1.0668;
1103.7000;0.0790;-1.0509;
1104.0000;0.0798;-1.0554;
1104.3000;0.0741;-1.0736;
1104.6000;0.0749;-1.0758;
1104.9000;0.0757;-1.0622;
1105.2000;0.0773;-1.0645;
1105.5000;0.0781;-1.0577;
1105.8000;0.0741;-1.0668;
1106.1000;0.0757;-1.0600;
1106.4000;0.0773;-1.0554;
1106.7000;0.0781;-1.0509;
1107.0000;0.0757;-1.0554;
1107.3000;0.0781;-1.0532;
1107.6000;0.0749;-1.0713;
1107.9000;0.0790;-1.0736;
1108.2000;0.0798;-1.0758;
1108.5000;0.0806;-1.0781;
1108.8000;0.0733;-1.0849;
1109.1000;0.0790;-1.0736;
1109.4000;0.0790;-1.0826;
1109.7000;0.0781;-1.0781;
1110.0000;0.0790;-1.0804;
1110.3000;0.0773;-1.0690;
1110.6000;0.0773;-1.0736;
1110.9000;0.0928;-1.0351;
1111.2000;0.0757;-1.0736;
1111.5000;0.0814;-1.0645;
1111.8000;0.0781;-1.0781;
1112.1000;0.0790;-1.0758;
1112.4000;0.0814;-1.0645;
1112.7000;0.0749;-1.0804;
1113.0000;0.0781;-1.0826;
1113.3000;0.0757;-1.0849;
1113.6000;0.0765;-1.0849;
1113.9000;0.0765;-1.0826;
1114.2000;0.0757;-1.0872;
1114.5000;0.0838;-1.0645;
1114.8000;0.0716;-1.0849;
1115.1000;0.0773;-1.0826;
1115.4000;0.0773;-1.0849;
1115.7000;0.0822;-1.0781;
1116.0000;0.0855;-1.0690;
1116.3000;0.0781;-1.0940;
1116.6000;0.0895;-1.0509;
1116.9000;0.0781;-1.0804;
1117.2000;0.0781;-1.0917;
1117.5000;0.0806;-1.0894;
1117.8000;0.0790;-1.0985;
1118.1000;0.0781;-1.0985;
1118.4000;0.0765;-1.0894;
1118.7000;0.0773;-1.0894;
1119.0000;0.0716;-1.1030;
1119.3000;0.0692;-1.1098;
1119.6000;0.0773;-1.0804;
1119.9000;0.0773;-1.0690;
1120.2000;0.0790;-1.0577;
1120.5000;0.0773;-1.0577;
1120.8000;0.0790;-1.0577;
1121.1000;0.0765;-1.0736;
1121.4000;0.0790;-1.0645;
1121.7000;0.0773;-1.0577;
1122.0000;0.0773;-1.0554;
1122.3000;0.0651;-1.0849;
1122.6000;0.0790;-1.0532;
1122.9000;0.0757;-1.0736;
1123.2000;0.0765;-1.0668;
1123.5000;0.0790;-1.0645;
1123.8000;0.0781;-1.0668;
1124.1000;0.0765;-1.0758;
1124.4000;0.0855;-1.0509;
1124.7000;0.0814;-1.0577;
1125.0000;0.0781;-1.0645;
1125.3000;0.0781;-1.0600;
1125.6000;0.0757;-1.0622;
1125.9000;0.0757;-1.0645;
1126.2000;0.0765;-1.0713;
1126.5000;0.0773;-1.0690;
1126.8000;0.0781;-1.0690;
1127.1000;0.0773;-1.0690;
1127.4000;0.0765;-1.0781;
1127.7000;0.0716;-1.0849;
1128.0000;0.0667;-1.0940;
1128.3000;0.0781;-1.0622;
1128.6000;0.0773;-1.0622;
1128.9000;0.0765;-1.0600;
1129.2000;0.0724;-1.0713;
1129.5000;0.0855;-1.0532;
1129.8000;0.0773;-1.0736;
1130.1000;0.0773;-1.0713;
1130.4000;0.0773;-1.0826;
1130.7000;0.0814;-1.0736;
1131.0000;0.0781;-1.0690;
1131.3000;0.0781;-1.0622;
1131.6000;0.0781;-1.0622;
1131.9000;0.0773;-1.0645;
1132.2000;0.0781;-1.0532;
1132.5000;0.0798;-1.0441;
1132.8000;0.0773;-1.0532;
1133.1000;0.0765;-1.0554;
1133.4000;0.0773;-1.0600;
1133.7000;0.0708;-1.0758;
1134.0000;0.0773;-1.0577;
1134.3000;0.0781;-1.0600;
1134.6000;0.0773;-1.0600;
1134.9000;0.0765;-1.0600;
1135.2000;0.0741;-1.0600;
1135.5000;0.0749;-1.0532;
1135.8000;0.0749;-1.0464;
1136.1000;0.0757;-1.0441;
1136.4000;0.0773;-1.0419;
1136.7000;0.0716;-1.0622;
1137.0000;0.0806;-1.0441;
1137.3000;0.0773;-1.0464;
1137.6000;0.0830;-1.0305;
1137.9000;0.0790;-1.0351;
1138.2000;0.0822;-1.0305;
1138.5000;0.0692;-1.0600;
1138.8000;0.0708;-1.0577;
1139.1000;0.0790;-1.0464;
1139.4000;0.0708;-1.0645;
1139.7000;0.0741;-1.0532;
1140.0000;0.0765;-1.0487;
1140.3000;0.0773;-1.0487;
1140.6000;0.0798;-1.0396;
1140.9000;0.0773;-1.0441;
1141.2000;0.0773;-1.0464;
1141.5000;0.0765;-1.0464;
1141.8000;0.0765;-1.0441;
1142.1000;0.0741;-1.0441;
1142.4000;0.0773;-1.0260;
1142.7000;0.0749;-1.0351;
1143.0000;0.0716;-1.0509;
1143.3000;0.0757;-1.0351;
1143.6000;0.0838;-1.0237;
1143.9000;0.0781;-1.0373;
1144.2000;0.0830;-1.0305;
1144.5000;0.0773;-1.0509;
1144.8000;0.0765;-1.0487;
1145.1000;0.0724;-1.0645;
1145.4000;0.0749;-1.0645;
1145.7000;0.0798;-1.0464;
1146.0000;0.0773;-1.0464;
1146.3000;0.0790;-1.0464;
1146.6000;0.0765;-1.0419;
1146.9000;0.0781;-1.0396;
1147.2000;0.0773;-1.0464;
1147.5000;0.0781;-1.0487;
1147.8000;0.0741;-1.0690;
1148.1000;0.0781;-1.0532;
1148.4000;0.0765;-1.0509;
1148.7000;0.0773;-1.0532;
1149.0000;0.0781;-1.0622;
1149.3000;0.0781;-1.0487;
1149.6000;0.0806;-1.0373;
1149.9000;0.0708;-1.0577;
1150.2000;0.0798;-1.0441;
1150.5000;0.0765;-1.0577;
1150.8000;0.0798;-1.0509;
1151.1000;0.0749;-1.0622;
1151.4000;0.0806;-1.0464;
1151.7000;0.0790;-1.0487;
1152.0000;0.0643;-1.0849;
1152.3000;0.0773;-1.0600;
1152.6000;0.0676;-1.0872;
1152.9000;0.0798;-1.0464;
1153.2000;0.0773;-1.0487;
1153.5000;0.0733;-1.0487;
1153.8000;0.0749;-1.0487;
1154.1000;0.0749;-1.0577;
1154.4000;0.0798;-1.0373;
1154.7000;0.0830;-1.0305;
1155.0000;0.0700;-1.0758;
1155.3000;0.0757;-1.0554;
1155.6000;0.0773;-1.0487;
1155.9000;0.0806;-1.0305;
1156.2000;0.0806;-1.0328;
1156.5000;0.0781;-1.0283;
1156.8000;0.0781;-1.0328;
1157.1000;0.0781;-1.0351;
1157.4000;0.0781;-1.0396;
1157.7000;0.0781;-1.0351;
1158.0000;0.0724;-1.0441;
1158.3000;0.0733;-1.0328;
1158.6000;0.0790;-1.0283;
1158.9000;0.0757;-1.0373;
1159.2000;0.0790;-1.0328;
1159.5000;0.0781;-1.0351;
1159.8000;0.0814;-1.0419;
1160.1000;0.0798;-1.0554;
1160.4000;0.0757;-1.0600;
1160.7000;0.0773;-1.0509;
1161.0000;0.0733;-1.0690;
1161.3000;0.0773;-1.0554;
1161.6000;0.0765;-1.0509;
1161.9000;0.0757;-1.0622;
1162.2000;0.0790;-1.0622;
1162.5000;0.0781;-1.0509;
1162.8000;0.0700;-1.0690;
1163.1000;0.0781;-1.0487;
1163.4000;0.0798;-1.0419;
1163.7000;0.0773;-1.0419;
1164.0000;0.0773;-1.0464;
1164.3000;0.0733;-1.0622;
1164.6000;0.0757;-1.0532;
1164.9000;0.0773;-1.0532;
1165.2000;0.0749;-1.0532;
1165.5000;0.0757;-1.0509;
1165.8000;0.0765;-1.0532;
1166.1000;0.0724;-1.0713;
1166.4000;0.0822;-1.0441;
1166.7000;0.0781;-1.0554;
1167.0000;0.0790;-1.0622;
1167.3000;0.0765;-1.0554;
1167.6000;0.0806;-1.0441;
1167.9000;0.0781;-1.0441;
1168.2000;0.0781;-1.0419;
1168.5000;0.0830;-1.0328;
1168.8000;0.0798;-1.0419;
1169.1000;0.0635;-1.0758;
1169.4000;0.0765;-1.0441;
1169.7000;0.0757;-1.0487;
1170.0000;0.0765;-1.0396;
1170.3000;0.0781;-1.0441;
1170.6000;0.0838;-1.0283;
1170.9000;0.0790;-1.0464;
1171.2000;0.0790;-1.0441;
1171.5000;0.0773;-1.0441;
1171.8000;0.0798;-1.0373;
1172.1000;0.0741;-1.0554;
1172.4000;0.0798;-1.0396;
1172.7000;0.0765;-1.0464;
1173.0000;0.0757;-1.0509;
1173.3000;0.0757;-1.0532;
1173.6000;0.0749;-1.0487;
1173.9000;0.0692;-1.0690;
1174.2000;0.0765;-1.0441;
1174.5000;0.0757;-1.0441;
1174.8000;0.0781;-1.0283;
1175.1000;0.0790;-1.0192;
1175.4000;0.0790;-1.0101;
1175.7000;0.0724;-1.0305;
1176.0000;0.0749;-1.0328;
1176.3000;0.0781;-1.0283;
1176.6000;0.0798;-1.0351;
1176.9000;0.0847;-1.0260;
1177.2000;0.0741;-1.0441;
1177.5000;0.0757;-1.0419;
1177.8000;0.0798;-1.0305;
1178.1000;0.0773;-1.0328;
1178.4000;0.0765;-1.0351;
1178.7000;0.0830;-1.0328;
1179.0000;0.0822;-1.0305;
1179.3000;0.0765;-1.0396;
1179.6000;0.0773;-1.0396;
1179.9000;0.0773;-1.0441;
1180.2000;0.0781;-1.0509;
1180.5000;0.0781;-1.0441;
1180.8000;0.0757;-1.0509;
1181.1000;0.0790;-1.0532;
1181.4000;0.0790;-1.0509;
1181.7000;0.0814;-1.0509;
1182.0000;0.0757;-1.0600;
1182.3000;0.0757;-1.0577;
1182.6000;0.0790;-1.0577;
1182.9000;0.0741;-1.0736;
1183.2000;0.0749;-1.0781;
1183.5000;0.0765;-1.0781;
1183.8000;0.0765;-1.0690;
1184.1000;0.0749;-1.0690;
1184.4000;0.0773;-1.0645;
1184.7000;0.0765;-1.0622;
1185.0000;0.0708;-1.0736;
1185.3000;0.0781;-1.0554;
1185.6000;0.0798;-1.0532;
1185.9000;0.0822;-1.0464;
1186.2000;0.0790;-1.0577;
1186.5000;0.0790;-1.0554;
1186.8000;0.0716;-1.0690;
1187.1000;0.0781;-1.0441;
1187.4000;0.0692;-1.0622;
1187.7000;0.0765;-1.0396;
1188.0000;0.0798;-1.0396;
1188.3000;0.0708;-1.0713;
1188.6000;0.0749;-1.0645;
1188.9000;0.0765;-1.0554;
1189.2000;0.0773;-1.0487;
1189.5000;0.0749;-1.0509;
1189.8000;0.0757;-1.0396;
1190.1000;0.0643;-1.0668;
1190.4000;0.0757;-1.0419;
1190.7000;0.0765;-1.0441;
1191.0000;0.0773;-1.0441;
1191.3000;0.0749;-1.0441;
1191.6000;0.0781;-1.0351;
1191.9000;0.0790;-1.0351;
1192.2000;0.0708;-1.0622;
1192.5000;0.0806;-1.0373;
1192.8000;0.0790;-1.0441;
1193.1000;0.0773;-1.0419;
1193.4000;0.0757;-1.0396;
1193.7000;0.0757;-1.0441;
1194.0000;0.0765;-1.0419;
1194.3000;0.0773;-1.0419;
1194.6000;0.0765;-1.0373;
1194.9000;0.0773;-1.0441;
1195.2000;0.0757;-1.0441;
1195.5000;0.0765;-1.0441;
1195.8000;0.0708;-1.0668;
1196.1000;0.0781;-1.0509;
1196.4000;0.0773;-1.0554;
1196.7000;0.0765;-1.0645;
1197.0000;0.0806;-1.0577;
1197.3000;0.0765;-1.0554;
1197.6000;0.0757;-1.0554;
1197.9000;0.0781;-1.0441;
1198.2000;0.0814;-1.0396;
1198.5000;0.0773;-1.0509;
1198.8000;0.0765;-1.0487;
1199.1000;0.0781;-1.0532;
1199.4000;0.0781;-1.0509;
1199.7000;0.0684;-1.0622;
1200.0000;0.0773;-1.0283;
1200.3000;0.0790;-1.0237;
1200.6000;0.0790;-1.0147;
1200.9000;0.0773;-1.0169;
1201.2000;0.0790;-1.0192;
1201.5000;0.0773;-1.0283;
1201.8000;0.0790;-1.0260;
1202.1000;0.0798;-1.0373;
1202.4000;0.0749;-1.0487;
1202.7000;0.0806;-1.0283;
1203.0000;0.0790;-1.0305;
1203.3000;0.0781;-1.0305;
1203.6000;0.0773;-1.0351;
1203.9000;0.0798;-1.0351;
1204.2000;0.0741;-1.0509;
1204.5000;0.0765;-1.0509;
1204.8000;0.0781;-1.0487;
1205.1000;0.0749;-1.0554;
1205.4000;0.0749;-1.0600;
1205.7000;0.0781;-1.0532;
1206.0000;0.0749;-1.0577;
1206.3000;0.0781;-1.0532;
1206.6000;0.0757;-1.0554;
1206.9000;0.0757;-1.0487;
1207.2000;0.0790;-1.0509;
1207.5000;0.0765;-1.0577;
1207.8000;0.0749;-1.0554;
1208.1000;0.0716;-1.0645;
1208.4000;0.0757;-1.0554;
1208.7000;0.0676;-1.0872;
1209.0000;0.0765;-1.0600;
1209.3000;0.0757;-1.0600;
1209.6000;0.0716;-1.0668;
1209.9000;0.0757;-1.0554;
1210.2000;0.0798;-1.0487;
1210.5000;0.0749;-1.0600;
1210.8000;0.0879;-1.0305;
1211.1000;0.0741;-1.0690;
1211.4000;0.0863;-1.0441;
1211.7000;0.0733;-1.0781;
1212.0000;0.0765;-1.0690;
1212.3000;0.0798;-1.0600;
1212.6000;0.0773;-1.0668;
1212.9000;0.0781;-1.0690;
1213.2000;0.0741;-1.0781;
1213.5000;0.0676;-1.1007;
1213.8000;0.0806;-1.0668;
1214.1000;0.0798;-1.0645;
1214.4000;0.0757;-1.0736;
1214.7000;0.0765;-1.0622;
1215.0000;0.0773;-1.0554;
1215.3000;0.0871;-1.0351;
1215.6000;0.0692;-1.0826;
1215.9000;0.0781;-1.0554;
1216.2000;0.0798;-1.0554;
1216.5000;0.0749;-1.0645;
1216.8000;0.0879;-1.0351;
1217.1000;0.0863;-1.0351;
1217.4000;0.0773;-1.0577;
1217.7000;0.0765;-1.0600;
1218.0000;0.0765;-1.0600;
1218.3000;0.0757;-1.0532;
1218.6000;0.0724;-1.0690;
1218.9000;0.0790;-1.0577;
1219.2000;0.0781;-1.0554;
1219.5000;0.0798;-1.0600;
1219.8000;0.0798;-1.0600;
1220.1000;0.0773;-1.0622;
1220.4000;0.0773;-1.0577;
1220.7000;0.0692;-1.0758;
1221.0000;0.0684;-1.0894;
1221.3000;0.0757;-1.0600;
1221.6000;0.0773;-1.0600;
1221.9000;0.0781;-1.0577;
1222.2000;0.0765;-1.0554;
1222.5000;0.0790;-1.0464;
1222.8000;0.0765;-1.0487;
1223.1000;0.0765;-1.0532;
1223.4000;0.0708;-1.0690;
1223.7000;0.0757;-1.0622;
1224.0000;0.0765;-1.0509;
1224.3000;0.0757;-1.0509;
1224.6000;0.0757;-1.0554;
1224.9000;0.0757;-1.0622;
1225.2000;0.0806;-1.0532;
1225.5000;0.0781;-1.0532;
1225.8000;0.0757;-1.0622;
1226.1000;0.0838;-1.0464;
1226.4000;0.0765;-1.0577;
1226.7000;0.0798;-1.0509;
1227.0000;0.0806;-1.0532;
1227.3000;0.0806;-1.0577;
1227.6000;0.0790;-1.0645;
1227.9000;0.0757;-1.0690;
1228.2000;0.0773;-1.0668;
1228.5000;0.0790;-1.0645;
1228.8000;0.0716;-1.0736;
1229.1000;0.0790;-1.0464;
1229.4000;0.0749;-1.0577;
1229.7000;0.0781;-1.0600;
1230.0000;0.0554;-1.1098;
1230.3000;0.0765;-1.0577;
1230.6000;0.0912;-1.0215;
1230.9000;0.0765;-1.0622;
1231.2000;0.0822;-1.0554;
1231.5000;0.0757;-1.0645;
1231.8000;0.0790;-1.0532;
1232.1000;0.0781;-1.0509;
1232.4000;0.0749;-1.0600;
1232.7000;0.0741;-1.0577;
1233.0000;0.0757;-1.0554;
1233.3000;0.0757;-1.0600;
1233.6000;0.0724;-1.0690;
1233.9000;0.0749;-1.0668;
1234.2000;0.0773;-1.0554;
1234.5000;0.0773;-1.0554;
1234.8000;0.0830;-1.0396;
1235.1000;0.0700;-1.0781;
1235.4000;0.0684;-1.0736;
1235.7000;0.0651;-1.0917;
1236.0000;0.0757;-1.0690;
1236.3000;0.0749;-1.0690;
1236.6000;0.0765;-1.0600;
1236.9000;0.0790;-1.0532;
1237.2000;0.0871;-1.0373;
1237.5000;0.0773;-1.0690;
1237.8000;0.0798;-1.0622;
1238.1000;0.0684;-1.0940;
1238.4000;0.0765;-1.0690;
1238.7000;0.0773;-1.0668;
1239.0000;0.0798;-1.0577;
1239.3000;0.0806;-1.0645;
1239.6000;0.0781;-1.0668;
1239.9000;0.0765;-1.0622;
1240.2000;0.0806;-1.0622;
1240.5000;0.0781;-1.0758;
1240.8000;0.0749;-1.0804;
1241.1000;0.0773;-1.0645;
1241.4000;0.0806;-1.0645;
1241.7000;0.0806;-1.0622;
1242.0000;0.0798;-1.0690;
1242.3000;0.0749;-1.0781;
1242.6000;0.0757;-1.0758;
1242.9000;0.0773;-1.0781;
1243.2000;0.0765;-1.0758;
1243.5000;0.0790;-1.0713;
1243.8000;0.0765;-1.0781;
1244.1000;0.0773;-1.0736;
1244.4000;0.0757;-1.0713;
1244.7000;0.0781;-1.0577;
1245.0000;0.0781;-1.0487;
1245.3000;0.0757;-1.0577;
1245.6000;0.0773;-1.0487;
1245.9000;0.0773;-1.0464;
1246.2000;0.0765;-1.0419;
1246.5000;0.0790;-1.0237;
1246.8000;0.0716;-1.0373;
1247.1000;0.0749;-1.0328;
1247.4000;0.0773;-1.0260;
1247.7000;0.0757;-1.0305;
1248.0000;0.0781;-1.0305;
1248.3000;0.0741;-1.0396;
1248.6000;0.0749;-1.0487;
1248.9000;0.0773;-1.0532;
1249.2000;0.0765;-1.0622;
1249.5000;0.0716;-1.0781;
1249.8000;0.0798;-1.0600;
1250.1000;0.0798;-1.0622;
1250.4000;0.0838;-1.0554;
1250.7000;0.0773;-1.0690;
1251.0000;0.0879;-1.0441;
1251.3000;0.0822;-1.0509;
1251.6000;0.0830;-1.0532;
1251.9000;0.0830;-1.0532;
1252.2000;0.0944;-1.0169;
1252.5000;0.0700;-1.0849;
1252.8000;0.0790;-1.0532;
1253.1000;0.0790;-1.0577;
1253.4000;0.0651;-1.0962;
1253.7000;0.0798;-1.0554;
1254.0000;0.0798;-1.0441;
1254.3000;0.0781;-1.0441;
1254.6000;0.0781;-1.0487;
1254.9000;0.0838;-1.0351;
1255.2000;0.0773;-1.0487;
1255.5000;0.0798;-1.0396;
1255.8000;0.0822;-1.0351;
1256.1000;0.0806;-1.0328;
1256.4000;0.0724;-1.0487;
1256.7000;0.0814;-1.0328;
1257.0000;0.0798;-1.0328;
1257.3000;0.0667;-1.0736;
1257.6000;0.0822;-1.0396;
1257.9000;0.0781;-1.0554;
1258.2000;0.0741;-1.0690;
1258.5000;0.0773;-1.0622;
1258.8000;0.0733;-1.0804;
1259.1000;0.0790;-1.0690;
1259.4000;0.0757;-1.0781;
1259.7000;0.0659;-1.1053;
1260.0000;0.0765;-1.0668;
1260.3000;0.0806;-1.0577;
1260.6000;0.0773;-1.0781;
1260.9000;0.0790;-1.0781;
1261.2000;0.0765;-1.0713;
1261.5000;0.0790;-1.0668;
1261.8000;0.0781;-1.0781;
1262.1000;0.0781;-1.0690;
1262.4000;0.0667;-1.0985;
1262.7000;0.0790;-1.0554;
1263.0000;0.0773;-1.0600;
1263.3000;0.0781;-1.0487;
1263.6000;0.0765;-1.0532;
1263.9000;0.0773;-1.0487;
1264.2000;0.0741;-1.0509;
1264.5000;0.0798;-1.0441;
1264.8000;0.0773;-1.0419;
1265.1000;0.0790;-1.0419;
1265.4000;0.0765;-1.0554;
1265.7000;0.0741;-1.0600;
1266.0000;0.0749;-1.0554;
1266.3000;0.0765;-1.0577;
1266.6000;0.0781;-1.0532;
1266.9000;0.0822;-1.0487;
1267.2000;0.0765;-1.0532;
1267.5000;0.0847;-1.0328;
1267.8000;0.0676;-1.0781;
1268.1000;0.0781;-1.0396;
1268.4000;0.0798;-1.0419;
1268.7000;0.0741;-1.0554;
1269.0000;0.0773;-1.0464;
1269.3000;0.0781;-1.0419;
1269.6000;0.0757;-1.0509;
1269.9000;0.0781;-1.0464;
1270.2000;0.0765;-1.0532;
1270.5000;0.0790;-1.0554;
1270.8000;0.0781;-1.0509;
1271.1000;0.0773;-1.0509;
1271.4000;0.0773;-1.0373;
1271.7000;0.0773;-1.0419;
1272.0000;0.0765;-1.0441;
1272.3000;0.0749;-1.0509;
1272.6000;0.0733;-1.0690;
1272.9000;0.0798;-1.0600;
1273.2000;0.0806;-1.0600;
1273.5000;0.0806;-1.0577;
1273.8000;0.0741;-1.0622;
1274.1000;0.0781;-1.0441;
1274.4000;0.0733;-1.0509;
1274.7000;0.0749;-1.0419;
1275.0000;0.0757;-1.0487;
1275.3000;0.0781;-1.0373;
1275.6000;0.0773;-1.0305;
1275.9000;0.0871;-0.9988;
1276.2000;0.0765;-1.0305;
1276.5000;0.0830;-1.0147;
1276.8000;0.0773;-1.0215;
1277.1000;0.0700;-1.0328;
1277.4000;0.0733;-1.0328;
1277.7000;0.0757;-1.0283;
1278.0000;0.0798;-1.0260;
1278.3000;0.0749;-1.0396;
1278.6000;0.0781;-1.0305;
1278.9000;0.0757;-1.0373;
1279.2000;0.0733;-1.0351;
1279.5000;0.0773;-1.0283;
1279.8000;0.0790;-1.0373;
1280.1000;0.0757;-1.0509;
1280.4000;0.0781;-1.0487;
1280.7000;0.0757;-1.0509;
1281.0000;0.0798;-1.0373;
1281.3000;0.0773;-1.0532;
1281.6000;0.0773;-1.0577;
1281.9000;0.0790;-1.0487;
1282.2000;0.0773;-1.0532;
1282.5000;0.0765;-1.0554;
1282.8000;0.0765;-1.0554;
1283.1000;0.0765;-1.0487;
1283.4000;0.0773;-1.0464;
1283.7000;0.0757;-1.0487;
1284.0000;0.0741;-1.0487;
1284.3000;0.0692;-1.0577;
1284.6000;0.0733;-1.0396;
1284.9000;0.0757;-1.0373;
1285.2000;0.0863;-1.0192;
1285.5000;0.0781;-1.0373;
1285.8000;0.0790;-1.0373;
1286.1000;0.0781;-1.0464;
1286.4000;0.0814;-1.0351;
1286.7000;0.0773;-1.0487;
1287.0000;0.0790;-1.0419;
1287.3000;0.0798;-1.0373;
1287.6000;0.0781;-1.0419;
1287.9000;0.0757;-1.0487;
1288.2000;0.0790;-1.0419;
1288.5000;0.0773;-1.0487;
1288.8000;0.0757;-1.0509;
1289.1000;0.0765;-1.0509;
1289.4000;0.0781;-1.0509;
1289.7000;0.0830;-1.0328;
1290.0000;0.0838;-1.0215;
1290.3000;0.0773;-1.0351;
1290.6000;0.0757;-1.0396;
1290.9000;0.0814;-1.0283;
1291.2000;0.0781;-1.0396;
1291.5000;0.0798;-1.0419;
1291.8000;0.0838;-1.0373;
1292.1000;0.0602;-1.0872;
1292.4000;0.0757;-1.0441;
1292.7000;0.0830;-1.0305;
1293.0000;0.0781;-1.0373;
1293.3000;0.0773;-1.0373;
1293.6000;0.0871;-1.0169;
1293.9000;0.0773;-1.0441;
1294.2000;0.0741;-1.0532;
1294.5000;0.0790;-1.0464;
1294.8000;0.0733;-1.0690;
1295.1000;0.0798;-1.0532;
1295.4000;0.0781;-1.0577;
1295.7000;0.0798;-1.0532;
1296.0000;0.0806;-1.0532;
1296.3000;0.0749;-1.0668;
1296.6000;0.0781;-1.0645;
1296.9000;0.0773;-1.0622;
1297.2000;0.0773;-1.0600;
1297.5000;0.0781;-1.0532;
1297.8000;0.0781;-1.0622;
1298.1000;0.0749;-1.0690;
1298.4000;0.0773;-1.0645;
1298.7000;0.0806;-1.0554;
1299.0000;0.0798;-1.0487;
1299.3000;0.0765;-1.0600;
1299.6000;0.0773;-1.0554;
1299.9000;0.0765;-1.0554;
1300.2000;0.0716;-1.0713;
1300.5000;0.0790;-1.0554;
1300.8000;0.0781;-1.0622;
1301.1000;0.0781;-1.0532;
1301.4000;0.0773;-1.0577;
1301.7000;0.0790;-1.0509;
1302.0000;0.0773;-1.0464;
1302.3000;0.0781;-1.0396;
1302.6000;0.0781;-1.0283;
1302.9000;0.0790;-1.0328;
1303.2000;0.0765;-1.0396;
1303.5000;0.0781;-1.0419;
1303.8000;0.0733;-1.0577;
1304.1000;0.0773;-1.0577;
1304.4000;0.0773;-1.0554;
1304.7000;0.0773;-1.0464;
1305.0000;0.0765;-1.0464;
1305.3000;0.0757;-1.0464;
1305.6000;0.0838;-1.0305;
1305.9000;0.0798;-1.0419;
1306.2000;0.0765;-1.0554;
1306.5000;0.0806;-1.0509;
1306.8000;0.0814;-1.0509;
1307.1000;0.0749;-1.0645;
1307.4000;0.0790;-1.0464;
1307.7000;0.0700;-1.0736;
1308.0000;0.0765;-1.0532;
1308.3000;0.0684;-1.0804;
1308.6000;0.0749;-1.0554;
1308.9000;0.0765;-1.0509;
1309.2000;0.0847;-1.0305;
1309.5000;0.0741;-1.0509;
1309.8000;0.0757;-1.0509;
1310.1000;0.0798;-1.0373;
1310.4000;0.0781;-1.0396;
1310.7000;0.0724;-1.0577;
1311.0000;0.0773;-1.0464;
1311.3000;0.0830;-1.0351;
1311.6000;0.0814;-1.0328;
1311.9000;0.0733;-1.0487;
1312.2000;0.0781;-1.0464;
1312.5000;0.0790;-1.0487;
1312.8000;0.0757;-1.0532;
1313.1000;0.0798;-1.0419;
1313.4000;0.0765;-1.0464;
1313.7000;0.0741;-1.0532;
1314.0000;0.0814;-1.0396;
1314.3000;0.0765;-1.0622;
1314.6000;0.0773;-1.0554;
1314.9000;0.0773;-1.0464;
1315.2000;0.0806;-1.0351;
1315.5000;0.0765;-1.0373;
1315.8000;0.0619;-1.0758;
1316.1000;0.0692;-1.0532;
1316.4000;0.0757;-1.0441;
1316.7000;0.0676;-1.0645;
1317.0000;0.0773;-1.0419;
1317.3000;0.0790;-1.0419;
1317.6000;0.0790;-1.0577;
1317.9000;0.0781;-1.0600;
1318.2000;0.0765;-1.0600;
1318.5000;0.0765;-1.0554;
1318.8000;0.0765;-1.0509;
1319.1000;0.0757;-1.0487;
1319.4000;0.0781;-1.0328;
1319.7000;0.0724;-1.0487;
1320.0000;0.0757;-1.0419;
1320.3000;0.0765;-1.0464;
1320.6000;0.0651;-1.0826;
1320.9000;0.0749;-1.0532;
1321.2000;0.0741;-1.0577;
1321.5000;0.0814;-1.0464;
1321.8000;0.0773;-1.0487;
1322.1000;0.0838;-1.0351;
1322.4000;0.0765;-1.0509;
1322.7000;0.0781;-1.0396;
1323.0000;0.0781;-1.0396;
1323.3000;0.0765;-1.0554;
1323.6000;0.0781;-1.0532;
1323.9000;0.0790;-1.0464;
1324.2000;0.0798;-1.0396;
1324.5000;0.0741;-1.0487;
1324.8000;0.0741;-1.0509;
1325.1000;0.0716;-1.0600;
1325.4000;0.0904;-1.0147;
1325.7000;0.0757;-1.0600;
1326.0000;0.0781;-1.0487;
1326.3000;0.0757;-1.0532;
1326.6000;0.0757;-1.0532;
1326.9000;0.0798;-1.0441;
1327.2000;0.0773;-1.0464;
1327.5000;0.0749;-1.0509;
1327.8000;0.0798;-1.0441;
1328.1000;0.0749;-1.0600;
1328.4000;0.0749;-1.0554;
1328.7000;0.0684;-1.0713;
1329.0000;0.0773;-1.0600;
1329.3000;0.0871;-1.0441;
1329.6000;0.0814;-1.0509;
1329.9000;0.0765;-1.0577;
1330.2000;0.0773;-1.0487;
1330.5000;0.0765;-1.0464;
1330.8000;0.0806;-1.0441;
1331.1000;0.0733;-1.0668;
1331.4000;0.0700;-1.0781;
1331.7000;0.0879;-1.0351;
1332.0000;0.0781;-1.0554;
1332.3000;0.0773;-1.0645;
1332.6000;0.0806;-1.0487;
1332.9000;0.0781;-1.0509;
1333.2000;0.0765;-1.0668;
1333.5000;0.0765;-1.0668;
1333.8000;0.0765;-1.0690;
1334.1000;0.0765;-1.0622;
1334.4000;0.0765;-1.0577;
1334.7000;0.0692;-1.0758;
1335.0000;0.0757;-1.0690;
1335.3000;0.0773;-1.0645;
1335.6000;0.0798;-1.0577;
1335.9000;0.0781;-1.0668;
1336.2000;0.0765;-1.0758;
1336.5000;0.0781;-1.0804;
1336.8000;0.0773;-1.0758;
1337.1000;0.0741;-1.0849;
1337.4000;0.0765;-1.0804;
1337.7000;0.0700;-1.0917;
1338.0000;0.0798;-1.0622;
1338.3000;0.0757;-1.0690;
1338.6000;0.0798;-1.0690;
1338.9000;0.0765;-1.0713;
1339.2000;0.0757;-1.0690;
1339.5000;0.0757;-1.0645;
1339.8000;0.0806;-1.0419;
1340.1000;0.0790;-1.0464;
1340.4000;0.0781;-1.0509;
1340.7000;0.0790;-1.0509;
1341.0000;0.0781;-1.0532;
1341.3000;0.0757;-1.0645;
1341.6000;0.0716;-1.0781;
1341.9000;0.0773;-1.0645;
1342.2000;0.0895;-1.0237;
1342.5000;0.0773;-1.0509;
1342.8000;0.0790;-1.0509;
1343.1000;0.0749;-1.0577;
1343.4000;0.0781;-1.0600;
1343.7000;0.0920;-1.0260;
1344.0000;0.0749;-1.0713;
1344.3000;0.0773;-1.0690;
1344.6000;0.0773;-1.0713;
1344.9000;0.0724;-1.0894;
1345.2000;0.0773;-1.0872;
1345.5000;0.0798;-1.0849;
1345.8000;0.0920;-1.0419;
1346.1000;0.0798;-1.0713;
1346.4000;0.0757;-1.0872;
1346.7000;0.0790;-1.0736;
1347.0000;0.0798;-1.0736;
1347.3000;0.0822;-1.0645;
1347.6000;0.0741;-1.0894;
1347.9000;0.0781;-1.0826;
1348.2000;0.0790;-1.0894;
1348.5000;0.0692;-1.1189;
1348.8000;0.0733;-1.1075;
1349.1000;0.0749;-1.1030;
1349.4000;0.0847;-1.0690;
1349.7000;0.0781;-1.0804;
1350.0000;0.0781;-1.0804;
1350.3000;0.0708;-1.1007;
1350.6000;0.0765;-1.0917;
1350.9000;0.0692;-1.0940;
1351.2000;0.0749;-1.0826;
1351.5000;0.0904;-1.0441;
1351.8000;0.0757;-1.0804;
1352.1000;0.0716;-1.0917;
1352.4000;0.0781;-1.0781;
1352.7000;0.0757;-1.0872;
1353.0000;0.0781;-1.0872;
1353.3000;0.0781;-1.0849;
1353.6000;0.0944;-1.0419;
1353.9000;0.0773;-1.0826;
1354.2000;0.0757;-1.0826;
1354.5000;0.0781;-1.0736;
1354.8000;0.0790;-1.0758;
1355.1000;0.0741;-1.0894;
1355.4000;0.0781;-1.0804;
1355.7000;0.0773;-1.0758;
1356.0000;0.0773;-1.0781;
1356.3000;0.0757;-1.0781;
1356.6000;0.0773;-1.0713;
1356.9000;0.0773;-1.0690;
1357.2000;0.0781;-1.0600;
1357.5000;0.0790;-1.0577;
1357.8000;0.0798;-1.0464;
1358.1000;0.0773;-1.0532;
1358.4000;0.0790;-1.0600;
1358.7000;0.0773;-1.0509;
1359.0000;0.0733;-1.0736;
1359.3000;0.0757;-1.0736;
1359.6000;0.0765;-1.0668;
1359.9000;0.0724;-1.0736;
1360.2000;0.0781;-1.0487;
1360.5000;0.0765;-1.0509;
1360.8000;0.0773;-1.0419;
1361.1000;0.0733;-1.0532;
1361.4000;0.0814;-1.0192;
1361.7000;0.0765;-1.0328;
1362.0000;0.0757;-1.0215;
1362.3000;0.0806;-1.0079;
1362.6000;0.0749;-1.0237;
1362.9000;0.0781;-1.0215;
1363.2000;0.0757;-1.0260;
1363.5000;0.0733;-1.0373;
1363.8000;0.0781;-1.0192;
1364.1000;0.0773;-1.0260;
1364.4000;0.0741;-1.0396;
1364.7000;0.0741;-1.0396;
1365.0000;0.0790;-1.0283;
1365.3000;0.0798;-1.0351;
1365.6000;0.0773;-1.0464;
1365.9000;0.0773;-1.0441;
1366.2000;0.0798;-1.0509;
1366.5000;0.0773;-1.0600;
1366.8000;0.0798;-1.0509;
1367.1000;0.0781;-1.0622;
1367.4000;0.0781;-1.0645;
1367.7000;0.0773;-1.0622;
1368.0000;0.0757;-1.0668;
1368.3000;0.0814;-1.0487;
1368.6000;0.0847;-1.0373;
1368.9000;0.0708;-1.0758;
1369.2000;0.0830;-1.0396;
1369.5000;0.0822;-1.0441;
1369.8000;0.0863;-1.0419;
1370.1000;0.0798;-1.0577;
1370.4000;0.0749;-1.0736;
1370.7000;0.0741;-1.0736;
1371.0000;0.0749;-1.0600;
1371.3000;0.0781;-1.0554;
1371.6000;0.0798;-1.0464;
1371.9000;0.0871;-1.0305;
1372.2000;0.0781;-1.0487;
1372.5000;0.0781;-1.0464;
1372.8000;0.0838;-1.0260;
1373.1000;0.0781;-1.0373;
1373.4000;0.0773;-1.0464;
1373.7000;0.0806;-1.0419;
1374.0000;0.0773;-1.0487;
1374.3000;0.0806;-1.0532;
1374.6000;0.0765;-1.0600;
1374.9000;0.0790;-1.0509;
1375.2000;0.0781;-1.0532;
1375.5000;0.0765;-1.0554;
1375.8000;0.0790;-1.0487;
1376.1000;0.0773;-1.0509;
1376.4000;0.0773;-1.0487;
1376.7000;0.0659;-1.0758;
1377.0000;0.0790;-1.0305;
1377.3000;0.0798;-1.0328;
1377.6000;0.0773;-1.0441;
1377.9000;0.0806;-1.0396;
1378.2000;0.0765;-1.0487;
1378.5000;0.0765;-1.0464;
1378.8000;0.0757;-1.0441;
1379.1000;0.0757;-1.0419;
1379.4000;0.0765;-1.0441;
1379.7000;0.0765;-1.0441;
1380.0000;0.0781;-1.0351;
1380.3000;0.0781;-1.0351;
1380.6000;0.0765;-1.0373;
1380.9000;0.0757;-1.0419;
1381.2000;0.0790;-1.0328;
1381.5000;0.0781;-1.0373;
1381.8000;0.0781;-1.0396;
1382.1000;0.0765;-1.0487;
1382.4000;0.0716;-1.0600;
1382.7000;0.0798;-1.0283;
1383.0000;0.0765;-1.0328;
1383.3000;0.0798;-1.0328;
1383.6000;0.0773;-1.0419;
1383.9000;0.0822;-1.0237;
1384.2000;0.0798;-1.0237;
1384.5000;0.0741;-1.0328;
1384.8000;0.0741;-1.0396;
1385.1000;0.0814;-1.0305;
1385.4000;0.0757;-1.0419;
1385.7000;0.0716;-1.0464;
1386.0000;0.0765;-1.0396;
1386.3000;0.0806;-1.0351;
1386.6000;0.0781;-1.0419;
1386.9000;0.0733;-1.0487;
1387.2000;0.0773;-1.0441;
1387.5000;0.0749;-1.0464;
1387.8000;0.0724;-1.0668;
1388.1000;0.0765;-1.0509;
1388.4000;0.0765;-1.0532;
1388.7000;0.0798;-1.0441;
1389.0000;0.0765;-1.0441;
1389.3000;0.0773;-1.0464;
1389.6000;0.0798;-1.0373;
1389.9000;0.0781;-1.0373;
1390.2000;0.0781;-1.0283;
1390.5000;0.0806;-1.0260;
1390.8000;0.0749;-1.0464;
1391.1000;0.0781;-1.0464;
1391.4000;0.0773;-1.0487;
1391.7000;0.0773;-1.0441;
1392.0000;0.0773;-1.0328;
1392.3000;0.0781;-1.0260;
1392.6000;0.0781;-1.0192;
1392.9000;0.0773;-1.0237;
1393.2000;0.0773;-1.0351;
1393.5000;0.0765;-1.0396;
1393.8000;0.0765;-1.0419;
1394.1000;0.0781;-1.0351;
1394.4000;0.0765;-1.0328;
1394.7000;0.0757;-1.0305;
1395.0000;0.0773;-1.0351;
1395.3000;0.0773;-1.0396;
1395.6000;0.0773;-1.0419;
1395.9000;0.0757;-1.0509;
1396.2000;0.0781;-1.0441;
1396.5000;0.0790;-1.0419;
1396.8000;0.0798;-1.0396;
1397.1000;0.0773;-1.0419;
1397.4000;0.0798;-1.0396;
1397.7000;0.0790;-1.0373;
1398.0000;0.0814;-1.0305;
1398.3000;0.0749;-1.0464;
1398.6000;0.0749;-1.0487;
1398.9000;0.0773;-1.0396;
1399.2000;0.0757;-1.0464;
1399.5000;0.0773;-1.0554;
1399.8000;0.0749;-1.0645;
