time/ms;Fluo/V;P700 deltaI/I x10³;
-199.8000;0.5731;0.0023;
-199.5000;0.5739;0.0000;
-199.2000;0.5763;-0.0047;
-198.9000;0.5763;-0.0117;
-198.6000;0.5739;-0.0257;
-198.3000;0.5739;-0.0257;
-198.0000;0.5763;-0.0140;
-197.7000;0.5755;-0.0117;
-197.4000;0.5755;-0.0093;
-197.1000;0.5763;-0.0117;
-196.8000;0.5788;-0.0117;
-196.5000;0.5779;-0.0093;
-196.2000;0.5763;-0.0093;
-195.9000;0.5771;-0.0070;
-195.6000;0.5771;-0.0047;
-195.3000;0.5722;-0.0140;
-195.0000;0.5755;-0.0070;
-194.7000;0.5771;0.0023;
-194.4000;0.5763;0.0047;
-194.1000;0.5779;0.0070;
-193.8000;0.5771;0.0093;
-193.5000;0.5755;0.0070;
-193.2000;0.5763;0.0093;
-192.9000;0.5779;0.0140;
-192.6000;0.5755;0.0093;
-192.3000;0.5763;0.0070;
-192.0000;0.5771;0.0070;
-191.7000;0.5779;0.0093;
-191.4000;0.5779;0.0093;
-191.1000;0.5771;0.0070;
-190.8000;0.5771;0.0140;
-190.5000;0.5763;0.0093;
-190.2000;0.5788;0.0093;
-189.9000;0.5779;0.0023;
-189.6000;0.5804;0.0023;
-189.3000;0.5796;0.0000;
-189.0000;0.5788;0.0000;
-188.7000;0.5788;0.0023;
-188.4000;0.5796;0.0000;
-188.1000;0.5796;-0.0023;
-187.8000;0.5804;-0.0023;
-187.5000;0.5779;-0.0070;
-187.2000;0.5804;-0.0023;
-186.9000;0.5804;-0.0023;
-186.6000;0.5804;-0.0093;
-186.3000;0.5812;-0.0070;
-186.0000;0.5804;-0.0070;
-185.7000;0.5788;0.0000;
-185.4000;0.5779;-0.0047;
-185.1000;0.5828;0.0000;
-184.8000;0.5796;-0.0047;
-184.5000;0.5820;0.0000;
-184.2000;0.5804;0.0023;
-183.9000;0.5820;0.0047;
-183.6000;0.5755;-0.0047;
-183.3000;0.5804;0.0070;
-183.0000;0.5812;0.0000;
-182.7000;0.5812;-0.0047;
-182.4000;0.5812;-0.0047;
-182.1000;0.5820;-0.0093;
-181.8000;0.5796;-0.0093;
-181.5000;0.5861;0.0093;
-181.2000;0.5812;-0.0023;
-180.9000;0.5804;-0.0070;
-180.6000;0.5812;-0.0117;
-180.3000;0.5812;-0.0117;
-180.0000;0.5836;-0.0047;
-179.7000;0.5820;0.0000;
-179.4000;0.5836;0.0023;
-179.1000;0.5788;-0.0117;
-178.8000;0.5828;-0.0093;
-178.5000;0.5820;-0.0163;
-178.2000;0.5828;-0.0117;
-177.9000;0.5812;-0.0093;
-177.6000;0.5836;-0.0047;
-177.3000;0.5812;-0.0117;
-177.0000;0.5845;0.0000;
-176.7000;0.5836;-0.0047;
-176.4000;0.5836;-0.0047;
-176.1000;0.5828;-0.0023;
-175.8000;0.5861;0.0000;
-175.5000;0.5836;0.0000;
-175.2000;0.5845;0.0047;
-174.9000;0.5845;0.0140;
-174.6000;0.5828;0.0023;
-174.3000;0.5836;-0.0070;
-174.0000;0.5804;-0.0163;
-173.7000;0.5845;0.0047;
-173.4000;0.5861;0.0070;
-173.1000;0.5853;0.0117;
-172.8000;0.5845;0.0140;
-172.5000;0.5869;0.0187;
-172.2000;0.5853;0.0140;
-171.9000;0.5836;0.0140;
-171.6000;0.5812;0.0047;
-171.3000;0.5845;0.0070;
-171.0000;0.5861;0.0093;
-170.7000;0.5836;-0.0047;
-170.4000;0.5877;0.0047;
-170.1000;0.5853;-0.0070;
-169.8000;0.5836;-0.0070;
-169.5000;0.5869;-0.0023;
-169.2000;0.5869;-0.0093;
-168.9000;0.5828;-0.0187;
-168.6000;0.5869;-0.0093;
-168.3000;0.5877;-0.0093;
-168.0000;0.5877;-0.0163;
-167.7000;0.5893;-0.0163;
-167.4000;0.5885;-0.0210;
-167.1000;0.5869;-0.0140;
-166.8000;0.5869;-0.0163;
-166.5000;0.5877;-0.0163;
-166.2000;0.5861;-0.0187;
-165.9000;0.5893;-0.0187;
-165.6000;0.5877;-0.0140;
-165.3000;0.5877;-0.0140;
-165.0000;0.5885;-0.0117;
-164.7000;0.5869;-0.0140;
-164.4000;0.5869;-0.0163;
-164.1000;0.5885;-0.0163;
-163.8000;0.5893;-0.0210;
-163.5000;0.5893;-0.0233;
-163.2000;0.5893;-0.0210;
-162.9000;0.5869;-0.0257;
-162.6000;0.5869;-0.0280;
-162.3000;0.5910;-0.0373;
-162.0000;0.5893;-0.0350;
-161.7000;0.5910;-0.0280;
-161.4000;0.5950;-0.0233;
-161.1000;0.5926;-0.0280;
-160.8000;0.5910;-0.0163;
-160.5000;0.5934;-0.0117;
-160.2000;0.5934;-0.0233;
-159.9000;0.5918;-0.0327;
-159.6000;0.5869;-0.0490;
-159.3000;0.5918;-0.0443;
-159.0000;0.5910;-0.0373;
-158.7000;0.5918;-0.0350;
-158.4000;0.5918;-0.0420;
-158.1000;0.5918;-0.0537;
-157.8000;0.5926;-0.0537;
-157.5000;0.5902;-0.0537;
-157.2000;0.5926;-0.0490;
-156.9000;0.5918;-0.0467;
-156.6000;0.5926;-0.0490;
-156.3000;0.5975;-0.0303;
-156.0000;0.5942;-0.0397;
-155.7000;0.5926;-0.0420;
-155.4000;0.5942;-0.0420;
-155.1000;0.5942;-0.0443;
-154.8000;0.5926;-0.0397;
-154.5000;0.5942;-0.0443;
-154.2000;0.5950;-0.0397;
-153.9000;0.5958;-0.0420;
-153.6000;0.5967;-0.0420;
-153.3000;0.5942;-0.0490;
-153.0000;0.5983;-0.0490;
-152.7000;0.5942;-0.0630;
-152.4000;0.5950;-0.0677;
-152.1000;0.5958;-0.0560;
-151.8000;0.5958;-0.0537;
-151.5000;0.5918;-0.0560;
-151.2000;0.5942;-0.0467;
-150.9000;0.5958;-0.0467;
-150.6000;0.5967;-0.0443;
-150.3000;0.5967;-0.0467;
-150.0000;0.5967;-0.0537;
-149.7000;0.5975;-0.0420;
-149.4000;0.5958;-0.0467;
-149.1000;0.5967;-0.0467;
-148.8000;0.5975;-0.0397;
-148.5000;0.5975;-0.0490;
-148.2000;0.6007;-0.0303;
-147.9000;0.6015;-0.0303;
-147.6000;0.5991;-0.0350;
-147.3000;0.5991;-0.0303;
-147.0000;0.5991;-0.0350;
-146.7000;0.6015;-0.0350;
-146.4000;0.5999;-0.0467;
-146.1000;0.5999;-0.0467;
-145.8000;0.5999;-0.0537;
-145.5000;0.6015;-0.0513;
-145.2000;0.5983;-0.0630;
-144.9000;0.5991;-0.0607;
-144.6000;0.5991;-0.0560;
-144.3000;0.5999;-0.0420;
-144.0000;0.6007;-0.0350;
-143.7000;0.5999;-0.0303;
-143.4000;0.6007;-0.0303;
-143.1000;0.6007;-0.0350;
-142.8000;0.5950;-0.0397;
-142.5000;0.6007;-0.0327;
-142.2000;0.6024;-0.0373;
-141.9000;0.6024;-0.0373;
-141.6000;0.6024;-0.0373;
-141.3000;0.6032;-0.0327;
-141.0000;0.6024;-0.0373;
-140.7000;0.6015;-0.0303;
-140.4000;0.6024;-0.0233;
-140.1000;0.6048;-0.0210;
-139.8000;0.6032;-0.0303;
-139.5000;0.6032;-0.0373;
-139.2000;0.6040;-0.0373;
-138.9000;0.6048;-0.0373;
-138.6000;0.6072;-0.0280;
-138.3000;0.6040;-0.0327;
-138.0000;0.6056;-0.0233;
-137.7000;0.6072;-0.0187;
-137.4000;0.6064;-0.0163;
-137.1000;0.6015;-0.0303;
-136.8000;0.6064;-0.0187;
-136.5000;0.6064;-0.0257;
-136.2000;0.6081;-0.0327;
-135.9000;0.6072;-0.0327;
-135.6000;0.6081;-0.0327;
-135.3000;0.6064;-0.0443;
-135.0000;0.6089;-0.0420;
-134.7000;0.6089;-0.0397;
-134.4000;0.6113;-0.0303;
-134.1000;0.6097;-0.0280;
-133.8000;0.6089;-0.0303;
-133.5000;0.6089;-0.0280;
-133.2000;0.6097;-0.0303;
-132.9000;0.6097;-0.0327;
-132.6000;0.6089;-0.0350;
-132.3000;0.6113;-0.0327;
-132.0000;0.6113;-0.0350;
-131.7000;0.6129;-0.0350;
-131.4000;0.6138;-0.0303;
-131.1000;0.6121;-0.0350;
-130.8000;0.6113;-0.0443;
-130.5000;0.6105;-0.0513;
-130.2000;0.6121;-0.0420;
-129.9000;0.6146;-0.0373;
-129.6000;0.6129;-0.0420;
-129.3000;0.6138;-0.0490;
-129.0000;0.6146;-0.0467;
-128.7000;0.6121;-0.0467;
-128.4000;0.6146;-0.0373;
-128.1000;0.6105;-0.0420;
-127.8000;0.6154;-0.0443;
-127.5000;0.6146;-0.0513;
-127.2000;0.6178;-0.0513;
-126.9000;0.6105;-0.0724;
-126.6000;0.6162;-0.0630;
-126.3000;0.6154;-0.0560;
-126.0000;0.6178;-0.0490;
-125.7000;0.6170;-0.0584;
-125.4000;0.6154;-0.0677;
-125.1000;0.6162;-0.0700;
-124.8000;0.6170;-0.0654;
-124.5000;0.6138;-0.0654;
-124.2000;0.6154;-0.0584;
-123.9000;0.6178;-0.0490;
-123.6000;0.6195;-0.0560;
-123.3000;0.6235;-0.0490;
-123.0000;0.6203;-0.0513;
-122.7000;0.6227;-0.0467;
-122.4000;0.6203;-0.0513;
-122.1000;0.6186;-0.0560;
-121.8000;0.6195;-0.0490;
-121.5000;0.6195;-0.0443;
-121.2000;0.6284;-0.0257;
-120.9000;0.6252;-0.0280;
-120.6000;0.6235;-0.0327;
-120.3000;0.6227;-0.0397;
-120.0000;0.6219;-0.0397;
-119.7000;0.6227;-0.0443;
-119.4000;0.6260;-0.0420;
-119.1000;0.6227;-0.0490;
-118.8000;0.6243;-0.0443;
-118.5000;0.6243;-0.0420;
-118.2000;0.6203;-0.0584;
-117.9000;0.6227;-0.0560;
-117.6000;0.6252;-0.0420;
-117.3000;0.6252;-0.0397;
-117.0000;0.6268;-0.0397;
-116.7000;0.6268;-0.0373;
-116.4000;0.6325;-0.0327;
-116.1000;0.6276;-0.0420;
-115.8000;0.6284;-0.0373;
-115.5000;0.6300;-0.0303;
-115.2000;0.6260;-0.0373;
-114.9000;0.6317;-0.0280;
-114.6000;0.6276;-0.0350;
-114.3000;0.6300;-0.0303;
-114.0000;0.6284;-0.0373;
-113.7000;0.6268;-0.0350;
-113.4000;0.6292;-0.0327;
-113.1000;0.6325;-0.0397;
-112.8000;0.6309;-0.0397;
-112.5000;0.6317;-0.0373;
-112.2000;0.6317;-0.0467;
-111.9000;0.6398;-0.0257;
-111.6000;0.6325;-0.0490;
-111.3000;0.6365;-0.0373;
-111.0000;0.6317;-0.0443;
-110.7000;0.6349;-0.0397;
-110.4000;0.6349;-0.0467;
-110.1000;0.6349;-0.0490;
-109.8000;0.6365;-0.0537;
-109.5000;0.6357;-0.0607;
-109.2000;0.6349;-0.0513;
-108.9000;0.6365;-0.0490;
-108.6000;0.6382;-0.0490;
-108.3000;0.6365;-0.0537;
-108.0000;0.6357;-0.0490;
-107.7000;0.6382;-0.0303;
-107.4000;0.6382;-0.0350;
-107.1000;0.6447;-0.0233;
-106.8000;0.6406;-0.0327;
-106.5000;0.6414;-0.0303;
-106.2000;0.6406;-0.0350;
-105.9000;0.6398;-0.0373;
-105.6000;0.6422;-0.0373;
-105.3000;0.6382;-0.0513;
-105.0000;0.6414;-0.0397;
-104.7000;0.6414;-0.0420;
-104.4000;0.6431;-0.0397;
-104.1000;0.6431;-0.0327;
-103.8000;0.6431;-0.0373;
-103.5000;0.6471;-0.0350;
-103.2000;0.6439;-0.0467;
-102.9000;0.6439;-0.0560;
-102.6000;0.6447;-0.0490;
-102.3000;0.6463;-0.0467;
-102.0000;0.6455;-0.0560;
-101.7000;0.6455;-0.0513;
-101.4000;0.6463;-0.0467;
-101.1000;0.6471;-0.0467;
-100.8000;0.6471;-0.0373;
-100.5000;0.6488;-0.0373;
-100.2000;0.6471;-0.0490;
-99.9000;0.6496;-0.0467;
-99.6000;0.6488;-0.0443;
-99.3000;0.6463;-0.0443;
-99.0000;0.6496;-0.0397;
-98.7000;0.6553;-0.0350;
-98.4000;0.6504;-0.0373;
-98.1000;0.6496;-0.0327;
-97.8000;0.6496;-0.0513;
-97.5000;0.6496;-0.0654;
-97.2000;0.6561;-0.0467;
-96.9000;0.6504;-0.0537;
-96.6000;0.6536;-0.0397;
-96.3000;0.6561;-0.0350;
-96.0000;0.6528;-0.0584;
-95.7000;0.6536;-0.0630;
-95.4000;0.6561;-0.0537;
-95.1000;0.6536;-0.0584;
-94.8000;0.6553;-0.0490;
-94.5000;0.6545;-0.0490;
-94.2000;0.6536;-0.0513;
-93.9000;0.6610;-0.0373;
-93.6000;0.6585;-0.0420;
-93.3000;0.6569;-0.0373;
-93.0000;0.6585;-0.0513;
-92.7000;0.6602;-0.0584;
-92.4000;0.6683;-0.0443;
-92.1000;0.6593;-0.0724;
-91.8000;0.6610;-0.0724;
-91.5000;0.6675;-0.0537;
-91.2000;0.6650;-0.0537;
-90.9000;0.6626;-0.0537;
-90.6000;0.6626;-0.0420;
-90.3000;0.6634;-0.0490;
-90.0000;0.6618;-0.0584;
-89.7000;0.6642;-0.0537;
-89.4000;0.6642;-0.0513;
-89.1000;0.6642;-0.0560;
-88.8000;0.6675;-0.0443;
-88.5000;0.6618;-0.0560;
-88.2000;0.6659;-0.0467;
-87.9000;0.6675;-0.0467;
-87.6000;0.6691;-0.0513;
-87.3000;0.6675;-0.0607;
-87.0000;0.6675;-0.0560;
-86.7000;0.6691;-0.0630;
-86.4000;0.6675;-0.0677;
-86.1000;0.6683;-0.0677;
-85.8000;0.6691;-0.0654;
-85.5000;0.6716;-0.0537;
-85.2000;0.6716;-0.0584;
-84.9000;0.6724;-0.0513;
-84.6000;0.6732;-0.0490;
-84.3000;0.6716;-0.0560;
-84.0000;0.6732;-0.0560;
-83.7000;0.6732;-0.0584;
-83.4000;0.6748;-0.0607;
-83.1000;0.6732;-0.0654;
-82.8000;0.6732;-0.0700;
-82.5000;0.6764;-0.0700;
-82.2000;0.6772;-0.0630;
-81.9000;0.6789;-0.0607;
-81.6000;0.6764;-0.0560;
-81.3000;0.6764;-0.0560;
-81.0000;0.6789;-0.0607;
-80.7000;0.6805;-0.0607;
-80.4000;0.6797;-0.0607;
-80.1000;0.6813;-0.0677;
-79.8000;0.6805;-0.0747;
-79.5000;0.6781;-0.0840;
-79.2000;0.6797;-0.0747;
-78.9000;0.6813;-0.0724;
-78.6000;0.6846;-0.0677;
-78.3000;0.6789;-0.0747;
-78.0000;0.6829;-0.0677;
-77.7000;0.6846;-0.0677;
-77.4000;0.6870;-0.0677;
-77.1000;0.6862;-0.0607;
-76.8000;0.6862;-0.0654;
-76.5000;0.6862;-0.0677;
-76.2000;0.6846;-0.0654;
-75.9000;0.6878;-0.0560;
-75.6000;0.6886;-0.0677;
-75.3000;0.6862;-0.0677;
-75.0000;0.6862;-0.0724;
-74.7000;0.6886;-0.0537;
-74.4000;0.6895;-0.0420;
-74.1000;0.6911;-0.0420;
-73.8000;0.6886;-0.0420;
-73.5000;0.6935;-0.0420;
-73.2000;0.6878;-0.0630;
-72.9000;0.6968;-0.0490;
-72.6000;0.6919;-0.0747;
-72.3000;0.6943;-0.0677;
-72.0000;0.6952;-0.0677;
-71.7000;0.6968;-0.0700;
-71.4000;0.6927;-0.0747;
-71.1000;0.6952;-0.0700;
-70.8000;0.6952;-0.0747;
-70.5000;0.6960;-0.0747;
-70.2000;0.6968;-0.0677;
-69.9000;0.6976;-0.0700;
-69.6000;0.6968;-0.0747;
-69.3000;0.6992;-0.0677;
-69.0000;0.6984;-0.0817;
-68.7000;0.7000;-0.0770;
-68.4000;0.7000;-0.0747;
-68.1000;0.7017;-0.0724;
-67.8000;0.7017;-0.0677;
-67.5000;0.7017;-0.0654;
-67.2000;0.7000;-0.0724;
-66.9000;0.7033;-0.0607;
-66.6000;0.7025;-0.0607;
-66.3000;0.7049;-0.0560;
-66.0000;0.7025;-0.0560;
-65.7000;0.7066;-0.0467;
-65.4000;0.7025;-0.0537;
-65.1000;0.6976;-0.0724;
-64.8000;0.7066;-0.0537;
-64.5000;0.7131;-0.0350;
-64.2000;0.7090;-0.0443;
-63.9000;0.7082;-0.0490;
-63.6000;0.7098;-0.0490;
-63.3000;0.7114;-0.0443;
-63.0000;0.7123;-0.0513;
-62.7000;0.7123;-0.0513;
-62.4000;0.7131;-0.0607;
-62.1000;0.7131;-0.0654;
-61.8000;0.7147;-0.0607;
-61.5000;0.7147;-0.0560;
-61.2000;0.7131;-0.0584;
-60.9000;0.7139;-0.0607;
-60.6000;0.7139;-0.0584;
-60.3000;0.7131;-0.0584;
-60.0000;0.7155;-0.0560;
-59.7000;0.7147;-0.0700;
-59.4000;0.7188;-0.0700;
-59.1000;0.7196;-0.0724;
-58.8000;0.7179;-0.0794;
-58.5000;0.7196;-0.0747;
-58.2000;0.7179;-0.0794;
-57.9000;0.7204;-0.0724;
-57.6000;0.7204;-0.0794;
-57.3000;0.7228;-0.0724;
-57.0000;0.7245;-0.0630;
-56.7000;0.7236;-0.0630;
-56.4000;0.7236;-0.0747;
-56.1000;0.7236;-0.0700;
-55.8000;0.7253;-0.0700;
-55.5000;0.7253;-0.0607;
-55.2000;0.7245;-0.0630;
-54.9000;0.7253;-0.0747;
-54.6000;0.7277;-0.0677;
-54.3000;0.7293;-0.0630;
-54.0000;0.7277;-0.0607;
-53.7000;0.7285;-0.0607;
-53.4000;0.7302;-0.0537;
-53.1000;0.7310;-0.0537;
-52.8000;0.7310;-0.0560;
-52.5000;0.7350;-0.0490;
-52.2000;0.7326;-0.0630;
-51.9000;0.7342;-0.0654;
-51.6000;0.7375;-0.0607;
-51.3000;0.7342;-0.0770;
-51.0000;0.7334;-0.0747;
-50.7000;0.7359;-0.0747;
-50.4000;0.7350;-0.0794;
-50.1000;0.7359;-0.0770;
-49.8000;0.7359;-0.0700;
-49.5000;0.7391;-0.0700;
-49.2000;0.7367;-0.0817;
-48.9000;0.7416;-0.0864;
-48.6000;0.7383;-0.0864;
-48.3000;0.7416;-0.0794;
-48.0000;0.7416;-0.0677;
-47.7000;0.7424;-0.0724;
-47.4000;0.7334;-0.0887;
-47.1000;0.7432;-0.0770;
-46.8000;0.7440;-0.0724;
-46.5000;0.7440;-0.0700;
-46.2000;0.7391;-0.0840;
-45.9000;0.7448;-0.0700;
-45.6000;0.7456;-0.0700;
-45.3000;0.7456;-0.0747;
-45.0000;0.7489;-0.0747;
-44.7000;0.7481;-0.0724;
-44.4000;0.7473;-0.0770;
-44.1000;0.7481;-0.0794;
-43.8000;0.7489;-0.0817;
-43.5000;0.7497;-0.0864;
-43.2000;0.7513;-0.0840;
-42.9000;0.7497;-0.0794;
-42.6000;0.7513;-0.0840;
-42.3000;0.7513;-0.0747;
-42.0000;0.7530;-0.0700;
-41.7000;0.7521;-0.0817;
-41.4000;0.7521;-0.0817;
-41.1000;0.7530;-0.0794;
-40.8000;0.7546;-0.0724;
-40.5000;0.7570;-0.0724;
-40.2000;0.7546;-0.0724;
-39.9000;0.7562;-0.0654;
-39.6000;0.7562;-0.0630;
-39.3000;0.7570;-0.0654;
-39.0000;0.7578;-0.0677;
-38.7000;0.7586;-0.0817;
-38.4000;0.7603;-0.0817;
-38.1000;0.7595;-0.0934;
-37.8000;0.7611;-0.0934;
-37.5000;0.7619;-0.0910;
-37.2000;0.7611;-0.0864;
-36.9000;0.7603;-0.0887;
-36.6000;0.7619;-0.0887;
-36.3000;0.7643;-0.0817;
-36.0000;0.7643;-0.0910;
-35.7000;0.7668;-0.0840;
-35.4000;0.7676;-0.0794;
-35.1000;0.7660;-0.0864;
-34.8000;0.7676;-0.0864;
-34.5000;0.7692;-0.0864;
-34.2000;0.7692;-0.0910;
-33.9000;0.7684;-0.0957;
-33.6000;0.7660;-0.1050;
-33.3000;0.7676;-0.1004;
-33.0000;0.7700;-0.1050;
-32.7000;0.7700;-0.1144;
-32.4000;0.7717;-0.1097;
-32.1000;0.7733;-0.1097;
-31.8000;0.7741;-0.1144;
-31.5000;0.7749;-0.1027;
-31.2000;0.7749;-0.1004;
-30.9000;0.7766;-0.0957;
-30.6000;0.7766;-0.0957;
-30.3000;0.7757;-0.1050;
-30.0000;0.7757;-0.1097;
-29.7000;0.7798;-0.1004;
-29.4000;0.7790;-0.1027;
-29.1000;0.7774;-0.1074;
-28.8000;0.7798;-0.0957;
-28.5000;0.7798;-0.0957;
-28.2000;0.7798;-0.0910;
-27.9000;0.7814;-0.0840;
-27.6000;0.7798;-0.0887;
-27.3000;0.7823;-0.0864;
-27.0000;0.7831;-0.0864;
-26.7000;0.7839;-0.0864;
-26.4000;0.7871;-0.0910;
-26.1000;0.7839;-0.0934;
-25.8000;0.7863;-0.0910;
-25.5000;0.7863;-0.0910;
-25.2000;0.7855;-0.0910;
-24.9000;0.7888;-0.0864;
-24.6000;0.7888;-0.0864;
-24.3000;0.7888;-0.0840;
-24.0000;0.7871;-0.0910;
-23.7000;0.7863;-0.0957;
-23.4000;0.7880;-0.0887;
-23.1000;0.7912;-0.0864;
-22.8000;0.7904;-0.0957;
-22.5000;0.7985;-0.0864;
-22.2000;0.7912;-0.1004;
-21.9000;0.7937;-0.1027;
-21.6000;0.7953;-0.1027;
-21.3000;0.7937;-0.1004;
-21.0000;0.7937;-0.0957;
-20.7000;0.7945;-0.1004;
-20.4000;0.7961;-0.0957;
-20.1000;0.7977;-0.0910;
-19.8000;0.7961;-0.0864;
-19.5000;0.7993;-0.0840;
-19.2000;0.7993;-0.0864;
-18.9000;0.7985;-0.0864;
-18.6000;0.8002;-0.0934;
-18.3000;0.7993;-0.0887;
-18.0000;0.7993;-0.0910;
-17.7000;0.8018;-0.0910;
-17.4000;0.8010;-0.0840;
-17.1000;0.8034;-0.0840;
-16.8000;0.8018;-0.0817;
-16.5000;0.8059;-0.0724;
-16.2000;0.8091;-0.0560;
-15.9000;0.8034;-0.0747;
-15.6000;0.8042;-0.0794;
-15.3000;0.8067;-0.0794;
-15.0000;0.8059;-0.0724;
-14.7000;0.8067;-0.0747;
-14.4000;0.8075;-0.0817;
-14.1000;0.8075;-0.0817;
-13.8000;0.8099;-0.0910;
-13.5000;0.8083;-0.0864;
-13.2000;0.8091;-0.0817;
-12.9000;0.8099;-0.0794;
-12.6000;0.8099;-0.0864;
-12.3000;0.8107;-0.0887;
-12.0000;0.8083;-0.0840;
-11.7000;0.8107;-0.0864;
-11.4000;0.8132;-0.0817;
-11.1000;0.8132;-0.0864;
-10.8000;0.8156;-0.0887;
-10.5000;0.8140;-0.0957;
-10.2000;0.8164;-0.0864;
-9.9000;0.8156;-0.0887;
-9.6000;0.8164;-0.0864;
-9.3000;0.8156;-0.0957;
-9.0000;0.8189;-0.0957;
-8.7000;0.8189;-0.0864;
-8.4000;0.8181;-0.0887;
-8.1000;0.8181;-0.0864;
-7.8000;0.8303;-0.0537;
-7.5000;0.8181;-0.0840;
-7.2000;0.8205;-0.0794;
-6.9000;0.8205;-0.0887;
-6.6000;0.8221;-0.0864;
-6.3000;0.8246;-0.0794;
-6.0000;0.8213;-0.0794;
-5.7000;0.8213;-0.0817;
-5.4000;0.8230;-0.0840;
-5.1000;0.8262;-0.0887;
-4.8000;0.8246;-0.0934;
-4.5000;0.8319;-0.0864;
-4.2000;0.8230;-0.1004;
-3.9000;0.8270;-0.1027;
-3.6000;0.8295;-0.1004;
-3.3000;0.8287;-0.0957;
-3.0000;0.8278;-0.0980;
-2.7000;0.8295;-0.0910;
-2.4000;0.8327;-0.0794;
-2.1000;0.8303;-0.0794;
-1.8000;0.8295;-0.0817;
-1.5000;0.8303;-0.0724;
-1.2000;0.8319;-0.0724;
-0.9000;0.8360;-0.0654;
-0.6000;0.8335;-0.0840;
-0.3000;0.8327;-0.0910;
0.0000;0.8327;-0.0910;
0.3000;0.8742;-0.0794;
0.6000;0.9516;-0.0070;
0.9000;1.0110;0.0490;
1.2000;1.0663;0.1167;
1.5000;1.1062;0.1657;
1.8000;1.1404;0.2077;
2.1000;1.1665;0.2287;
2.4000;1.1836;0.2474;
2.7000;1.2047;0.2731;
3.0000;1.2202;0.2964;
3.3000;1.2332;0.3034;
3.6000;1.2422;0.3081;
3.9000;1.2576;0.3244;
4.2000;1.2641;0.3221;
4.5000;1.2707;0.3291;
4.8000;1.2804;0.3431;
5.1000;1.2877;0.3431;
5.4000;1.2943;0.3408;
5.7000;1.3000;0.3431;
6.0000;1.3016;0.3291;
6.3000;1.3114;0.3408;
6.6000;1.3146;0.3361;
6.9000;1.3195;0.3361;
7.2000;1.3244;0.3338;
7.5000;1.3317;0.3408;
7.8000;1.3293;0.3268;
8.1000;1.3407;0.3431;
8.4000;1.3423;0.3454;
8.7000;1.3464;0.3408;
9.0000;1.3455;0.3431;
9.3000;1.3545;0.3548;
9.6000;1.3578;0.3524;
9.9000;1.3626;0.3478;
10.2000;1.3675;0.3408;
10.5000;1.3708;0.3384;
10.8000;1.3748;0.3361;
11.1000;1.3830;0.3478;
11.4000;1.3814;0.3384;
11.7000;1.3871;0.3408;
12.0000;1.3887;0.3431;
12.3000;1.3887;0.3384;
12.6000;1.3928;0.3501;
12.9000;1.4025;0.3641;
13.2000;1.3936;0.3338;
13.5000;1.4025;0.3384;
13.8000;1.4050;0.3314;
14.1000;1.4139;0.3478;
14.4000;1.4107;0.3408;
14.7000;1.4139;0.3384;
15.0000;1.4164;0.3361;
15.3000;1.4147;0.3291;
15.6000;1.4245;0.3408;
15.9000;1.4245;0.3314;
16.2000;1.4286;0.3338;
16.5000;1.4294;0.3268;
16.8000;1.4326;0.3268;
17.1000;1.4310;0.3221;
17.4000;1.4359;0.3361;
17.7000;1.4392;0.3408;
18.0000;1.4400;0.3384;
18.3000;1.4416;0.3314;
18.6000;1.4424;0.3268;
18.9000;1.4440;0.3244;
19.2000;1.4440;0.3244;
19.5000;1.4530;0.3454;
19.8000;1.4514;0.3361;
20.1000;1.4522;0.3244;
20.4000;1.4554;0.3198;
20.7000;1.4579;0.3221;
21.0000;1.4554;0.3058;
21.3000;1.4571;0.3011;
21.6000;1.4619;0.3081;
21.9000;1.4611;0.3058;
22.2000;1.4619;0.2988;
22.5000;1.4644;0.3011;
22.8000;1.4587;0.2918;
23.1000;1.4676;0.3128;
23.4000;1.4693;0.3151;
23.7000;1.4717;0.3151;
24.0000;1.4709;0.3081;
24.3000;1.4742;0.3104;
24.6000;1.4725;0.3034;
24.9000;1.4758;0.3011;
25.2000;1.4782;0.2964;
25.5000;1.4782;0.3011;
25.8000;1.4790;0.2941;
26.1000;1.4790;0.2848;
26.4000;1.4799;0.2848;
26.7000;1.4815;0.2894;
27.0000;1.4847;0.2918;
27.3000;1.4847;0.2941;
27.6000;1.4847;0.2988;
27.9000;1.4872;0.3034;
28.2000;1.4880;0.3058;
28.5000;1.4864;0.2918;
28.8000;1.4904;0.2941;
29.1000;1.4912;0.2941;
29.4000;1.4912;0.2941;
29.7000;1.4937;0.3011;
30.0000;1.4937;0.2941;
30.3000;1.4945;0.2778;
30.6000;1.4945;0.2801;
30.9000;1.4994;0.2918;
31.2000;1.5035;0.3011;
31.5000;1.4978;0.2824;
31.8000;1.4986;0.2801;
32.1000;1.4969;0.2848;
32.4000;1.4986;0.2801;
32.7000;1.4994;0.2754;
33.0000;1.5067;0.2801;
33.3000;1.5035;0.2778;
33.6000;1.5035;0.2731;
33.9000;1.5035;0.2637;
34.2000;1.5035;0.2614;
34.5000;1.5051;0.2567;
34.8000;1.5051;0.2544;
35.1000;1.5067;0.2544;
35.4000;1.5067;0.2544;
35.7000;1.5083;0.2567;
36.0000;1.5092;0.2661;
36.3000;1.5075;0.2614;
36.6000;1.5100;0.2567;
36.9000;1.5100;0.2474;
37.2000;1.5108;0.2497;
37.5000;1.5100;0.2404;
37.8000;1.5116;0.2497;
38.1000;1.5132;0.2497;
38.4000;1.5165;0.2591;
38.7000;1.5116;0.2427;
39.0000;1.5181;0.2497;
39.3000;1.5165;0.2451;
39.6000;1.5149;0.2381;
39.9000;1.5173;0.2451;
40.2000;1.5132;0.2357;
40.5000;1.5206;0.2474;
40.8000;1.5157;0.2311;
41.1000;1.5165;0.2241;
41.4000;1.5189;0.2311;
41.7000;1.5181;0.2334;
42.0000;1.5246;0.2451;
42.3000;1.5206;0.2311;
42.6000;1.5222;0.2334;
42.9000;1.5271;0.2474;
43.2000;1.5206;0.2311;
43.5000;1.5214;0.2357;
43.8000;1.5238;0.2404;
44.1000;1.5238;0.2381;
44.4000;1.5246;0.2381;
44.7000;1.5303;0.2427;
45.0000;1.5263;0.2357;
45.3000;1.5246;0.2381;
45.6000;1.5287;0.2381;
45.9000;1.5271;0.2311;
46.2000;1.5238;0.2287;
46.5000;1.5287;0.2334;
46.8000;1.5271;0.2287;
47.1000;1.5271;0.2171;
47.4000;1.5271;0.2147;
47.7000;1.5254;0.2077;
48.0000;1.5311;0.2077;
48.3000;1.5279;0.1937;
48.6000;1.5303;0.2031;
48.9000;1.5319;0.2101;
49.2000;1.5336;0.2054;
49.5000;1.5311;0.1937;
49.8000;1.5319;0.1867;
50.1000;1.5336;0.1844;
50.4000;1.5336;0.1867;
50.7000;1.5328;0.1867;
51.0000;1.5311;0.1914;
51.3000;1.5344;0.1984;
51.6000;1.5344;0.1961;
51.9000;1.5336;0.1914;
52.2000;1.5336;0.1914;
52.5000;1.5328;0.1821;
52.8000;1.5352;0.1774;
53.1000;1.5376;0.1891;
53.4000;1.5368;0.1937;
53.7000;1.5368;0.1984;
54.0000;1.5385;0.2054;
54.3000;1.5417;0.2124;
54.6000;1.5376;0.2031;
54.9000;1.5466;0.2171;
55.2000;1.5376;0.2007;
55.5000;1.5417;0.2054;
55.8000;1.5401;0.1937;
56.1000;1.5393;0.1891;
56.4000;1.5401;0.1937;
56.7000;1.5401;0.2007;
57.0000;1.5425;0.2077;
57.3000;1.5385;0.1984;
57.6000;1.5401;0.2077;
57.9000;1.5393;0.2007;
58.2000;1.5401;0.1984;
58.5000;1.5401;0.2031;
58.8000;1.5466;0.2031;
59.1000;1.5393;0.1867;
59.4000;1.5433;0.1844;
59.7000;1.5409;0.1797;
60.0000;1.5360;0.1657;
60.3000;1.5409;0.1727;
60.6000;1.5458;0.1774;
60.9000;1.5442;0.1751;
61.2000;1.5425;0.1727;
61.5000;1.5442;0.1751;
61.8000;1.5450;0.1727;
62.1000;1.5417;0.1634;
62.4000;1.5409;0.1634;
62.7000;1.5433;0.1704;
63.0000;1.5450;0.1657;
63.3000;1.5433;0.1494;
63.6000;1.5482;0.1564;
63.9000;1.5474;0.1540;
64.2000;1.5482;0.1540;
64.5000;1.5490;0.1470;
64.8000;1.5490;0.1424;
65.1000;1.5482;0.1424;
65.4000;1.5474;0.1424;
65.7000;1.5499;0.1447;
66.0000;1.5474;0.1447;
66.3000;1.5499;0.1447;
66.6000;1.5507;0.1494;
66.9000;1.5499;0.1517;
67.2000;1.5490;0.1540;
67.5000;1.5547;0.1634;
67.8000;1.5556;0.1634;
68.1000;1.5490;0.1587;
68.4000;1.5499;0.1540;
68.7000;1.5515;0.1424;
69.0000;1.5515;0.1447;
69.3000;1.5499;0.1470;
69.6000;1.5515;0.1424;
69.9000;1.5515;0.1400;
70.2000;1.5458;0.1214;
70.5000;1.5531;0.1377;
70.8000;1.5556;0.1470;
71.1000;1.5523;0.1447;
71.4000;1.5539;0.1517;
71.7000;1.5531;0.1540;
72.0000;1.5531;0.1540;
72.3000;1.5515;0.1424;
72.6000;1.5531;0.1470;
72.9000;1.5531;0.1377;
73.2000;1.5531;0.1470;
73.5000;1.5547;0.1470;
73.8000;1.5539;0.1424;
74.1000;1.5531;0.1354;
74.4000;1.5539;0.1377;
74.7000;1.5564;0.1470;
75.0000;1.5474;0.1237;
75.3000;1.5547;0.1377;
75.6000;1.5556;0.1354;
75.9000;1.5564;0.1400;
76.2000;1.5580;0.1400;
76.5000;1.5580;0.1447;
76.8000;1.5580;0.1494;
77.1000;1.5588;0.1494;
77.4000;1.5572;0.1470;
77.7000;1.5564;0.1470;
78.0000;1.5564;0.1377;
78.3000;1.5580;0.1400;
78.6000;1.5580;0.1330;
78.9000;1.5580;0.1284;
79.2000;1.5588;0.1330;
79.5000;1.5604;0.1330;
79.8000;1.5588;0.1307;
80.1000;1.5580;0.1307;
80.4000;1.5580;0.1330;
80.7000;1.5580;0.1330;
81.0000;1.5564;0.1284;
81.3000;1.5596;0.1284;
81.6000;1.5604;0.1307;
81.9000;1.5604;0.1260;
82.2000;1.5588;0.1260;
82.5000;1.5613;0.1330;
82.8000;1.5588;0.1237;
83.1000;1.5588;0.1190;
83.4000;1.5596;0.1330;
83.7000;1.5556;0.1214;
84.0000;1.5661;0.1447;
84.3000;1.5596;0.1284;
84.6000;1.5621;0.1260;
84.9000;1.5613;0.1214;
85.2000;1.5629;0.1260;
85.5000;1.5645;0.1307;
85.8000;1.5629;0.1284;
86.1000;1.5604;0.1167;
86.4000;1.5661;0.1284;
86.7000;1.5604;0.1167;
87.0000;1.5661;0.1237;
87.3000;1.5604;0.1167;
87.6000;1.5621;0.1260;
87.9000;1.5637;0.1237;
88.2000;1.5580;0.1144;
88.5000;1.5645;0.1190;
88.8000;1.5637;0.1167;
89.1000;1.5637;0.1144;
89.4000;1.5629;0.1074;
89.7000;1.5686;0.1144;
90.0000;1.5645;0.0980;
90.3000;1.5710;0.1050;
90.6000;1.5661;0.0934;
90.9000;1.5645;0.0887;
91.2000;1.5678;0.1004;
91.5000;1.5735;0.1190;
91.8000;1.5604;0.0817;
92.1000;1.5694;0.1050;
92.4000;1.5678;0.1074;
92.7000;1.5653;0.1097;
93.0000;1.5670;0.1074;
93.3000;1.5596;0.0864;
93.6000;1.5661;0.1074;
93.9000;1.5653;0.0980;
94.2000;1.5661;0.0980;
94.5000;1.5653;0.0980;
94.8000;1.5735;0.1214;
95.1000;1.5661;0.1074;
95.4000;1.5686;0.1097;
95.7000;1.5702;0.1074;
96.0000;1.5686;0.1074;
96.3000;1.5686;0.0980;
96.6000;1.5702;0.1074;
96.9000;1.5694;0.1027;
97.2000;1.5702;0.0957;
97.5000;1.5678;0.0957;
97.8000;1.5686;0.0934;
98.1000;1.5694;0.1050;
98.4000;1.5710;0.1190;
98.7000;1.5661;0.1120;
99.0000;1.5686;0.1144;
99.3000;1.5702;0.1097;
99.6000;1.5694;0.1050;
99.9000;1.5718;0.1027;
100.2000;1.5718;0.0910;
100.5000;1.5726;0.0957;
100.8000;1.5710;0.1004;
101.1000;1.5718;0.0957;
101.4000;1.5710;0.0864;
101.7000;1.5718;0.0934;
102.0000;1.5710;0.0887;
102.3000;1.5702;0.0887;
102.6000;1.5710;0.0887;
102.9000;1.5661;0.0840;
103.2000;1.5694;0.0957;
103.5000;1.5710;0.0980;
103.8000;1.5710;0.0980;
104.1000;1.5702;0.0980;
104.4000;1.5726;0.0980;
104.7000;1.5710;0.0934;
105.0000;1.5710;0.0840;
105.3000;1.5710;0.0864;
105.6000;1.5718;0.0864;
105.9000;1.5710;0.0817;
106.2000;1.5702;0.0840;
106.5000;1.5694;0.0840;
106.8000;1.5710;0.0864;
107.1000;1.5726;0.0887;
107.4000;1.5710;0.0910;
107.7000;1.5718;0.0864;
108.0000;1.5710;0.0840;
108.3000;1.5743;0.0957;
108.6000;1.5726;0.1004;
108.9000;1.5726;0.1074;
109.2000;1.5710;0.1074;
109.5000;1.5702;0.1097;
109.8000;1.5726;0.1120;
110.1000;1.5735;0.1144;
110.4000;1.5751;0.1027;
110.7000;1.5718;0.1027;
111.0000;1.5718;0.1027;
111.3000;1.5702;0.0957;
111.6000;1.5726;0.0980;
111.9000;1.5759;0.0980;
112.2000;1.5735;0.0864;
112.5000;1.5735;0.0747;
112.8000;1.5735;0.0817;
113.1000;1.5743;0.0840;
113.4000;1.5751;0.0910;
113.7000;1.5743;0.0817;
114.0000;1.5743;0.0794;
114.3000;1.5735;0.0700;
114.6000;1.5767;0.0724;
114.9000;1.5751;0.0724;
115.2000;1.5767;0.0747;
115.5000;1.5743;0.0724;
115.8000;1.5735;0.0794;
116.1000;1.5767;0.0934;
116.4000;1.5759;0.0980;
116.7000;1.5678;0.0770;
117.0000;1.5759;0.1004;
117.3000;1.5726;0.1004;
117.6000;1.5759;0.1004;
117.9000;1.5775;0.0934;
118.2000;1.5767;0.0887;
118.5000;1.5767;0.0864;
118.8000;1.5759;0.0770;
119.1000;1.5743;0.0747;
119.4000;1.5751;0.0770;
119.7000;1.5743;0.0770;
120.0000;1.5759;0.0864;
120.3000;1.5759;0.0887;
120.6000;1.5759;0.0957;
120.9000;1.5759;0.0957;
121.2000;1.5783;0.1004;
121.5000;1.5759;0.0910;
121.8000;1.5775;0.0864;
122.1000;1.5783;0.0840;
122.4000;1.5775;0.0864;
122.7000;1.5767;0.0887;
123.0000;1.5767;0.0887;
123.3000;1.5767;0.0840;
123.6000;1.5783;0.0910;
123.9000;1.5792;0.0910;
124.2000;1.5783;0.0864;
124.5000;1.5759;0.0794;
124.8000;1.5759;0.0817;
125.1000;1.5775;0.0770;
125.4000;1.5775;0.0794;
125.7000;1.5775;0.0840;
126.0000;1.5783;0.0817;
126.3000;1.5792;0.0840;
126.6000;1.5775;0.0817;
126.9000;1.5775;0.0747;
127.2000;1.5751;0.0677;
127.5000;1.5783;0.0747;
127.8000;1.5783;0.0747;
128.1000;1.5767;0.0677;
128.4000;1.5792;0.0677;
128.7000;1.5792;0.0677;
129.0000;1.5775;0.0630;
129.3000;1.5792;0.0724;
129.6000;1.5857;0.0840;
129.9000;1.5808;0.0724;
130.2000;1.5783;0.0700;
130.5000;1.5783;0.0607;
130.8000;1.5800;0.0630;
131.1000;1.5808;0.0630;
131.4000;1.5800;0.0677;
131.7000;1.5792;0.0747;
132.0000;1.5792;0.0770;
132.3000;1.5792;0.0724;
132.6000;1.5816;0.0747;
132.9000;1.5792;0.0700;
133.2000;1.5767;0.0654;
133.5000;1.5792;0.0654;
133.8000;1.5792;0.0654;
134.1000;1.5800;0.0700;
134.4000;1.5808;0.0747;
134.7000;1.5840;0.0770;
135.0000;1.5808;0.0770;
135.3000;1.5824;0.0817;
135.6000;1.5840;0.0864;
135.9000;1.5824;0.0817;
136.2000;1.5808;0.0840;
136.5000;1.5775;0.0724;
136.8000;1.5808;0.0817;
137.1000;1.5816;0.0747;
137.4000;1.5808;0.0630;
137.7000;1.5767;0.0513;
138.0000;1.5792;0.0584;
138.3000;1.5849;0.0700;
138.6000;1.5889;0.0887;
138.9000;1.5824;0.0747;
139.2000;1.5808;0.0630;
139.5000;1.5800;0.0630;
139.8000;1.5759;0.0537;
140.1000;1.5775;0.0560;
140.4000;1.5816;0.0584;
140.7000;1.5735;0.0373;
141.0000;1.5808;0.0420;
141.3000;1.5783;0.0327;
141.6000;1.5800;0.0350;
141.9000;1.5800;0.0420;
142.2000;1.5792;0.0397;
142.5000;1.5800;0.0490;
142.8000;1.5800;0.0490;
143.1000;1.5808;0.0467;
143.4000;1.5783;0.0490;
143.7000;1.5783;0.0490;
144.0000;1.5816;0.0584;
144.3000;1.5816;0.0584;
144.6000;1.5816;0.0607;
144.9000;1.5800;0.0654;
145.2000;1.5816;0.0794;
145.5000;1.5816;0.0817;
145.8000;1.5824;0.0770;
146.1000;1.5808;0.0724;
146.4000;1.5800;0.0770;
146.7000;1.5783;0.0724;
147.0000;1.5824;0.0817;
147.3000;1.5808;0.0794;
147.6000;1.5808;0.0700;
147.9000;1.5808;0.0724;
148.2000;1.5840;0.0794;
148.5000;1.5832;0.0794;
148.8000;1.5816;0.0724;
149.1000;1.5832;0.0747;
149.4000;1.5800;0.0630;
149.7000;1.5849;0.0747;
150.0000;1.5832;0.0724;
150.3000;1.5849;0.0700;
150.6000;1.5849;0.0654;
150.9000;1.5816;0.0584;
151.2000;1.5832;0.0677;
151.5000;1.5840;0.0770;
151.8000;1.5881;0.0840;
152.1000;1.5824;0.0630;
152.4000;1.5824;0.0630;
152.7000;1.5824;0.0654;
153.0000;1.5857;0.0794;
153.3000;1.5832;0.0700;
153.6000;1.5808;0.0700;
153.9000;1.5824;0.0700;
154.2000;1.5832;0.0747;
154.5000;1.5840;0.0794;
154.8000;1.5832;0.0840;
155.1000;1.5849;0.0864;
155.4000;1.5849;0.0910;
155.7000;1.5824;0.0840;
156.0000;1.5800;0.0747;
156.3000;1.5767;0.0513;
156.6000;1.5816;0.0513;
156.9000;1.5840;0.0560;
157.2000;1.5840;0.0630;
157.5000;1.5792;0.0513;
157.8000;1.5824;0.0630;
158.1000;1.5816;0.0630;
158.4000;1.5832;0.0607;
158.7000;1.5832;0.0513;
159.0000;1.5840;0.0490;
159.3000;1.5832;0.0584;
159.6000;1.5832;0.0584;
159.9000;1.5857;0.0537;
160.2000;1.5857;0.0513;
160.5000;1.5849;0.0513;
160.8000;1.5849;0.0513;
161.1000;1.5857;0.0490;
161.4000;1.5849;0.0490;
161.7000;1.5849;0.0467;
162.0000;1.5824;0.0350;
162.3000;1.5865;0.0443;
162.6000;1.5865;0.0513;
162.9000;1.5840;0.0490;
163.2000;1.5849;0.0490;
163.5000;1.5865;0.0490;
163.8000;1.5865;0.0513;
164.1000;1.5832;0.0420;
164.4000;1.5857;0.0537;
164.7000;1.5840;0.0560;
165.0000;1.5849;0.0560;
165.3000;1.5840;0.0537;
165.6000;1.5840;0.0560;
165.9000;1.5857;0.0467;
166.2000;1.5816;0.0257;
166.5000;1.5832;0.0397;
166.8000;1.5832;0.0397;
167.1000;1.5824;0.0443;
167.4000;1.5849;0.0560;
167.7000;1.5832;0.0443;
168.0000;1.5840;0.0513;
168.3000;1.5849;0.0537;
168.6000;1.5849;0.0490;
168.9000;1.5840;0.0467;
169.2000;1.5840;0.0490;
169.5000;1.5824;0.0490;
169.8000;1.5849;0.0560;
170.1000;1.5857;0.0584;
170.4000;1.5832;0.0560;
170.7000;1.5824;0.0537;
171.0000;1.5849;0.0607;
171.3000;1.5849;0.0677;
171.6000;1.5800;0.0560;
171.9000;1.5832;0.0630;
172.2000;1.5840;0.0584;
172.5000;1.5840;0.0607;
172.8000;1.5824;0.0607;
173.1000;1.5751;0.0373;
173.4000;1.5832;0.0584;
173.7000;1.5832;0.0584;
174.0000;1.5832;0.0607;
174.3000;1.5775;0.0537;
174.6000;1.5832;0.0677;
174.9000;1.5849;0.0677;
175.2000;1.5824;0.0607;
175.5000;1.5865;0.0654;
175.8000;1.5857;0.0630;
176.1000;1.5840;0.0560;
176.4000;1.5849;0.0700;
176.7000;1.5857;0.0700;
177.0000;1.5857;0.0584;
177.3000;1.5849;0.0467;
177.6000;1.5816;0.0257;
177.9000;1.5849;0.0420;
178.2000;1.5857;0.0443;
178.5000;1.5849;0.0443;
178.8000;1.5857;0.0467;
179.1000;1.5857;0.0467;
179.4000;1.5881;0.0560;
179.7000;1.5849;0.0537;
180.0000;1.5849;0.0537;
180.3000;1.5914;0.0724;
180.6000;1.5881;0.0630;
180.9000;1.5840;0.0537;
181.2000;1.5832;0.0560;
181.5000;1.5849;0.0537;
181.8000;1.5849;0.0584;
182.1000;1.5857;0.0584;
182.4000;1.5800;0.0467;
182.7000;1.5792;0.0443;
183.0000;1.5832;0.0513;
183.3000;1.5783;0.0327;
183.6000;1.5857;0.0513;
183.9000;1.5849;0.0560;
184.2000;1.5865;0.0630;
184.5000;1.5857;0.0654;
184.8000;1.5849;0.0584;
185.1000;1.5840;0.0584;
185.4000;1.5865;0.0654;
185.7000;1.5865;0.0654;
186.0000;1.5840;0.0584;
186.3000;1.5824;0.0467;
186.6000;1.5857;0.0513;
186.9000;1.5857;0.0467;
187.2000;1.5783;0.0280;
187.5000;1.5849;0.0420;
187.8000;1.5857;0.0420;
188.1000;1.5849;0.0397;
188.4000;1.5857;0.0350;
188.7000;1.5849;0.0233;
189.0000;1.5832;0.0163;
189.3000;1.5881;0.0303;
189.6000;1.5857;0.0187;
189.9000;1.5865;0.0187;
190.2000;1.5832;0.0070;
190.5000;1.5865;0.0140;
190.8000;1.5849;0.0093;
191.1000;1.5849;0.0210;
191.4000;1.5849;0.0187;
191.7000;1.5849;0.0070;
192.0000;1.5840;0.0140;
192.3000;1.5840;0.0187;
192.6000;1.5857;0.0280;
192.9000;1.5840;0.0327;
193.2000;1.5840;0.0397;
193.5000;1.5857;0.0397;
193.8000;1.5849;0.0397;
194.1000;1.5857;0.0443;
194.4000;1.5857;0.0467;
194.7000;1.5857;0.0560;
195.0000;1.5832;0.0537;
195.3000;1.5832;0.0630;
195.6000;1.5857;0.0537;
195.9000;1.5832;0.0443;
196.2000;1.5849;0.0373;
196.5000;1.5840;0.0327;
196.8000;1.5840;0.0397;
197.1000;1.5849;0.0490;
197.4000;1.5849;0.0443;
197.7000;1.5832;0.0443;
198.0000;1.5849;0.0467;
198.3000;1.5849;0.0327;
198.6000;1.5857;0.0373;
198.9000;1.5832;0.0280;
199.2000;1.5808;0.0280;
199.5000;1.5857;0.0443;
199.8000;1.5840;0.0490;
200.1000;1.5857;0.0490;
200.4000;1.5857;0.0513;
200.7000;1.5865;0.0513;
201.0000;1.5857;0.0420;
201.3000;1.5832;0.0303;
201.6000;1.5840;0.0257;
201.9000;1.5849;0.0303;
202.2000;1.5840;0.0257;
202.5000;1.5857;0.0350;
202.8000;1.5857;0.0350;
203.1000;1.5840;0.0280;
203.4000;1.5873;0.0373;
203.7000;1.5857;0.0280;
204.0000;1.5865;0.0233;
204.3000;1.5832;0.0210;
204.6000;1.5849;0.0350;
204.9000;1.5906;0.0490;
205.2000;1.5849;0.0373;
205.5000;1.5775;0.0210;
205.8000;1.5840;0.0397;
206.1000;1.5840;0.0490;
206.4000;1.5849;0.0537;
206.7000;1.5840;0.0513;
207.0000;1.5824;0.0373;
207.3000;1.5824;0.0280;
207.6000;1.5857;0.0397;
207.9000;1.5840;0.0420;
208.2000;1.5857;0.0537;
208.5000;1.5873;0.0607;
208.8000;1.5881;0.0630;
209.1000;1.5849;0.0513;
209.4000;1.5849;0.0513;
209.7000;1.5849;0.0467;
210.0000;1.5840;0.0420;
210.3000;1.5857;0.0490;
210.6000;1.5824;0.0467;
210.9000;1.5849;0.0607;
211.2000;1.5824;0.0490;
211.5000;1.5865;0.0537;
211.8000;1.5849;0.0537;
212.1000;1.5873;0.0467;
212.4000;1.5865;0.0443;
212.7000;1.5849;0.0420;
213.0000;1.5865;0.0443;
213.3000;1.5865;0.0513;
213.6000;1.5873;0.0490;
213.9000;1.5873;0.0490;
214.2000;1.5865;0.0513;
214.5000;1.5849;0.0537;
214.8000;1.5857;0.0467;
215.1000;1.5881;0.0490;
215.4000;1.5857;0.0467;
215.7000;1.5832;0.0373;
216.0000;1.5857;0.0420;
216.3000;1.5849;0.0397;
216.6000;1.5840;0.0420;
216.9000;1.5857;0.0327;
217.2000;1.5840;0.0397;
217.5000;1.5840;0.0443;
217.8000;1.5857;0.0513;
218.1000;1.5783;0.0257;
218.4000;1.5857;0.0257;
218.7000;1.5808;0.0163;
219.0000;1.5849;0.0163;
219.3000;1.5857;0.0187;
219.6000;1.5816;0.0093;
219.9000;1.5840;0.0210;
220.2000;1.5857;0.0303;
220.5000;1.5873;0.0397;
220.8000;1.5832;0.0373;
221.1000;1.5840;0.0420;
221.4000;1.5840;0.0350;
221.7000;1.5840;0.0490;
222.0000;1.5840;0.0490;
222.3000;1.5832;0.0490;
222.6000;1.5849;0.0443;
222.9000;1.5840;0.0467;
223.2000;1.5824;0.0373;
223.5000;1.5832;0.0397;
223.8000;1.5849;0.0537;
224.1000;1.5849;0.0513;
224.4000;1.5873;0.0584;
224.7000;1.5849;0.0490;
225.0000;1.5857;0.0490;
225.3000;1.5857;0.0513;
225.6000;1.5881;0.0513;
225.9000;1.5849;0.0420;
226.2000;1.5873;0.0490;
226.5000;1.5857;0.0490;
226.8000;1.5865;0.0513;
227.1000;1.5849;0.0443;
227.4000;1.5857;0.0397;
227.7000;1.5840;0.0303;
228.0000;1.5857;0.0373;
228.3000;1.5840;0.0350;
228.6000;1.5849;0.0257;
228.9000;1.5840;0.0163;
229.2000;1.5865;0.0327;
229.5000;1.5824;0.0327;
229.8000;1.5832;0.0303;
230.1000;1.5816;0.0233;
230.4000;1.5840;0.0303;
230.7000;1.5906;0.0443;
231.0000;1.5824;0.0350;
231.3000;1.5849;0.0350;
231.6000;1.5897;0.0537;
231.9000;1.5832;0.0303;
232.2000;1.5865;0.0373;
232.5000;1.5832;0.0327;
232.8000;1.5840;0.0280;
233.1000;1.5840;0.0350;
233.4000;1.5824;0.0327;
233.7000;1.5849;0.0397;
234.0000;1.5824;0.0443;
234.3000;1.5832;0.0467;
234.6000;1.5824;0.0560;
234.9000;1.5808;0.0513;
235.2000;1.5832;0.0537;
235.5000;1.5840;0.0490;
235.8000;1.5832;0.0490;
236.1000;1.5816;0.0420;
236.4000;1.5840;0.0420;
236.7000;1.5808;0.0350;
237.0000;1.5857;0.0513;
237.3000;1.5849;0.0490;
237.6000;1.5857;0.0537;
237.9000;1.5865;0.0584;
238.2000;1.5865;0.0630;
238.5000;1.5840;0.0607;
238.8000;1.5816;0.0537;
239.1000;1.5840;0.0677;
239.4000;1.5865;0.0677;
239.7000;1.5873;0.0630;
240.0000;1.5857;0.0513;
240.3000;1.5840;0.0397;
240.6000;1.5857;0.0420;
240.9000;1.5857;0.0420;
241.2000;1.5849;0.0350;
241.5000;1.5849;0.0420;
241.8000;1.5767;0.0257;
242.1000;1.5840;0.0443;
242.4000;1.5849;0.0467;
242.7000;1.5849;0.0490;
243.0000;1.5800;0.0420;
243.3000;1.5849;0.0560;
243.6000;1.5857;0.0584;
243.9000;1.5849;0.0513;
244.2000;1.5849;0.0537;
244.5000;1.5849;0.0537;
244.8000;1.5840;0.0513;
245.1000;1.5840;0.0467;
245.4000;1.5840;0.0537;
245.7000;1.5840;0.0513;
246.0000;1.5832;0.0537;
246.3000;1.5832;0.0490;
246.6000;1.5824;0.0490;
246.9000;1.5873;0.0560;
247.2000;1.5840;0.0443;
247.5000;1.5840;0.0420;
247.8000;1.5849;0.0420;
248.1000;1.5824;0.0443;
248.4000;1.5840;0.0560;
248.7000;1.5857;0.0537;
249.0000;1.5857;0.0467;
249.3000;1.5840;0.0467;
249.6000;1.5849;0.0560;
249.9000;1.5865;0.0537;
250.2000;1.5840;0.0467;
250.5000;1.5849;0.0420;
250.8000;1.5857;0.0513;
251.1000;1.5865;0.0677;
251.4000;1.5857;0.0654;
251.7000;1.5816;0.0420;
252.0000;1.5857;0.0420;
252.3000;1.5857;0.0467;
252.6000;1.5849;0.0490;
252.9000;1.5840;0.0443;
253.2000;1.5824;0.0373;
253.5000;1.5865;0.0584;
253.8000;1.5840;0.0560;
254.1000;1.5832;0.0537;
254.4000;1.5824;0.0537;
254.7000;1.5767;0.0350;
255.0000;1.5824;0.0513;
255.3000;1.5881;0.0654;
255.6000;1.5783;0.0490;
255.9000;1.5840;0.0560;
256.2000;1.5840;0.0490;
256.5000;1.5849;0.0420;
256.8000;1.5824;0.0397;
257.1000;1.5897;0.0490;
257.4000;1.5832;0.0397;
257.7000;1.5832;0.0350;
258.0000;1.5824;0.0397;
258.3000;1.5849;0.0490;
258.6000;1.5849;0.0420;
258.9000;1.5857;0.0467;
259.2000;1.5832;0.0467;
259.5000;1.5824;0.0373;
259.8000;1.5857;0.0397;
260.1000;1.5849;0.0513;
260.4000;1.5840;0.0490;
260.7000;1.5824;0.0420;
261.0000;1.5849;0.0397;
261.3000;1.5840;0.0420;
261.6000;1.5832;0.0373;
261.9000;1.5857;0.0467;
262.2000;1.5849;0.0420;
262.5000;1.5873;0.0467;
262.8000;1.5832;0.0373;
263.1000;1.5865;0.0490;
263.4000;1.5865;0.0490;
263.7000;1.5857;0.0467;
264.0000;1.5865;0.0490;
264.3000;1.5849;0.0513;
264.6000;1.5881;0.0560;
264.9000;1.5889;0.0513;
265.2000;1.5832;0.0350;
265.5000;1.5824;0.0327;
265.8000;1.5840;0.0257;
266.1000;1.5840;0.0303;
266.4000;1.5824;0.0303;
266.7000;1.5849;0.0373;
267.0000;1.5857;0.0373;
267.3000;1.5832;0.0280;
267.6000;1.5849;0.0280;
267.9000;1.5849;0.0350;
268.2000;1.5840;0.0397;
268.5000;1.5832;0.0443;
268.8000;1.5832;0.0443;
269.1000;1.5849;0.0490;
269.4000;1.5849;0.0560;
269.7000;1.5832;0.0537;
270.0000;1.5873;0.0607;
270.3000;1.5840;0.0490;
270.6000;1.5849;0.0490;
270.9000;1.5832;0.0373;
271.2000;1.5824;0.0327;
271.5000;1.5800;0.0280;
271.8000;1.5897;0.0513;
272.1000;1.5800;0.0327;
272.4000;1.5759;0.0257;
272.7000;1.5824;0.0397;
273.0000;1.5865;0.0513;
273.3000;1.5832;0.0490;
273.6000;1.5824;0.0443;
273.9000;1.5832;0.0443;
274.2000;1.5889;0.0584;
274.5000;1.5832;0.0560;
274.8000;1.5889;0.0724;
275.1000;1.5832;0.0584;
275.4000;1.5840;0.0607;
275.7000;1.5832;0.0607;
276.0000;1.5832;0.0607;
276.3000;1.5775;0.0397;
276.6000;1.5840;0.0584;
276.9000;1.5840;0.0513;
277.2000;1.5865;0.0560;
277.5000;1.5840;0.0443;
277.8000;1.5816;0.0490;
278.1000;1.5881;0.0607;
278.4000;1.5840;0.0513;
278.7000;1.5832;0.0607;
279.0000;1.5840;0.0607;
279.3000;1.5808;0.0537;
279.6000;1.5832;0.0584;
279.9000;1.5824;0.0537;
280.2000;1.5824;0.0560;
280.5000;1.5832;0.0630;
280.8000;1.5832;0.0607;
281.1000;1.5857;0.0747;
281.4000;1.5832;0.0700;
281.7000;1.5857;0.0817;
282.0000;1.5857;0.0794;
282.3000;1.5840;0.0770;
282.6000;1.5735;0.0677;
282.9000;1.5564;0.0654;
283.2000;1.5670;0.0654;
283.5000;1.5726;0.0607;
283.8000;1.5759;0.0513;
284.1000;1.5889;0.0724;
284.4000;1.5849;0.0513;
284.7000;1.5849;0.0490;
285.0000;1.5857;0.0443;
285.3000;1.5865;0.0443;
285.6000;1.5889;0.0490;
285.9000;1.5865;0.0420;
286.2000;1.5889;0.0373;
286.5000;1.5897;0.0373;
286.8000;1.5897;0.0303;
287.1000;1.5906;0.0280;
287.4000;1.5897;0.0257;
287.7000;1.5881;0.0163;
288.0000;1.5897;0.0210;
288.3000;1.5906;0.0163;
288.6000;1.6760;0.0233;
288.9000;1.6752;0.0093;
289.2000;1.6540;0.0163;
289.5000;1.6394;0.0257;
289.8000;1.6256;0.0233;
290.1000;1.6133;0.0257;
290.4000;1.6125;0.0350;
290.7000;1.6044;0.0233;
291.0000;1.5971;0.0210;
291.3000;1.5922;0.0210;
291.6000;1.5914;0.0210;
291.9000;1.5873;0.0140;
292.2000;1.5889;0.0210;
292.5000;1.5849;0.0210;
292.8000;1.5865;0.0303;
293.1000;1.5857;0.0373;
293.4000;1.5840;0.0443;
293.7000;1.5849;0.0443;
294.0000;1.5840;0.0420;
294.3000;1.5800;0.0397;
294.6000;1.5840;0.0560;
294.9000;1.5857;0.0654;
295.2000;1.5808;0.0560;
295.5000;1.5849;0.0677;
295.8000;1.5800;0.0584;
296.1000;1.5816;0.0607;
296.4000;1.5783;0.0537;
296.7000;1.5824;0.0607;
297.0000;1.5873;0.0677;
297.3000;1.5840;0.0584;
297.6000;1.5832;0.0677;
297.9000;1.5824;0.0677;
298.2000;1.5808;0.0654;
298.5000;1.5832;0.0677;
298.8000;1.5808;0.0584;
299.1000;1.5832;0.0654;
299.4000;1.5824;0.0607;
299.7000;1.5832;0.0584;
300.0000;1.5832;0.0747;
300.3000;1.5824;0.0700;
300.6000;1.5840;0.0724;
300.9000;1.5840;0.0630;
301.2000;1.5873;0.0700;
301.5000;1.5824;0.0700;
301.8000;1.5816;0.0700;
302.1000;1.5849;0.0724;
302.4000;1.5816;0.0677;
302.7000;1.5930;0.0980;
303.0000;1.5824;0.0747;
303.3000;1.5824;0.0747;
303.6000;1.5840;0.0630;
303.9000;1.5832;0.0537;
304.2000;1.5840;0.0584;
304.5000;1.5832;0.0630;
304.8000;1.5824;0.0630;
305.1000;1.5840;0.0724;
305.4000;1.5824;0.0700;
305.7000;1.5832;0.0630;
306.0000;1.5824;0.0584;
306.3000;1.5824;0.0584;
306.6000;1.5840;0.0584;
306.9000;1.5832;0.0700;
307.2000;1.5824;0.0677;
307.5000;1.5800;0.0700;
307.8000;1.5832;0.0747;
308.1000;1.5832;0.0724;
308.4000;1.5800;0.0770;
308.7000;1.5816;0.0700;
309.0000;1.5832;0.0677;
309.3000;1.5832;0.0724;
309.6000;1.5816;0.0677;
309.9000;1.5832;0.0607;
310.2000;1.5824;0.0700;
310.5000;1.5824;0.0770;
310.8000;1.5824;0.0747;
311.1000;1.5816;0.0677;
311.4000;1.5865;0.0747;
311.7000;1.5832;0.0654;
312.0000;1.5800;0.0560;
312.3000;1.5816;0.0584;
312.6000;1.5735;0.0443;
312.9000;1.5816;0.0630;
313.2000;1.5816;0.0560;
313.5000;1.5840;0.0584;
313.8000;1.5816;0.0537;
314.1000;1.5816;0.0607;
314.4000;1.5824;0.0560;
314.7000;1.5808;0.0654;
315.0000;1.5800;0.0607;
315.3000;1.5808;0.0654;
315.6000;1.5800;0.0654;
315.9000;1.5800;0.0607;
316.2000;1.5800;0.0654;
316.5000;1.5800;0.0700;
316.8000;1.5824;0.0677;
317.1000;1.5816;0.0677;
317.4000;1.5800;0.0677;
317.7000;1.5816;0.0724;
318.0000;1.5808;0.0700;
318.3000;1.5816;0.0817;
318.6000;1.5792;0.0747;
318.9000;1.5808;0.0747;
319.2000;1.5775;0.0724;
319.5000;1.5800;0.0770;
319.8000;1.5800;0.0794;
320.1000;1.5800;0.0794;
320.4000;1.5808;0.0770;
320.7000;1.5824;0.0840;
321.0000;1.5792;0.0887;
321.3000;1.5800;0.0887;
321.6000;1.5816;0.0887;
321.9000;1.5816;0.0817;
322.2000;1.5857;0.0770;
322.5000;1.5824;0.0630;
322.8000;1.5816;0.0724;
323.1000;1.5800;0.0724;
323.4000;1.5808;0.0630;
323.7000;1.5808;0.0654;
324.0000;1.5792;0.0584;
324.3000;1.5865;0.0817;
324.6000;1.5832;0.0794;
324.9000;1.5792;0.0747;
325.2000;1.5767;0.0724;
325.5000;1.5792;0.0840;
325.8000;1.5808;0.0887;
326.1000;1.5800;0.0817;
326.4000;1.5816;0.0817;
326.7000;1.5816;0.0817;
327.0000;1.5816;0.0817;
327.3000;1.5824;0.0724;
327.6000;1.5816;0.0607;
327.9000;1.5824;0.0630;
328.2000;1.5824;0.0630;
328.5000;1.5808;0.0630;
328.8000;1.5832;0.0700;
329.1000;1.5767;0.0537;
329.4000;1.5816;0.0584;
329.7000;1.5849;0.0584;
330.0000;1.5816;0.0537;
330.3000;1.5808;0.0490;
330.6000;1.5800;0.0467;
330.9000;1.5816;0.0560;
331.2000;1.5816;0.0630;
331.5000;1.5808;0.0700;
331.8000;1.5808;0.0747;
332.1000;1.5816;0.0794;
332.4000;1.5792;0.0770;
332.7000;1.5808;0.0700;
333.0000;1.5792;0.0724;
333.3000;1.5792;0.0700;
333.6000;1.5824;0.0677;
333.9000;1.5800;0.0607;
334.2000;1.5824;0.0677;
334.5000;1.5816;0.0724;
334.8000;1.5808;0.0607;
335.1000;1.5816;0.0607;
335.4000;1.5792;0.0467;
335.7000;1.5816;0.0490;
336.0000;1.5792;0.0490;
336.3000;1.5800;0.0607;
336.6000;1.5816;0.0607;
336.9000;1.5792;0.0560;
337.2000;1.5808;0.0584;
337.5000;1.5808;0.0607;
337.8000;1.5816;0.0607;
338.1000;1.5808;0.0584;
338.4000;1.5808;0.0584;
338.7000;1.5832;0.0630;
339.0000;1.5800;0.0654;
339.3000;1.5816;0.0677;
339.6000;1.5808;0.0747;
339.9000;1.5808;0.0770;
340.2000;1.5816;0.0747;
340.5000;1.5808;0.0724;
340.8000;1.5808;0.0747;
341.1000;1.5816;0.0770;
341.4000;1.5808;0.0747;
341.7000;1.5800;0.0677;
342.0000;1.5800;0.0724;
342.3000;1.5808;0.0770;
342.6000;1.5808;0.0630;
342.9000;1.5702;0.0327;
343.2000;1.5775;0.0513;
343.5000;1.5800;0.0630;
343.8000;1.5808;0.0677;
344.1000;1.5800;0.0560;
344.4000;1.5783;0.0607;
344.7000;1.5800;0.0607;
345.0000;1.5792;0.0537;
345.3000;1.5832;0.0560;
345.6000;1.5775;0.0350;
345.9000;1.5759;0.0280;
346.2000;1.5816;0.0420;
346.5000;1.5857;0.0584;
346.8000;1.5783;0.0467;
347.1000;1.5792;0.0490;
347.4000;1.5783;0.0397;
347.7000;1.5808;0.0397;
348.0000;1.5775;0.0350;
348.3000;1.5767;0.0397;
348.6000;1.5759;0.0607;
348.9000;1.5767;0.0607;
349.2000;1.5783;0.0677;
349.5000;1.5775;0.0747;
349.8000;1.5775;0.0677;
350.1000;1.5800;0.0770;
350.4000;1.5775;0.0677;
350.7000;1.5808;0.0654;
351.0000;1.5783;0.0560;
351.3000;1.5775;0.0584;
351.6000;1.5824;0.0700;
351.9000;1.5743;0.0513;
352.2000;1.5792;0.0584;
352.5000;1.5783;0.0513;
352.8000;1.5751;0.0350;
353.1000;1.5783;0.0420;
353.4000;1.5800;0.0537;
353.7000;1.5735;0.0443;
354.0000;1.5792;0.0467;
354.3000;1.5832;0.0560;
354.6000;1.5775;0.0443;
354.9000;1.5792;0.0467;
355.2000;1.5800;0.0537;
355.5000;1.5792;0.0607;
355.8000;1.5792;0.0654;
356.1000;1.5775;0.0630;
356.4000;1.5775;0.0560;
356.7000;1.5792;0.0630;
357.0000;1.5783;0.0537;
357.3000;1.5783;0.0560;
357.6000;1.5808;0.0607;
357.9000;1.5783;0.0584;
358.2000;1.5767;0.0513;
358.5000;1.5775;0.0490;
358.8000;1.5759;0.0443;
359.1000;1.5783;0.0537;
359.4000;1.5767;0.0443;
359.7000;1.5800;0.0537;
360.0000;1.5767;0.0513;
360.3000;1.5767;0.0513;
360.6000;1.5775;0.0467;
360.9000;1.5775;0.0490;
361.2000;1.5767;0.0513;
361.5000;1.5710;0.0443;
361.8000;1.5767;0.0560;
362.1000;1.5832;0.0747;
362.4000;1.5800;0.0630;
362.7000;1.5775;0.0584;
363.0000;1.5783;0.0607;
363.3000;1.5775;0.0607;
363.6000;1.5792;0.0607;
363.9000;1.5775;0.0584;
364.2000;1.5808;0.0654;
364.5000;1.5808;0.0584;
364.8000;1.5816;0.0654;
365.1000;1.5808;0.0630;
365.4000;1.5816;0.0677;
365.7000;1.5783;0.0654;
366.0000;1.5808;0.0724;
366.3000;1.5759;0.0607;
366.6000;1.5775;0.0630;
366.9000;1.5783;0.0654;
367.2000;1.5849;0.0794;
367.5000;1.5800;0.0560;
367.8000;1.5775;0.0443;
368.1000;1.5775;0.0443;
368.4000;1.5808;0.0490;
368.7000;1.5783;0.0467;
369.0000;1.5775;0.0584;
369.3000;1.5808;0.0630;
369.6000;1.5816;0.0724;
369.9000;1.5743;0.0537;
370.2000;1.5743;0.0630;
370.5000;1.5759;0.0724;
370.8000;1.5792;0.0724;
371.1000;1.5751;0.0654;
371.4000;1.5832;0.0864;
371.7000;1.5775;0.0770;
372.0000;1.5792;0.0747;
372.3000;1.5759;0.0677;
372.6000;1.5751;0.0677;
372.9000;1.5792;0.0677;
373.2000;1.5792;0.0607;
373.5000;1.5783;0.0584;
373.8000;1.5775;0.0630;
374.1000;1.5783;0.0700;
374.4000;1.5783;0.0700;
374.7000;1.5792;0.0630;
375.0000;1.5783;0.0560;
375.3000;1.5783;0.0677;
375.6000;1.5775;0.0794;
375.9000;1.5792;0.0887;
376.2000;1.5767;0.0840;
376.5000;1.5783;0.0817;
376.8000;1.5759;0.0794;
377.1000;1.5751;0.0794;
377.4000;1.5759;0.0840;
377.7000;1.5759;0.0817;
378.0000;1.5759;0.0840;
378.3000;1.5759;0.0840;
378.6000;1.5783;0.0724;
378.9000;1.5792;0.0770;
379.2000;1.5767;0.0700;
379.5000;1.5775;0.0654;
379.8000;1.5783;0.0654;
380.1000;1.5751;0.0584;
380.4000;1.5783;0.0630;
380.7000;1.5735;0.0630;
381.0000;1.5775;0.0747;
381.3000;1.5767;0.0747;
381.6000;1.5759;0.0747;
381.9000;1.5759;0.0724;
382.2000;1.5783;0.0770;
382.5000;1.5775;0.0700;
382.8000;1.5775;0.0770;
383.1000;1.5767;0.0770;
383.4000;1.5775;0.0724;
383.7000;1.5783;0.0677;
384.0000;1.5759;0.0607;
384.3000;1.5743;0.0630;
384.6000;1.5759;0.0654;
384.9000;1.5751;0.0630;
385.2000;1.5767;0.0677;
385.5000;1.5767;0.0747;
385.8000;1.5775;0.0770;
386.1000;1.5783;0.0794;
386.4000;1.5775;0.0724;
386.7000;1.5767;0.0840;
387.0000;1.5751;0.0840;
387.3000;1.5775;0.0817;
387.6000;1.5767;0.0840;
387.9000;1.5735;0.0770;
388.2000;1.5792;0.0864;
388.5000;1.5759;0.0840;
388.8000;1.5792;0.0840;
389.1000;1.5767;0.0840;
389.4000;1.5783;0.0957;
389.7000;1.5775;0.0980;
390.0000;1.5792;0.1004;
390.3000;1.5743;0.0770;
390.6000;1.5775;0.0817;
390.9000;1.5743;0.0724;
391.2000;1.5816;0.0910;
391.5000;1.5783;0.0840;
391.8000;1.5792;0.0887;
392.1000;1.5783;0.0864;
392.4000;1.5775;0.0957;
392.7000;1.5832;0.1050;
393.0000;1.5767;0.0910;
393.3000;1.5759;0.0840;
393.6000;1.5767;0.0910;
393.9000;1.5751;0.0934;
394.2000;1.5849;0.1097;
394.5000;1.5783;0.0910;
394.8000;1.5759;0.0887;
395.1000;1.5775;0.0817;
395.4000;1.5767;0.0724;
395.7000;1.5743;0.0607;
396.0000;1.5735;0.0654;
396.3000;1.5808;0.0840;
396.6000;1.5759;0.0770;
396.9000;1.5767;0.0677;
397.2000;1.5759;0.0630;
397.5000;1.5759;0.0630;
397.8000;1.5743;0.0630;
398.1000;1.5759;0.0630;
398.4000;1.5767;0.0770;
398.7000;1.5775;0.0700;
399.0000;1.5767;0.0584;
399.3000;1.5767;0.0630;
399.6000;1.5775;0.0677;
399.9000;1.5792;0.0747;
400.2000;1.5767;0.0700;
400.5000;1.5767;0.0630;
400.8000;1.5751;0.0654;
401.1000;1.5759;0.0724;
401.4000;1.5767;0.0840;
401.7000;1.5743;0.0700;
402.0000;1.5775;0.0770;
402.3000;1.5759;0.0654;
402.6000;1.5783;0.0770;
402.9000;1.5775;0.0724;
403.2000;1.5783;0.0724;
403.5000;1.5718;0.0654;
403.8000;1.5759;0.0864;
404.1000;1.5775;0.0887;
404.4000;1.5767;0.0864;
404.7000;1.5767;0.0840;
405.0000;1.5775;0.0864;
405.3000;1.5759;0.0817;
405.6000;1.5767;0.0887;
405.9000;1.5743;0.0794;
406.2000;1.5735;0.0724;
406.5000;1.5759;0.0747;
406.8000;1.5759;0.0887;
407.1000;1.5775;0.0910;
407.4000;1.5718;0.0770;
407.7000;1.5759;0.0864;
408.0000;1.5743;0.0934;
408.3000;1.5735;0.0887;
408.6000;1.5751;0.0864;
408.9000;1.5702;0.0654;
409.2000;1.5775;0.0770;
409.5000;1.5767;0.0677;
409.8000;1.5726;0.0630;
410.1000;1.5735;0.0630;
410.4000;1.5743;0.0607;
410.7000;1.5735;0.0630;
411.0000;1.5751;0.0677;
411.3000;1.5743;0.0630;
411.6000;1.5751;0.0630;
411.9000;1.5775;0.0700;
412.2000;1.5767;0.0724;
412.5000;1.5775;0.0677;
412.8000;1.5808;0.0700;
413.1000;1.5759;0.0654;
413.4000;1.5767;0.0654;
413.7000;1.5743;0.0607;
414.0000;1.5726;0.0560;
414.3000;1.5718;0.0584;
414.6000;1.5759;0.0700;
414.9000;1.5759;0.0654;
415.2000;1.5759;0.0677;
415.5000;1.5743;0.0630;
415.8000;1.5800;0.0724;
416.1000;1.5751;0.0537;
416.4000;1.5735;0.0467;
416.7000;1.5670;0.0420;
417.0000;1.5759;0.0607;
417.3000;1.5751;0.0654;
417.6000;1.5816;0.0817;
417.9000;1.5759;0.0724;
418.2000;1.5783;0.0794;
418.5000;1.5759;0.0724;
418.8000;1.5751;0.0747;
419.1000;1.5767;0.0747;
419.4000;1.5759;0.0700;
419.7000;1.5775;0.0677;
420.0000;1.5751;0.0630;
420.3000;1.5694;0.0537;
420.6000;1.5743;0.0630;
420.9000;1.5751;0.0560;
421.2000;1.5702;0.0490;
421.5000;1.5735;0.0560;
421.8000;1.5735;0.0630;
422.1000;1.5751;0.0677;
422.4000;1.5759;0.0677;
422.7000;1.5726;0.0677;
423.0000;1.5751;0.0630;
423.3000;1.5751;0.0677;
423.6000;1.5767;0.0770;
423.9000;1.5743;0.0724;
424.2000;1.5751;0.0654;
424.5000;1.5759;0.0654;
424.8000;1.5767;0.0607;
425.1000;1.5775;0.0630;
425.4000;1.5767;0.0607;
425.7000;1.5775;0.0630;
426.0000;1.5751;0.0607;
426.3000;1.5718;0.0584;
426.6000;1.5759;0.0677;
426.9000;1.5759;0.0724;
427.2000;1.5751;0.0724;
427.5000;1.5775;0.0747;
427.8000;1.5775;0.0770;
428.1000;1.5759;0.0654;
428.4000;1.5775;0.0747;
428.7000;1.5767;0.0607;
429.0000;1.5751;0.0677;
429.3000;1.5751;0.0747;
429.6000;1.5743;0.0747;
429.9000;1.5751;0.0817;
430.2000;1.5735;0.0794;
430.5000;1.5710;0.0630;
430.8000;1.5726;0.0654;
431.1000;1.5743;0.0700;
431.4000;1.5800;0.0887;
431.7000;1.5735;0.0747;
432.0000;1.5702;0.0630;
432.3000;1.5735;0.0630;
432.6000;1.5751;0.0677;
432.9000;1.5743;0.0677;
433.2000;1.5743;0.0700;
433.5000;1.5743;0.0654;
433.8000;1.5751;0.0677;
434.1000;1.5743;0.0770;
434.4000;1.5751;0.0887;
434.7000;1.5743;0.0770;
435.0000;1.5759;0.0770;
435.3000;1.5743;0.0794;
435.6000;1.5694;0.0584;
435.9000;1.5759;0.0677;
436.2000;1.5751;0.0584;
436.5000;1.5767;0.0700;
436.8000;1.5751;0.0794;
437.1000;1.5735;0.0700;
437.4000;1.5751;0.0700;
437.7000;1.5743;0.0677;
438.0000;1.5735;0.0724;
438.3000;1.5743;0.0654;
438.6000;1.5743;0.0630;
438.9000;1.5767;0.0724;
439.2000;1.5702;0.0560;
439.5000;1.5775;0.0770;
439.8000;1.5751;0.0700;
440.1000;1.5751;0.0770;
440.4000;1.5726;0.0747;
440.7000;1.5775;0.0770;
441.0000;1.5735;0.0677;
441.3000;1.5702;0.0677;
441.6000;1.5743;0.0840;
441.9000;1.5743;0.0794;
442.2000;1.5735;0.0654;
442.5000;1.5726;0.0700;
442.8000;1.5751;0.0677;
443.1000;1.5743;0.0677;
443.4000;1.5751;0.0700;
443.7000;1.5735;0.0700;
444.0000;1.5726;0.0747;
444.3000;1.5726;0.0770;
444.6000;1.5735;0.0794;
444.9000;1.5751;0.0794;
445.2000;1.5743;0.0794;
445.5000;1.5759;0.0817;
445.8000;1.5743;0.0817;
446.1000;1.5743;0.0724;
446.4000;1.5751;0.0677;
446.7000;1.5751;0.0770;
447.0000;1.5735;0.0724;
447.3000;1.5751;0.0677;
447.6000;1.5718;0.0700;
447.9000;1.5726;0.0724;
448.2000;1.5726;0.0700;
448.5000;1.5735;0.0724;
448.8000;1.5710;0.0724;
449.1000;1.5726;0.0794;
449.4000;1.5718;0.0770;
449.7000;1.5743;0.0817;
450.0000;1.5718;0.0817;
450.3000;1.5743;0.0840;
450.6000;1.5735;0.0794;
450.9000;1.5735;0.0817;
451.2000;1.5726;0.0817;
451.5000;1.5718;0.0817;
451.8000;1.5743;0.0887;
452.1000;1.5735;0.0840;
452.4000;1.5710;0.0770;
452.7000;1.5710;0.0770;
453.0000;1.5726;0.0840;
453.3000;1.5718;0.0864;
453.6000;1.5718;0.0817;
453.9000;1.5718;0.0864;
454.2000;1.5718;0.0910;
454.5000;1.5735;0.0910;
454.8000;1.5718;0.0794;
455.1000;1.5735;0.0794;
455.4000;1.5751;0.0747;
455.7000;1.5735;0.0677;
456.0000;1.5726;0.0654;
456.3000;1.5726;0.0630;
456.6000;1.5735;0.0700;
456.9000;1.5743;0.0654;
457.2000;1.5759;0.0770;
457.5000;1.5718;0.0677;
457.8000;1.5816;0.0864;
458.1000;1.5735;0.0584;
458.4000;1.5718;0.0560;
458.7000;1.5743;0.0490;
459.0000;1.5726;0.0513;
459.3000;1.5735;0.0630;
459.6000;1.5743;0.0724;
459.9000;1.5743;0.0770;
460.2000;1.5735;0.0747;
460.5000;1.5735;0.0770;
460.8000;1.5743;0.0840;
461.1000;1.5735;0.0864;
461.4000;1.5735;0.0770;
461.7000;1.5735;0.0840;
462.0000;1.5726;0.0887;
462.3000;1.5743;0.0934;
462.6000;1.5726;0.0910;
462.9000;1.5718;0.0864;
463.2000;1.5759;0.0934;
463.5000;1.5735;0.0840;
463.8000;1.5710;0.0770;
464.1000;1.5710;0.0910;
464.4000;1.5710;0.0934;
464.7000;1.5726;0.0910;
465.0000;1.5718;0.0910;
465.3000;1.5718;0.0957;
465.6000;1.5718;0.0980;
465.9000;1.5726;0.1004;
466.2000;1.5726;0.1097;
466.5000;1.5726;0.1120;
466.8000;1.5743;0.1050;
467.1000;1.5743;0.1004;
467.4000;1.5718;0.1004;
467.7000;1.5759;0.1097;
468.0000;1.5637;0.0840;
468.3000;1.5702;0.1004;
468.6000;1.5735;0.1144;
468.9000;1.5735;0.1050;
469.2000;1.5735;0.1004;
469.5000;1.5670;0.0887;
469.8000;1.5759;0.1027;
470.1000;1.5735;0.0957;
470.4000;1.5726;0.0910;
470.7000;1.5726;0.0957;
471.0000;1.5735;0.0957;
471.3000;1.5743;0.0934;
471.6000;1.5743;0.0957;
471.9000;1.5718;0.0934;
472.2000;1.5726;0.0887;
472.5000;1.5735;0.0840;
472.8000;1.5726;0.0794;
473.1000;1.5718;0.0794;
473.4000;1.5726;0.0747;
473.7000;1.5783;0.0910;
474.0000;1.5726;0.0747;
474.3000;1.5735;0.0700;
474.6000;1.5686;0.0630;
474.9000;1.5718;0.0700;
475.2000;1.5726;0.0770;
475.5000;1.5718;0.0864;
475.8000;1.5718;0.0957;
476.1000;1.5726;0.0910;
476.4000;1.5735;0.0980;
476.7000;1.5735;0.0887;
477.0000;1.5710;0.0840;
477.3000;1.5726;0.0887;
477.6000;1.5694;0.0817;
477.9000;1.5718;0.0887;
478.2000;1.5718;0.0910;
478.5000;1.5702;0.1004;
478.8000;1.5718;0.0957;
479.1000;1.5710;0.0957;
479.4000;1.5726;0.1027;
479.7000;1.5710;0.1050;
480.0000;1.5702;0.1027;
480.3000;1.5726;0.1144;
480.6000;1.5718;0.1050;
480.9000;1.5710;0.1027;
481.2000;1.5743;0.1097;
481.5000;1.5710;0.1120;
481.8000;1.5710;0.1074;
482.1000;1.5718;0.1074;
482.4000;1.5726;0.1004;
482.7000;1.5718;0.0957;
483.0000;1.5670;0.0910;
483.3000;1.5726;0.1027;
483.6000;1.5775;0.1120;
483.9000;1.5718;0.1027;
484.2000;1.5735;0.0980;
484.5000;1.5710;0.0957;
484.8000;1.5710;0.1050;
485.1000;1.5710;0.1074;
485.4000;1.5718;0.1074;
485.7000;1.5718;0.1004;
486.0000;1.5743;0.1027;
486.3000;1.5710;0.0934;
486.6000;1.5743;0.0980;
486.9000;1.5710;0.0957;
487.2000;1.5702;0.0934;
487.5000;1.5726;0.0934;
487.8000;1.5726;0.1004;
488.1000;1.5726;0.1004;
488.4000;1.5710;0.1027;
488.7000;1.5718;0.1074;
489.0000;1.5710;0.1097;
489.3000;1.5718;0.1050;
489.6000;1.5726;0.1050;
489.9000;1.5710;0.0957;
490.2000;1.5726;0.1004;
490.5000;1.5702;0.1027;
490.8000;1.5702;0.1074;
491.1000;1.5702;0.0980;
491.4000;1.5694;0.0887;
491.7000;1.5726;0.1027;
492.0000;1.5710;0.0957;
492.3000;1.5694;0.0887;
492.6000;1.5694;0.0887;
492.9000;1.5678;0.0840;
493.2000;1.5710;0.1004;
493.5000;1.5702;0.1027;
493.8000;1.5718;0.1050;
494.1000;1.5710;0.1004;
494.4000;1.5710;0.1004;
494.7000;1.5710;0.1027;
495.0000;1.5710;0.1004;
495.3000;1.5710;0.1120;
495.6000;1.5718;0.1097;
495.9000;1.5694;0.1050;
496.2000;1.5710;0.1050;
496.5000;1.5735;0.1144;
496.8000;1.5718;0.1004;
497.1000;1.5718;0.0980;
497.4000;1.5718;0.0980;
497.7000;1.5694;0.1004;
498.0000;1.5702;0.1074;
498.3000;1.5702;0.1097;
498.6000;1.5718;0.1167;
498.9000;1.5702;0.1167;
499.2000;1.5718;0.1050;
499.5000;1.5735;0.1027;
499.8000;1.5702;0.1027;
500.1000;1.5694;0.0934;
500.4000;1.5702;0.0980;
500.7000;1.5702;0.0957;
501.0000;1.5710;0.0957;
501.3000;1.5694;0.0910;
501.6000;1.5694;0.0934;
501.9000;1.5702;0.0934;
502.2000;1.5710;0.0980;
502.5000;1.5710;0.0980;
502.8000;1.5694;0.1004;
503.1000;1.5702;0.1004;
503.4000;1.5710;0.1004;
503.7000;1.5710;0.0957;
504.0000;1.5710;0.0910;
504.3000;1.5710;0.0910;
504.6000;1.5702;0.0887;
504.9000;1.5726;0.0840;
505.2000;1.5694;0.0794;
505.5000;1.5702;0.0747;
505.8000;1.5718;0.0770;
506.1000;1.5710;0.0770;
506.4000;1.5694;0.0794;
506.7000;1.5702;0.0864;
507.0000;1.5710;0.0887;
507.3000;1.5670;0.0864;
507.6000;1.5694;0.0887;
507.9000;1.5694;0.0887;
508.2000;1.5686;0.0864;
508.5000;1.5726;0.0934;
508.8000;1.5718;0.0957;
509.1000;1.5702;0.0934;
509.4000;1.5678;0.0934;
509.7000;1.5718;0.0957;
510.0000;1.5726;0.0864;
510.3000;1.5694;0.0794;
510.6000;1.5718;0.0817;
510.9000;1.5710;0.0794;
511.2000;1.5710;0.0817;
511.5000;1.5702;0.0770;
511.8000;1.5718;0.0840;
512.1000;1.5718;0.0794;
512.4000;1.5726;0.0817;
512.7000;1.5694;0.0770;
513.0000;1.5694;0.0794;
513.3000;1.5710;0.0817;
513.6000;1.5702;0.0794;
513.9000;1.5710;0.0887;
514.2000;1.5718;0.1004;
514.5000;1.5702;0.1074;
514.8000;1.5694;0.1050;
515.1000;1.5702;0.0980;
515.4000;1.5702;0.1004;
515.7000;1.5702;0.1004;
516.0000;1.5702;0.1050;
516.3000;1.5767;0.1167;
516.6000;1.5694;0.0957;
516.9000;1.5694;0.0957;
517.2000;1.5710;0.0980;
517.5000;1.5653;0.0910;
517.8000;1.5686;0.1004;
518.1000;1.5686;0.1050;
518.4000;1.5686;0.1167;
518.7000;1.5702;0.1190;
519.0000;1.5686;0.1144;
519.3000;1.5686;0.1097;
519.6000;1.5686;0.1027;
519.9000;1.5710;0.1167;
520.2000;1.5710;0.1050;
520.5000;1.5686;0.0910;
520.8000;1.5694;0.0957;
521.1000;1.5702;0.0980;
521.4000;1.5702;0.1004;
521.7000;1.5710;0.1050;
522.0000;1.5694;0.1027;
522.3000;1.5702;0.1144;
522.6000;1.5710;0.1074;
522.9000;1.5694;0.1050;
523.2000;1.5686;0.1144;
523.5000;1.5702;0.1144;
523.8000;1.5702;0.1307;
524.1000;1.5694;0.1307;
524.4000;1.5686;0.1284;
524.7000;1.5678;0.1284;
525.0000;1.5694;0.1284;
525.3000;1.5678;0.1284;
525.6000;1.5653;0.1214;
525.9000;1.5637;0.1237;
526.2000;1.5702;0.1354;
526.5000;1.5702;0.1284;
526.8000;1.5686;0.1214;
527.1000;1.5686;0.1167;
527.4000;1.5702;0.1120;
527.7000;1.5702;0.1144;
528.0000;1.5678;0.1097;
528.3000;1.5702;0.1004;
528.6000;1.5686;0.0957;
528.9000;1.5686;0.0934;
529.2000;1.5670;0.0934;
529.5000;1.5686;0.0864;
529.8000;1.5637;0.0794;
530.1000;1.5686;0.0957;
530.4000;1.5686;0.0980;
530.7000;1.5686;0.0957;
531.0000;1.5702;0.0957;
531.3000;1.5694;0.0934;
531.6000;1.5694;0.0887;
531.9000;1.5694;0.0934;
532.2000;1.5670;0.1074;
532.5000;1.5686;0.1097;
532.8000;1.5686;0.1144;
533.1000;1.5678;0.1120;
533.4000;1.5678;0.1097;
533.7000;1.5670;0.1097;
534.0000;1.5621;0.0910;
534.3000;1.5694;0.1074;
534.6000;1.5678;0.0980;
534.9000;1.5678;0.1027;
535.2000;1.5686;0.1074;
535.5000;1.5694;0.1097;
535.8000;1.5694;0.1027;
536.1000;1.5670;0.1004;
536.4000;1.5686;0.0980;
536.7000;1.5694;0.1004;
537.0000;1.5710;0.1050;
537.3000;1.5694;0.1027;
537.6000;1.5694;0.1074;
537.9000;1.5670;0.0980;
538.2000;1.5604;0.0864;
538.5000;1.5678;0.0957;
538.8000;1.5686;0.0934;
539.1000;1.5678;0.0980;
539.4000;1.5702;0.0980;
539.7000;1.5670;0.1027;
540.0000;1.5694;0.1027;
540.3000;1.5613;0.0864;
540.6000;1.5686;0.1027;
540.9000;1.5694;0.1004;
541.2000;1.5694;0.1050;
541.5000;1.5694;0.1027;
541.8000;1.5686;0.0910;
542.1000;1.5710;0.1004;
542.4000;1.5686;0.0910;
542.7000;1.5678;0.0934;
543.0000;1.5678;0.1027;
543.3000;1.5678;0.1120;
543.6000;1.5710;0.1190;
543.9000;1.5726;0.1330;
544.2000;1.5686;0.1214;
544.5000;1.5710;0.1260;
544.8000;1.5670;0.1167;
545.1000;1.5670;0.1237;
545.4000;1.5670;0.1097;
545.7000;1.5678;0.1214;
546.0000;1.5678;0.1190;
546.3000;1.5686;0.1214;
546.6000;1.5678;0.1214;
546.9000;1.5710;0.1190;
547.2000;1.5686;0.1190;
547.5000;1.5670;0.1237;
547.8000;1.5637;0.1144;
548.1000;1.5670;0.1214;
548.4000;1.5653;0.1144;
548.7000;1.5653;0.1027;
549.0000;1.5678;0.1004;
549.3000;1.5661;0.1050;
549.6000;1.5751;0.1214;
549.9000;1.5686;0.1097;
550.2000;1.5670;0.1050;
550.5000;1.5702;0.1167;
550.8000;1.5702;0.1167;
551.1000;1.5686;0.1120;
551.4000;1.5686;0.1120;
551.7000;1.5702;0.1190;
552.0000;1.5718;0.1284;
552.3000;1.5702;0.1144;
552.6000;1.5694;0.1120;
552.9000;1.5694;0.1167;
553.2000;1.5702;0.1237;
553.5000;1.5694;0.1237;
553.8000;1.5678;0.1190;
554.1000;1.5629;0.1120;
554.4000;1.5686;0.1260;
554.7000;1.5670;0.1214;
555.0000;1.5645;0.1074;
555.3000;1.5678;0.1144;
555.6000;1.5661;0.1190;
555.9000;1.5702;0.1214;
556.2000;1.5686;0.1260;
556.5000;1.5604;0.1074;
556.8000;1.5670;0.1144;
557.1000;1.5678;0.1214;
557.4000;1.5694;0.1284;
557.7000;1.5678;0.1260;
558.0000;1.5743;0.1470;
558.3000;1.5702;0.1354;
558.6000;1.5686;0.1330;
558.9000;1.5661;0.1330;
559.2000;1.5710;0.1354;
559.5000;1.5670;0.1214;
559.8000;1.5661;0.1190;
560.1000;1.5670;0.1120;
560.4000;1.5661;0.1190;
560.7000;1.5670;0.1237;
561.0000;1.5678;0.1307;
561.3000;1.5678;0.1260;
561.6000;1.5661;0.1237;
561.9000;1.5678;0.1330;
562.2000;1.5686;0.1354;
562.5000;1.5694;0.1377;
562.8000;1.5678;0.1330;
563.1000;1.5686;0.1284;
563.4000;1.5686;0.1237;
563.7000;1.5653;0.1097;
564.0000;1.5694;0.1190;
564.3000;1.5678;0.1120;
564.6000;1.5678;0.1074;
564.9000;1.5694;0.1050;
565.2000;1.5694;0.1004;
565.5000;1.5710;0.1074;
565.8000;1.5678;0.1050;
566.1000;1.5670;0.1050;
566.4000;1.5661;0.1097;
566.7000;1.5678;0.1190;
567.0000;1.5678;0.1144;
567.3000;1.5686;0.1167;
567.6000;1.5661;0.1167;
567.9000;1.5678;0.1214;
568.2000;1.5678;0.1190;
568.5000;1.5686;0.1237;
568.8000;1.5670;0.1190;
569.1000;1.5686;0.1167;
569.4000;1.5670;0.1284;
569.7000;1.5661;0.1284;
570.0000;1.5670;0.1284;
570.3000;1.5678;0.1354;
570.6000;1.5678;0.1377;
570.9000;1.5661;0.1377;
571.2000;1.5686;0.1377;
571.5000;1.5678;0.1354;
571.8000;1.5661;0.1330;
572.1000;1.5670;0.1330;
572.4000;1.5670;0.1330;
572.7000;1.5661;0.1260;
573.0000;1.5661;0.1330;
573.3000;1.5661;0.1400;
573.6000;1.5637;0.1330;
573.9000;1.5661;0.1330;
574.2000;1.5678;0.1400;
574.5000;1.5661;0.1400;
574.8000;1.5645;0.1330;
575.1000;1.5678;0.1260;
575.4000;1.5678;0.1307;
575.7000;1.5661;0.1284;
576.0000;1.5726;0.1400;
576.3000;1.5670;0.1330;
576.6000;1.5743;0.1564;
576.9000;1.5670;0.1424;
577.2000;1.5670;0.1377;
577.5000;1.5661;0.1214;
577.8000;1.5621;0.1144;
578.1000;1.5670;0.1214;
578.4000;1.5670;0.1237;
578.7000;1.5653;0.1237;
579.0000;1.5670;0.1354;
579.3000;1.5670;0.1400;
579.6000;1.5710;0.1657;
579.9000;1.5653;0.1517;
580.2000;1.5661;0.1494;
580.5000;1.5678;0.1517;
580.8000;1.5661;0.1424;
581.1000;1.5645;0.1377;
581.4000;1.5653;0.1400;
581.7000;1.5670;0.1354;
582.0000;1.5645;0.1237;
582.3000;1.5596;0.1074;
582.6000;1.5661;0.1307;
582.9000;1.5645;0.1167;
583.2000;1.5686;0.1214;
583.5000;1.5661;0.1237;
583.8000;1.5645;0.1284;
584.1000;1.5661;0.1377;
584.4000;1.5678;0.1377;
584.7000;1.5670;0.1330;
585.0000;1.5653;0.1354;
585.3000;1.5661;0.1307;
585.6000;1.5661;0.1330;
585.9000;1.5653;0.1377;
586.2000;1.5653;0.1424;
586.5000;1.5661;0.1377;
586.8000;1.5670;0.1377;
587.1000;1.5702;0.1447;
587.4000;1.5661;0.1330;
587.7000;1.5743;0.1564;
588.0000;1.5678;0.1400;
588.3000;1.5686;0.1330;
588.6000;1.5661;0.1354;
588.9000;1.5670;0.1377;
589.2000;1.5670;0.1400;
589.5000;1.5661;0.1400;
589.8000;1.5653;0.1400;
590.1000;1.5661;0.1377;
590.4000;1.5645;0.1400;
590.7000;1.5670;0.1540;
591.0000;1.5670;0.1540;
591.3000;1.5645;0.1424;
591.6000;1.5686;0.1470;
591.9000;1.5661;0.1400;
592.2000;1.5670;0.1424;
592.5000;1.5661;0.1377;
592.8000;1.5670;0.1330;
593.1000;1.5653;0.1260;
593.4000;1.5653;0.1167;
593.7000;1.5661;0.1144;
594.0000;1.5604;0.1120;
594.3000;1.5596;0.1144;
594.6000;1.5670;0.1354;
594.9000;1.5661;0.1330;
595.2000;1.5661;0.1307;
595.5000;1.5645;0.1284;
595.8000;1.5588;0.1190;
596.1000;1.5653;0.1307;
596.4000;1.5661;0.1260;
596.7000;1.5661;0.1237;
597.0000;1.5686;0.1307;
597.3000;1.5653;0.1260;
597.6000;1.5661;0.1237;
597.9000;1.5637;0.1144;
598.2000;1.5661;0.1190;
598.5000;1.5661;0.1190;
598.8000;1.5686;0.1237;
599.1000;1.5653;0.1097;
599.4000;1.5653;0.1120;
599.7000;1.5637;0.1144;
600.0000;1.5661;0.1260;
600.3000;1.5678;0.1097;
600.6000;1.5645;0.0934;
600.9000;1.5564;0.0770;
601.2000;1.5474;0.0537;
601.5000;1.5344;0.0327;
601.8000;1.5197;0.0093;
602.1000;1.5132;0.0117;
602.4000;1.4945;-0.0187;
602.7000;1.4839;-0.0350;
603.0000;1.4709;-0.0490;
603.3000;1.4636;-0.0443;
603.6000;1.4522;-0.0537;
603.9000;1.4432;-0.0677;
604.2000;1.4286;-0.0794;
604.5000;1.4212;-0.0817;
604.8000;1.4123;-0.0817;
605.1000;1.4050;-0.0794;
605.4000;1.3985;-0.0770;
605.7000;1.3903;-0.0817;
606.0000;1.3830;-0.0840;
606.3000;1.3781;-0.0864;
606.6000;1.3708;-0.1027;
606.9000;1.3651;-0.1144;
607.2000;1.3594;-0.1214;
607.5000;1.3529;-0.1284;
607.8000;1.3480;-0.1237;
608.1000;1.3415;-0.1284;
608.4000;1.3374;-0.1330;
608.7000;1.3325;-0.1470;
609.0000;1.3284;-0.1447;
609.3000;1.3236;-0.1330;
609.6000;1.3219;-0.1190;
609.9000;1.3171;-0.1214;
610.2000;1.3146;-0.1167;
610.5000;1.3130;-0.1144;
610.8000;1.3057;-0.1237;
611.1000;1.3016;-0.1260;
611.4000;1.2975;-0.1284;
611.7000;1.2943;-0.1260;
612.0000;1.2902;-0.1260;
612.3000;1.2877;-0.1354;
612.6000;1.2853;-0.1284;
612.9000;1.2829;-0.1307;
613.2000;1.2788;-0.1354;
613.5000;1.2772;-0.1354;
613.8000;1.2747;-0.1400;
614.1000;1.2723;-0.1377;
614.4000;1.2682;-0.1447;
614.7000;1.2674;-0.1377;
615.0000;1.2625;-0.1400;
615.3000;1.2617;-0.1400;
615.6000;1.2601;-0.1377;
615.9000;1.2576;-0.1330;
616.2000;1.2527;-0.1330;
616.5000;1.2527;-0.1237;
616.8000;1.2495;-0.1284;
617.1000;1.2527;-0.1097;
617.4000;1.2462;-0.1144;
617.7000;1.2430;-0.1144;
618.0000;1.2438;-0.1120;
618.3000;1.2397;-0.1214;
618.6000;1.2348;-0.1284;
618.9000;1.2348;-0.1284;
619.2000;1.2348;-0.1260;
619.5000;1.2283;-0.1424;
619.8000;1.2291;-0.1424;
620.1000;1.2283;-0.1424;
620.4000;1.2283;-0.1400;
620.7000;1.2234;-0.1470;
621.0000;1.2251;-0.1424;
621.3000;1.2226;-0.1330;
621.6000;1.2226;-0.1284;
621.9000;1.2194;-0.1284;
622.2000;1.2177;-0.1214;
622.5000;1.2145;-0.1214;
622.8000;1.2129;-0.1237;
623.1000;1.2063;-0.1354;
623.4000;1.2112;-0.1260;
623.7000;1.2096;-0.1190;
624.0000;1.2120;-0.1097;
624.3000;1.2080;-0.1144;
624.6000;1.2063;-0.1214;
624.9000;1.2072;-0.1190;
625.2000;1.2015;-0.1330;
625.5000;1.2031;-0.1260;
625.8000;1.2088;-0.1144;
626.1000;1.2015;-0.1237;
626.4000;1.1982;-0.1307;
626.7000;1.1982;-0.1214;
627.0000;1.1974;-0.1260;
627.3000;1.1925;-0.1354;
627.6000;1.1933;-0.1330;
627.9000;1.1917;-0.1400;
628.2000;1.1909;-0.1377;
628.5000;1.1876;-0.1330;
628.8000;1.1868;-0.1330;
629.1000;1.1844;-0.1260;
629.4000;1.1803;-0.1260;
629.7000;1.1827;-0.1214;
630.0000;1.1811;-0.1237;
630.3000;1.1795;-0.1284;
630.6000;1.1795;-0.1307;
630.9000;1.1770;-0.1354;
631.2000;1.1738;-0.1330;
631.5000;1.1770;-0.1167;
631.8000;1.1746;-0.1190;
632.1000;1.1673;-0.1354;
632.4000;1.1730;-0.1144;
632.7000;1.1705;-0.1214;
633.0000;1.1673;-0.1307;
633.3000;1.1746;-0.1167;
633.6000;1.1697;-0.1260;
633.9000;1.1689;-0.1307;
634.2000;1.1665;-0.1447;
634.5000;1.1656;-0.1564;
634.8000;1.1648;-0.1447;
635.1000;1.1665;-0.1354;
635.4000;1.1616;-0.1377;
635.7000;1.1624;-0.1330;
636.0000;1.1600;-0.1330;
636.3000;1.1575;-0.1354;
636.6000;1.1575;-0.1284;
636.9000;1.1559;-0.1260;
637.2000;1.1551;-0.1284;
637.5000;1.1575;-0.1260;
637.8000;1.1559;-0.1307;
638.1000;1.1526;-0.1400;
638.4000;1.1534;-0.1354;
638.7000;1.1559;-0.1144;
639.0000;1.1510;-0.1167;
639.3000;1.1502;-0.1074;
639.6000;1.1477;-0.1120;
639.9000;1.1461;-0.1190;
640.2000;1.1477;-0.1120;
640.5000;1.1445;-0.1097;
640.8000;1.1437;-0.1120;
641.1000;1.1437;-0.1167;
641.4000;1.1404;-0.1214;
641.7000;1.1372;-0.1284;
642.0000;1.1453;-0.1120;
642.3000;1.1404;-0.1214;
642.6000;1.1388;-0.1284;
642.9000;1.1355;-0.1377;
643.2000;1.1363;-0.1307;
643.5000;1.1355;-0.1260;
643.8000;1.1347;-0.1307;
644.1000;1.1331;-0.1284;
644.4000;1.1323;-0.1284;
644.7000;1.1306;-0.1284;
645.0000;1.1315;-0.1260;
645.3000;1.1298;-0.1377;
645.6000;1.1298;-0.1354;
645.9000;1.1282;-0.1354;
646.2000;1.1290;-0.1260;
646.5000;1.1258;-0.1307;
646.8000;1.1290;-0.1260;
647.1000;1.1233;-0.1330;
647.4000;1.1249;-0.1284;
647.7000;1.1241;-0.1167;
648.0000;1.1160;-0.1424;
648.3000;1.1209;-0.1377;
648.6000;1.1209;-0.1377;
648.9000;1.1217;-0.1354;
649.2000;1.1184;-0.1307;
649.5000;1.1160;-0.1400;
649.8000;1.1160;-0.1377;
650.1000;1.1152;-0.1424;
650.4000;1.1144;-0.1447;
650.7000;1.1119;-0.1447;
651.0000;1.1119;-0.1494;
651.3000;1.1119;-0.1424;
651.6000;1.1111;-0.1400;
651.9000;1.1087;-0.1400;
652.2000;1.1087;-0.1307;
652.5000;1.1079;-0.1284;
652.8000;1.1087;-0.1284;
653.1000;1.1070;-0.1330;
653.4000;1.1046;-0.1307;
653.7000;1.1038;-0.1097;
654.0000;1.1046;-0.1144;
654.3000;1.1038;-0.1237;
654.6000;1.1030;-0.1284;
654.9000;1.1005;-0.1284;
655.2000;1.1054;-0.1144;
655.5000;1.0997;-0.1237;
655.8000;1.0997;-0.1190;
656.1000;1.1030;-0.1050;
656.4000;1.0981;-0.1190;
656.7000;1.0965;-0.1190;
657.0000;1.0948;-0.1307;
657.3000;1.0940;-0.1284;
657.6000;1.0948;-0.1307;
657.9000;1.0924;-0.1284;
658.2000;1.0932;-0.1144;
658.5000;1.0908;-0.1214;
658.8000;1.0916;-0.1237;
659.1000;1.0916;-0.1307;
659.4000;1.0883;-0.1470;
659.7000;1.0891;-0.1447;
660.0000;1.0875;-0.1400;
660.3000;1.0883;-0.1354;
660.6000;1.0867;-0.1470;
660.9000;1.0851;-0.1470;
661.2000;1.0851;-0.1400;
661.5000;1.0802;-0.1447;
661.8000;1.0842;-0.1284;
662.1000;1.0802;-0.1284;
662.4000;1.0834;-0.1167;
662.7000;1.0810;-0.1190;
663.0000;1.0802;-0.1214;
663.3000;1.0777;-0.1260;
663.6000;1.0777;-0.1190;
663.9000;1.0745;-0.1260;
664.2000;1.0745;-0.1330;
664.5000;1.0753;-0.1284;
664.8000;1.0737;-0.1260;
665.1000;1.0704;-0.1330;
665.4000;1.0802;-0.1144;
665.7000;1.0745;-0.1330;
666.0000;1.0769;-0.1260;
666.3000;1.0720;-0.1424;
666.6000;1.0696;-0.1470;
666.9000;1.0704;-0.1330;
667.2000;1.0688;-0.1260;
667.5000;1.0688;-0.1237;
667.8000;1.0680;-0.1377;
668.1000;1.0680;-0.1354;
668.4000;1.0688;-0.1260;
668.7000;1.0663;-0.1237;
669.0000;1.0655;-0.1260;
669.3000;1.0655;-0.1144;
669.6000;1.0631;-0.1144;
669.9000;1.0623;-0.1120;
670.2000;1.0623;-0.1144;
670.5000;1.0639;-0.1190;
670.8000;1.0647;-0.1214;
671.1000;1.0631;-0.1214;
671.4000;1.0590;-0.1284;
671.7000;1.0590;-0.1400;
672.0000;1.0509;-0.1634;
672.3000;1.0582;-0.1587;
672.6000;1.0566;-0.1587;
672.9000;1.0566;-0.1494;
673.2000;1.0566;-0.1517;
673.5000;1.0549;-0.1517;
673.8000;1.0541;-0.1470;
674.1000;1.0549;-0.1330;
674.4000;1.0533;-0.1424;
674.7000;1.0525;-0.1377;
675.0000;1.0533;-0.1284;
675.3000;1.0492;-0.1284;
675.6000;1.0501;-0.1284;
675.9000;1.0492;-0.1307;
676.2000;1.0476;-0.1354;
676.5000;1.0452;-0.1400;
676.8000;1.0460;-0.1307;
677.1000;1.0460;-0.1330;
677.4000;1.0444;-0.1400;
677.7000;1.0476;-0.1284;
678.0000;1.0427;-0.1354;
678.3000;1.0452;-0.1330;
678.6000;1.0419;-0.1400;
678.9000;1.0427;-0.1377;
679.2000;1.0419;-0.1400;
679.5000;1.0411;-0.1284;
679.8000;1.0395;-0.1260;
680.1000;1.0411;-0.1237;
680.4000;1.0395;-0.1260;
680.7000;1.0370;-0.1330;
681.0000;1.0427;-0.1214;
681.3000;1.0387;-0.1284;
681.6000;1.0370;-0.1260;
681.9000;1.0338;-0.1377;
682.2000;1.0362;-0.1237;
682.5000;1.0370;-0.1284;
682.8000;1.0354;-0.1330;
683.1000;1.0354;-0.1354;
683.4000;1.0354;-0.1354;
683.7000;1.0338;-0.1400;
684.0000;1.0322;-0.1377;
684.3000;1.0305;-0.1354;
684.6000;1.0322;-0.1214;
684.9000;1.0354;-0.1097;
685.2000;1.0322;-0.1167;
685.5000;1.0289;-0.1167;
685.8000;1.0289;-0.1307;
686.1000;1.0297;-0.1354;
686.4000;1.0305;-0.1307;
686.7000;1.0273;-0.1330;
687.0000;1.0248;-0.1377;
687.3000;1.0273;-0.1330;
687.6000;1.0256;-0.1354;
687.9000;1.0265;-0.1260;
688.2000;1.0256;-0.1190;
688.5000;1.0248;-0.1284;
688.8000;1.0199;-0.1284;
689.1000;1.0305;-0.1050;
689.4000;1.0240;-0.1144;
689.7000;1.0265;-0.1097;
690.0000;1.0199;-0.1120;
690.3000;1.0232;-0.1074;
690.6000;1.0216;-0.1074;
690.9000;1.0199;-0.1027;
691.2000;1.0191;-0.1074;
691.5000;1.0208;-0.1050;
691.8000;1.0199;-0.1097;
692.1000;1.0191;-0.1120;
692.4000;1.0191;-0.1144;
692.7000;1.0183;-0.1237;
693.0000;1.0191;-0.1144;
693.3000;1.0151;-0.1237;
693.6000;1.0142;-0.1307;
693.9000;1.0151;-0.1284;
694.2000;1.0134;-0.1260;
694.5000;1.0134;-0.1260;
694.8000;1.0126;-0.1237;
695.1000;1.0151;-0.1260;
695.4000;1.0151;-0.1190;
695.7000;1.0142;-0.1214;
696.0000;1.0069;-0.1284;
696.3000;1.0208;-0.0887;
696.6000;1.0118;-0.1050;
696.9000;1.0110;-0.1004;
697.2000;1.0094;-0.1097;
697.5000;1.0053;-0.1214;
697.8000;1.0085;-0.1120;
698.1000;1.0037;-0.1144;
698.4000;1.0053;-0.1074;
698.7000;1.0069;-0.1004;
699.0000;1.0053;-0.0980;
699.3000;1.0134;-0.0747;
699.6000;1.0053;-0.1027;
699.9000;1.0053;-0.1027;
700.2000;1.0053;-0.0957;
700.5000;1.0020;-0.1050;
700.8000;1.0077;-0.0980;
701.1000;1.0028;-0.1120;
701.4000;1.0028;-0.1144;
701.7000;1.0053;-0.1097;
702.0000;1.0045;-0.1074;
702.3000;1.0012;-0.0957;
702.6000;1.0012;-0.1004;
702.9000;1.0012;-0.1074;
703.2000;1.0004;-0.1144;
703.5000;1.0004;-0.1214;
703.8000;0.9988;-0.1237;
704.1000;0.9996;-0.1260;
704.4000;0.9988;-0.1190;
704.7000;0.9980;-0.1190;
705.0000;0.9988;-0.1120;
705.3000;0.9980;-0.1167;
705.6000;0.9980;-0.1214;
705.9000;0.9882;-0.1470;
706.2000;0.9955;-0.1377;
706.5000;0.9980;-0.1284;
706.8000;0.9939;-0.1260;
707.1000;0.9972;-0.1214;
707.4000;0.9963;-0.1260;
707.7000;0.9972;-0.1190;
708.0000;1.0012;-0.1074;
708.3000;0.9923;-0.1260;
708.6000;0.9939;-0.1307;
708.9000;0.9939;-0.1190;
709.2000;0.9939;-0.1214;
709.5000;0.9915;-0.1307;
709.8000;0.9915;-0.1330;
710.1000;0.9906;-0.1260;
710.4000;0.9882;-0.1260;
710.7000;0.9849;-0.1330;
711.0000;0.9915;-0.1237;
711.3000;0.9898;-0.1144;
711.6000;0.9817;-0.1237;
711.9000;0.9825;-0.1144;
712.2000;0.9898;-0.0957;
712.5000;0.9874;-0.0910;
712.8000;0.9866;-0.0934;
713.1000;0.9906;-0.0864;
713.4000;0.9849;-0.1004;
713.7000;0.9825;-0.1027;
714.0000;0.9833;-0.1004;
714.3000;0.9849;-0.0957;
714.6000;0.9906;-0.0887;
714.9000;0.9817;-0.1004;
715.2000;0.9833;-0.1050;
715.5000;0.9825;-0.1120;
715.8000;0.9841;-0.1074;
716.1000;0.9825;-0.1050;
716.4000;0.9817;-0.1027;
716.7000;0.9817;-0.1027;
717.0000;0.9833;-0.0980;
717.3000;0.9809;-0.1074;
717.6000;0.9801;-0.1074;
717.9000;0.9801;-0.1027;
718.2000;0.9776;-0.1120;
718.5000;0.9817;-0.1027;
718.8000;0.9768;-0.1144;
719.1000;0.9760;-0.1144;
719.4000;0.9735;-0.1260;
719.7000;0.9825;-0.1097;
720.0000;0.9687;-0.1447;
720.3000;0.9792;-0.1167;
720.6000;0.9776;-0.1167;
720.9000;0.9760;-0.1144;
721.2000;0.9752;-0.1050;
721.5000;0.9744;-0.1074;
721.8000;0.9801;-0.0910;
722.1000;0.9744;-0.1097;
722.4000;0.9711;-0.1144;
722.7000;0.9703;-0.1120;
723.0000;0.9727;-0.0957;
723.3000;0.9801;-0.0817;
723.6000;0.9744;-0.0980;
723.9000;0.9703;-0.1050;
724.2000;0.9703;-0.1027;
724.5000;0.9719;-0.1004;
724.8000;0.9670;-0.1004;
725.1000;0.9768;-0.0677;
725.4000;0.9695;-0.0910;
725.7000;0.9711;-0.0840;
726.0000;0.9695;-0.0840;
726.3000;0.9695;-0.0817;
726.6000;0.9678;-0.0910;
726.9000;0.9670;-0.1004;
727.2000;0.9695;-0.0934;
727.5000;0.9687;-0.0957;
727.8000;0.9695;-0.1050;
728.1000;0.9662;-0.1097;
728.4000;0.9695;-0.1074;
728.7000;0.9678;-0.1004;
729.0000;0.9654;-0.0957;
729.3000;0.9662;-0.0934;
729.6000;0.9687;-0.0817;
729.9000;0.9670;-0.0864;
730.2000;0.9678;-0.0910;
730.5000;0.9646;-0.0957;
730.8000;0.9630;-0.1027;
731.1000;0.9638;-0.0934;
731.4000;0.9605;-0.1120;
731.7000;0.9597;-0.1097;
732.0000;0.9638;-0.1050;
732.3000;0.9646;-0.0980;
732.6000;0.9654;-0.0957;
732.9000;0.9678;-0.1027;
733.2000;0.9630;-0.1167;
733.5000;0.9630;-0.1097;
733.8000;0.9638;-0.1074;
734.1000;0.9630;-0.1050;
734.4000;0.9573;-0.0980;
734.7000;0.9581;-0.0840;
735.0000;0.9573;-0.0887;
735.3000;0.9589;-0.0817;
735.6000;0.9597;-0.0934;
735.9000;0.9621;-0.0934;
736.2000;0.9589;-0.0910;
736.5000;0.9597;-0.0817;
736.8000;0.9573;-0.0864;
737.1000;0.9573;-0.0934;
737.4000;0.9540;-0.0957;
737.7000;0.9573;-0.0910;
738.0000;0.9548;-0.1004;
738.3000;0.9556;-0.1027;
738.6000;0.9548;-0.1120;
738.9000;0.9581;-0.1050;
739.2000;0.9565;-0.1144;
739.5000;0.9548;-0.1237;
739.8000;0.9548;-0.1260;
740.1000;0.9573;-0.1167;
740.4000;0.9556;-0.1120;
740.7000;0.9540;-0.1074;
741.0000;0.9548;-0.1074;
741.3000;0.9548;-0.1027;
741.6000;0.9556;-0.1004;
741.9000;0.9540;-0.0980;
742.2000;0.9532;-0.0980;
742.5000;0.9540;-0.1004;
742.8000;0.9516;-0.1120;
743.1000;0.9540;-0.0980;
743.4000;0.9516;-0.0910;
743.7000;0.9524;-0.0910;
744.0000;0.9532;-0.0910;
744.3000;0.9524;-0.0934;
744.6000;0.9499;-0.0934;
744.9000;0.9483;-0.0887;
745.2000;0.9516;-0.0910;
745.5000;0.9508;-0.0957;
745.8000;0.9483;-0.0887;
746.1000;0.9402;-0.1097;
746.4000;0.9499;-0.0957;
746.7000;0.9508;-0.0934;
747.0000;0.9491;-0.1027;
747.3000;0.9467;-0.1120;
747.6000;0.9475;-0.1120;
747.9000;0.9483;-0.1190;
748.2000;0.9475;-0.1120;
748.5000;0.9475;-0.1120;
748.8000;0.9475;-0.1027;
749.1000;0.9467;-0.1050;
749.4000;0.9459;-0.0934;
749.7000;0.9459;-0.0910;
750.0000;0.9451;-0.0934;
750.3000;0.9467;-0.0910;
750.6000;0.9508;-0.0817;
750.9000;0.9442;-0.1027;
751.2000;0.9426;-0.1144;
751.5000;0.9459;-0.1120;
751.8000;0.9475;-0.1074;
752.1000;0.9442;-0.1144;
752.4000;0.9434;-0.1120;
752.7000;0.9426;-0.1074;
753.0000;0.9426;-0.1144;
753.3000;0.9410;-0.1027;
753.6000;0.9459;-0.0864;
753.9000;0.9426;-0.1004;
754.2000;0.9434;-0.0957;
754.5000;0.9434;-0.1074;
754.8000;0.9426;-0.1027;
755.1000;0.9418;-0.1050;
755.4000;0.9394;-0.1074;
755.7000;0.9410;-0.1074;
756.0000;0.9402;-0.1097;
756.3000;0.9394;-0.1144;
756.6000;0.9402;-0.1050;
756.9000;0.9345;-0.1097;
757.2000;0.9394;-0.0980;
757.5000;0.9402;-0.0840;
757.8000;0.9385;-0.0864;
758.1000;0.9434;-0.0794;
758.4000;0.9394;-0.0840;
758.7000;0.9377;-0.0934;
759.0000;0.9377;-0.0934;
759.3000;0.9385;-0.0840;
759.6000;0.9434;-0.0770;
759.9000;0.9385;-0.0864;
760.2000;0.9353;-0.0887;
760.5000;0.9369;-0.0864;
760.8000;0.9361;-0.0864;
761.1000;0.9361;-0.0957;
761.4000;0.9361;-0.0957;
761.7000;0.9328;-0.0957;
762.0000;0.9320;-0.1004;
762.3000;0.9345;-0.0817;
762.6000;0.9353;-0.0794;
762.9000;0.9361;-0.0747;
763.2000;0.9328;-0.0794;
763.5000;0.9394;-0.0677;
763.8000;0.9337;-0.0794;
764.1000;0.9337;-0.0817;
764.4000;0.9353;-0.0770;
764.7000;0.9345;-0.0794;
765.0000;0.9255;-0.0980;
765.3000;0.9337;-0.0840;
765.6000;0.9337;-0.0934;
765.9000;0.9320;-0.0934;
766.2000;0.9328;-0.0957;
766.5000;0.9296;-0.1097;
766.8000;0.9288;-0.1144;
767.1000;0.9328;-0.1004;
767.4000;0.9288;-0.1027;
767.7000;0.9337;-0.0980;
768.0000;0.9296;-0.1050;
768.3000;0.9304;-0.1004;
768.6000;0.9304;-0.1120;
768.9000;0.9296;-0.1027;
769.2000;0.9271;-0.1074;
769.5000;0.9296;-0.0980;
769.8000;0.9263;-0.1027;
770.1000;0.9280;-0.0957;
770.4000;0.9280;-0.0910;
770.7000;0.9263;-0.0957;
771.0000;0.9288;-0.0934;
771.3000;0.9247;-0.1027;
771.6000;0.9271;-0.0864;
771.9000;0.9288;-0.0887;
772.2000;0.9255;-0.1004;
772.5000;0.9280;-0.1004;
772.8000;0.9247;-0.1097;
773.1000;0.9263;-0.1074;
773.4000;0.9263;-0.0957;
773.7000;0.9247;-0.1027;
774.0000;0.9206;-0.1190;
774.3000;0.9263;-0.1027;
774.6000;0.9288;-0.0887;
774.9000;0.9247;-0.0934;
775.2000;0.9320;-0.0840;
775.5000;0.9239;-0.0980;
775.8000;0.9271;-0.1027;
776.1000;0.9255;-0.1027;
776.4000;0.9263;-0.1027;
776.7000;0.9239;-0.1050;
777.0000;0.9247;-0.1074;
777.3000;0.9255;-0.1050;
777.6000;0.9255;-0.0980;
777.9000;0.9247;-0.0934;
778.2000;0.9214;-0.0957;
778.5000;0.9231;-0.0887;
778.8000;0.9239;-0.0910;
779.1000;0.9223;-0.1004;
779.4000;0.9206;-0.0957;
779.7000;0.9231;-0.0794;
780.0000;0.9214;-0.0840;
780.3000;0.9223;-0.0840;
780.6000;0.9214;-0.0864;
780.9000;0.9206;-0.0934;
781.2000;0.9206;-0.0957;
781.5000;0.9214;-0.0980;
781.8000;0.9206;-0.0980;
782.1000;0.9198;-0.0957;
782.4000;0.9206;-0.0957;
782.7000;0.9198;-0.0840;
783.0000;0.9198;-0.0840;
783.3000;0.9182;-0.0840;
783.6000;0.9174;-0.0864;
783.9000;0.9206;-0.0770;
784.2000;0.9198;-0.0700;
784.5000;0.9141;-0.0840;
784.8000;0.9174;-0.0794;
785.1000;0.9182;-0.0770;
785.4000;0.9174;-0.0817;
785.7000;0.9149;-0.0840;
786.0000;0.9182;-0.0794;
786.3000;0.9174;-0.0794;
786.6000;0.9182;-0.0770;
786.9000;0.9182;-0.0770;
787.2000;0.9109;-0.0934;
787.5000;0.9174;-0.0840;
787.8000;0.9182;-0.0724;
788.1000;0.9174;-0.0724;
788.4000;0.9166;-0.0700;
788.7000;0.9141;-0.0747;
789.0000;0.9174;-0.0677;
789.3000;0.9158;-0.0747;
789.6000;0.9125;-0.0770;
789.9000;0.9133;-0.0700;
790.2000;0.9158;-0.0630;
790.5000;0.9141;-0.0724;
790.8000;0.9149;-0.0747;
791.1000;0.9133;-0.1004;
791.4000;0.9141;-0.1050;
791.7000;0.9133;-0.1027;
792.0000;0.9133;-0.1027;
792.3000;0.9141;-0.1027;
792.6000;0.9149;-0.0957;
792.9000;0.9133;-0.0980;
793.2000;0.9141;-0.0934;
793.5000;0.9133;-0.0957;
793.8000;0.9133;-0.1004;
794.1000;0.9149;-0.1027;
794.4000;0.9117;-0.1167;
794.7000;0.9076;-0.1214;
795.0000;0.9133;-0.1097;
795.3000;0.9101;-0.1097;
795.6000;0.9109;-0.1074;
795.9000;0.9092;-0.1097;
796.2000;0.9092;-0.1050;
796.5000;0.9109;-0.1074;
796.8000;0.9117;-0.1027;
797.1000;0.9109;-0.0980;
797.4000;0.9092;-0.1050;
797.7000;0.9101;-0.0980;
798.0000;0.9092;-0.0887;
798.3000;0.9109;-0.0864;
798.6000;0.9092;-0.0910;
798.9000;0.9068;-0.0957;
799.2000;0.9092;-0.0957;
799.5000;0.9084;-0.0864;
799.8000;0.9076;-0.0957;
800.1000;0.9084;-0.0980;
800.4000;0.9076;-0.1097;
800.7000;0.9084;-0.1097;
801.0000;0.9092;-0.1167;
801.3000;0.9076;-0.1144;
801.6000;0.9092;-0.1050;
801.9000;0.9052;-0.1074;
802.2000;0.9076;-0.1097;
802.5000;0.9084;-0.1050;
802.8000;0.9084;-0.1004;
803.1000;0.9076;-0.1004;
803.4000;0.9052;-0.1027;
803.7000;0.9060;-0.1027;
804.0000;0.9052;-0.1004;
804.3000;0.9068;-0.0910;
804.6000;0.9068;-0.0980;
804.9000;0.9052;-0.1027;
805.2000;0.9052;-0.0980;
805.5000;0.9052;-0.0910;
805.8000;0.9027;-0.0887;
806.1000;0.9035;-0.0840;
806.4000;0.9052;-0.0840;
806.7000;0.9052;-0.0770;
807.0000;0.9052;-0.0724;
807.3000;0.9052;-0.0724;
807.6000;0.9019;-0.0770;
807.9000;0.9052;-0.0794;
808.2000;0.9076;-0.0794;
808.5000;0.9052;-0.0817;
808.8000;0.9035;-0.0770;
809.1000;0.9019;-0.0817;
809.4000;0.9035;-0.0747;
809.7000;0.9052;-0.0724;
810.0000;0.9035;-0.0770;
810.3000;0.9068;-0.0677;
810.6000;0.9027;-0.0794;
810.9000;0.9019;-0.0864;
811.2000;0.9027;-0.0957;
811.5000;0.9027;-0.0934;
811.8000;0.9052;-0.0910;
812.1000;0.9027;-0.0934;
812.4000;0.9052;-0.0980;
812.7000;0.9019;-0.1120;
813.0000;0.9011;-0.1167;
813.3000;0.9027;-0.1120;
813.6000;0.9027;-0.1027;
813.9000;0.9019;-0.1074;
814.2000;0.9052;-0.1027;
814.5000;0.9003;-0.1050;
814.8000;0.8987;-0.1050;
815.1000;0.9011;-0.1050;
815.4000;0.9011;-0.1120;
815.7000;0.9044;-0.1027;
816.0000;0.9011;-0.1050;
816.3000;0.9003;-0.1050;
816.6000;0.8987;-0.1004;
816.9000;0.8987;-0.0887;
817.2000;0.9003;-0.0817;
817.5000;0.9003;-0.0770;
817.8000;0.8978;-0.0864;
818.1000;0.9003;-0.0887;
818.4000;0.8987;-0.0794;
818.7000;0.8995;-0.0840;
819.0000;0.8995;-0.0887;
819.3000;0.8987;-0.0910;
819.6000;0.8987;-0.0887;
819.9000;0.8978;-0.0864;
820.2000;0.8978;-0.0887;
820.5000;0.8995;-0.0934;
820.8000;0.8987;-0.0980;
821.1000;0.8978;-0.0980;
821.4000;0.8970;-0.0980;
821.7000;0.9011;-0.0864;
822.0000;0.8954;-0.0980;
822.3000;0.9044;-0.0794;
822.6000;0.8962;-0.1004;
822.9000;0.8954;-0.0957;
823.2000;0.8970;-0.0957;
823.5000;0.8970;-0.0934;
823.8000;0.8954;-0.0910;
824.1000;0.8946;-0.0910;
824.4000;0.8946;-0.0957;
824.7000;0.8970;-0.1004;
825.0000;0.8946;-0.1074;
825.3000;0.8962;-0.1050;
825.6000;0.8962;-0.0980;
825.9000;0.8946;-0.1004;
826.2000;0.8946;-0.1004;
826.5000;0.8946;-0.1004;
826.8000;0.8987;-0.0934;
827.1000;0.8889;-0.1097;
827.4000;0.8938;-0.1027;
827.7000;0.8930;-0.1027;
828.0000;0.8921;-0.1050;
828.3000;0.8938;-0.0934;
828.6000;0.8938;-0.0957;
828.9000;0.8946;-0.0980;
829.2000;0.8938;-0.1074;
829.5000;0.8946;-0.1027;
829.8000;0.8938;-0.1050;
830.1000;0.8864;-0.1260;
830.4000;0.8938;-0.1097;
830.7000;0.8921;-0.1050;
831.0000;0.8938;-0.0887;
831.3000;0.8930;-0.0817;
831.6000;0.8930;-0.0770;
831.9000;0.8921;-0.0770;
832.2000;0.8913;-0.0770;
832.5000;0.8921;-0.0770;
832.8000;0.8905;-0.0794;
833.1000;0.8905;-0.0864;
833.4000;0.8913;-0.0864;
833.7000;0.8913;-0.0864;
834.0000;0.8921;-0.0817;
834.3000;0.8921;-0.0887;
834.6000;0.8873;-0.1004;
834.9000;0.8905;-0.0864;
835.2000;0.8873;-0.0957;
835.5000;0.8913;-0.0864;
835.8000;0.8897;-0.0887;
836.1000;0.8905;-0.0864;
836.4000;0.8897;-0.0794;
836.7000;0.8856;-0.0864;
837.0000;0.8873;-0.0794;
837.3000;0.8889;-0.0910;
837.6000;0.8881;-0.0910;
837.9000;0.8889;-0.0864;
838.2000;0.8897;-0.0864;
838.5000;0.8889;-0.1004;
838.8000;0.8881;-0.1027;
839.1000;0.8889;-0.1027;
839.4000;0.8897;-0.1027;
839.7000;0.8897;-0.1027;
840.0000;0.8881;-0.1097;
840.3000;0.8881;-0.0980;
840.6000;0.8881;-0.0864;
840.9000;0.8913;-0.0817;
841.2000;0.8881;-0.0910;
841.5000;0.8873;-0.0980;
841.8000;0.8913;-0.0934;
842.1000;0.8881;-0.0934;
842.4000;0.8873;-0.0957;
842.7000;0.8881;-0.0817;
843.0000;0.8881;-0.0840;
843.3000;0.8905;-0.0864;
843.6000;0.8864;-0.0934;
843.9000;0.8881;-0.0887;
844.2000;0.8848;-0.0910;
844.5000;0.8856;-0.0864;
844.8000;0.8864;-0.0817;
845.1000;0.8864;-0.0817;
845.4000;0.8864;-0.0934;
845.7000;0.8913;-0.0840;
846.0000;0.8864;-0.0910;
846.3000;0.8897;-0.0794;
846.6000;0.8873;-0.0934;
846.9000;0.8881;-0.0887;
847.2000;0.8864;-0.0817;
847.5000;0.8856;-0.0864;
847.8000;0.8832;-0.0980;
848.1000;0.8881;-0.0910;
848.4000;0.8848;-0.1004;
848.7000;0.8832;-0.1004;
849.0000;0.8824;-0.1050;
849.3000;0.8832;-0.0887;
849.6000;0.8856;-0.0864;
849.9000;0.8848;-0.0910;
850.2000;0.8840;-0.0980;
850.5000;0.8832;-0.1097;
850.8000;0.8824;-0.1120;
851.1000;0.8832;-0.1074;
851.4000;0.8840;-0.1027;
851.7000;0.8856;-0.1027;
852.0000;0.8856;-0.1004;
852.3000;0.8840;-0.1027;
852.6000;0.8832;-0.0934;
852.9000;0.8816;-0.1004;
853.2000;0.8848;-0.0910;
853.5000;0.8840;-0.0934;
853.8000;0.8832;-0.0980;
854.1000;0.8840;-0.1004;
854.4000;0.8807;-0.1027;
854.7000;0.8807;-0.1004;
855.0000;0.8807;-0.1050;
855.3000;0.8824;-0.0980;
855.6000;0.8840;-0.0934;
855.9000;0.8881;-0.0864;
856.2000;0.8816;-0.0910;
856.5000;0.8816;-0.0817;
856.8000;0.8791;-0.0770;
857.1000;0.8832;-0.0794;
857.4000;0.8807;-0.0887;
857.7000;0.8799;-0.0864;
858.0000;0.8799;-0.0794;
858.3000;0.8832;-0.0747;
858.6000;0.8824;-0.0677;
858.9000;0.8816;-0.0700;
859.2000;0.8767;-0.0817;
859.5000;0.8799;-0.0840;
859.8000;0.8816;-0.0864;
860.1000;0.8840;-0.0770;
860.4000;0.8759;-0.0934;
860.7000;0.8791;-0.0887;
861.0000;0.8799;-0.0840;
861.3000;0.8799;-0.0817;
861.6000;0.8742;-0.0887;
861.9000;0.8791;-0.0700;
862.2000;0.8791;-0.0817;
862.5000;0.8783;-0.0840;
862.8000;0.8791;-0.0840;
863.1000;0.8775;-0.0840;
863.4000;0.8791;-0.0794;
863.7000;0.8791;-0.0700;
864.0000;0.8775;-0.0724;
864.3000;0.8775;-0.0770;
864.6000;0.8775;-0.0724;
864.9000;0.8791;-0.0724;
865.2000;0.8783;-0.0817;
865.5000;0.8767;-0.0840;
865.8000;0.8775;-0.0887;
866.1000;0.8767;-0.0934;
866.4000;0.8791;-0.0957;
866.7000;0.8767;-0.0864;
867.0000;0.8759;-0.0794;
867.3000;0.8751;-0.0864;
867.6000;0.8767;-0.0770;
867.9000;0.8767;-0.0794;
868.2000;0.8767;-0.0794;
868.5000;0.8767;-0.0817;
868.8000;0.8775;-0.0770;
869.1000;0.8759;-0.0910;
869.4000;0.8759;-0.0910;
869.7000;0.8775;-0.0910;
870.0000;0.8734;-0.0910;
870.3000;0.8751;-0.0934;
870.6000;0.8734;-0.0980;
870.9000;0.8767;-0.0910;
871.2000;0.8742;-0.0887;
871.5000;0.8751;-0.0887;
871.8000;0.8759;-0.0840;
872.1000;0.8751;-0.0817;
872.4000;0.8783;-0.0747;
872.7000;0.8767;-0.0840;
873.0000;0.8775;-0.0910;
873.3000;0.8775;-0.0934;
873.6000;0.8767;-0.0910;
873.9000;0.8751;-0.0910;
874.2000;0.8751;-0.0934;
874.5000;0.8734;-0.0934;
874.8000;0.8751;-0.0910;
875.1000;0.8742;-0.0980;
875.4000;0.8742;-0.0910;
875.7000;0.8742;-0.0910;
876.0000;0.8734;-0.0957;
876.3000;0.8742;-0.0934;
876.6000;0.8718;-0.0980;
876.9000;0.8702;-0.1004;
877.2000;0.8742;-0.0910;
877.5000;0.8718;-0.0840;
877.8000;0.8734;-0.0840;
878.1000;0.8767;-0.0864;
878.4000;0.8726;-0.1050;
878.7000;0.8718;-0.1027;
879.0000;0.8742;-0.0887;
879.3000;0.8710;-0.1050;
879.6000;0.8726;-0.0957;
879.9000;0.8718;-0.1027;
880.2000;0.8677;-0.1050;
880.5000;0.8718;-0.0887;
880.8000;0.8726;-0.0887;
881.1000;0.8726;-0.0864;
881.4000;0.8702;-0.0864;
881.7000;0.8734;-0.0817;
882.0000;0.8710;-0.0817;
882.3000;0.8718;-0.0724;
882.6000;0.8702;-0.0770;
882.9000;0.8734;-0.0700;
883.2000;0.8653;-0.0724;
883.5000;0.8734;-0.0537;
883.8000;0.8702;-0.0560;
884.1000;0.8710;-0.0537;
884.4000;0.8710;-0.0537;
884.7000;0.8694;-0.0654;
885.0000;0.8726;-0.0560;
885.3000;0.8702;-0.0607;
885.6000;0.8702;-0.0700;
885.9000;0.8694;-0.0724;
886.2000;0.8677;-0.0770;
886.5000;0.8702;-0.0677;
886.8000;0.8677;-0.0724;
887.1000;0.8702;-0.0654;
887.4000;0.8702;-0.0677;
887.7000;0.8702;-0.0700;
888.0000;0.8718;-0.0700;
888.3000;0.8710;-0.0654;
888.6000;0.8718;-0.0677;
888.9000;0.8669;-0.0840;
889.2000;0.8726;-0.0817;
889.5000;0.8710;-0.0817;
889.8000;0.8751;-0.0770;
890.1000;0.8702;-0.0817;
890.4000;0.8694;-0.0770;
890.7000;0.8685;-0.0817;
891.0000;0.8669;-0.0840;
891.3000;0.8677;-0.0817;
891.6000;0.8653;-0.0864;
891.9000;0.8694;-0.0840;
892.2000;0.8734;-0.0770;
892.5000;0.8685;-0.0840;
892.8000;0.8685;-0.0770;
893.1000;0.8702;-0.0700;
893.4000;0.8677;-0.0747;
893.7000;0.8685;-0.0677;
894.0000;0.8669;-0.0654;
894.3000;0.8677;-0.0654;
894.6000;0.8694;-0.0560;
894.9000;0.8669;-0.0654;
895.2000;0.8669;-0.0724;
895.5000;0.8677;-0.0654;
895.8000;0.8677;-0.0654;
896.1000;0.8685;-0.0654;
896.4000;0.8669;-0.0747;
896.7000;0.8661;-0.0770;
897.0000;0.8677;-0.0794;
897.3000;0.8669;-0.0817;
897.6000;0.8637;-0.0864;
897.9000;0.8628;-0.0864;
898.2000;0.8661;-0.0700;
898.5000;0.8669;-0.0654;
898.8000;0.8653;-0.0630;
899.1000;0.8645;-0.0630;
899.4000;0.8661;-0.0513;
899.7000;0.8694;-0.0490;
900.0000;0.8645;-0.0560;
900.3000;0.8661;-0.0467;
900.6000;0.8653;-0.0513;
900.9000;0.8653;-0.0654;
901.2000;0.8661;-0.0724;
901.5000;0.8637;-0.0747;
901.8000;0.8628;-0.0724;
902.1000;0.8645;-0.0584;
902.4000;0.8645;-0.0630;
902.7000;0.8653;-0.0630;
903.0000;0.8669;-0.0584;
903.3000;0.8604;-0.0770;
903.6000;0.8677;-0.0654;
903.9000;0.8645;-0.0630;
904.2000;0.8726;-0.0373;
904.5000;0.8653;-0.0513;
904.8000;0.8661;-0.0490;
905.1000;0.8653;-0.0513;
905.4000;0.8653;-0.0584;
905.7000;0.8637;-0.0537;
906.0000;0.8620;-0.0560;
906.3000;0.8555;-0.0724;
906.6000;0.8620;-0.0607;
906.9000;0.8620;-0.0747;
907.2000;0.8710;-0.0584;
907.5000;0.8653;-0.0724;
907.8000;0.8628;-0.0770;
908.1000;0.8677;-0.0654;
908.4000;0.8628;-0.0770;
908.7000;0.8612;-0.0770;
909.0000;0.8645;-0.0747;
909.3000;0.8637;-0.0817;
909.6000;0.8628;-0.0794;
909.9000;0.8653;-0.0724;
910.2000;0.8588;-0.0840;
910.5000;0.8628;-0.0677;
910.8000;0.8628;-0.0677;
911.1000;0.8637;-0.0770;
911.4000;0.8612;-0.0817;
911.7000;0.8612;-0.0817;
912.0000;0.8628;-0.0794;
912.3000;0.8612;-0.0724;
912.6000;0.8612;-0.0700;
912.9000;0.8604;-0.0677;
913.2000;0.8604;-0.0584;
913.5000;0.8596;-0.0584;
913.8000;0.8620;-0.0513;
914.1000;0.8620;-0.0513;
914.4000;0.8596;-0.0607;
914.7000;0.8604;-0.0630;
915.0000;0.8653;-0.0490;
915.3000;0.8604;-0.0584;
915.6000;0.8604;-0.0584;
915.9000;0.8604;-0.0584;
916.2000;0.8612;-0.0513;
916.5000;0.8620;-0.0560;
916.8000;0.8604;-0.0607;
917.1000;0.8645;-0.0537;
917.4000;0.8612;-0.0607;
917.7000;0.8604;-0.0700;
918.0000;0.8604;-0.0607;
918.3000;0.8604;-0.0607;
918.6000;0.8596;-0.0677;
918.9000;0.8612;-0.0584;
919.2000;0.8596;-0.0654;
919.5000;0.8588;-0.0630;
919.8000;0.8588;-0.0654;
920.1000;0.8612;-0.0584;
920.4000;0.8596;-0.0700;
920.7000;0.8596;-0.0677;
921.0000;0.8604;-0.0654;
921.3000;0.8604;-0.0700;
921.6000;0.8604;-0.0747;
921.9000;0.8604;-0.0747;
922.2000;0.8596;-0.0677;
922.5000;0.8580;-0.0724;
922.8000;0.8580;-0.0724;
923.1000;0.8580;-0.0724;
923.4000;0.8580;-0.0724;
923.7000;0.8596;-0.0724;
924.0000;0.8588;-0.0724;
924.3000;0.8523;-0.0794;
924.6000;0.8539;-0.0700;
924.9000;0.8628;-0.0443;
925.2000;0.8571;-0.0513;
925.5000;0.8580;-0.0490;
925.8000;0.8580;-0.0513;
926.1000;0.8596;-0.0443;
926.4000;0.8563;-0.0560;
926.7000;0.8571;-0.0537;
927.0000;0.8563;-0.0537;
927.3000;0.8571;-0.0584;
927.6000;0.8547;-0.0630;
927.9000;0.8563;-0.0630;
928.2000;0.8555;-0.0630;
928.5000;0.8555;-0.0584;
928.8000;0.8555;-0.0630;
929.1000;0.8563;-0.0630;
929.4000;0.8547;-0.0630;
929.7000;0.8555;-0.0560;
930.0000;0.8571;-0.0560;
930.3000;0.8580;-0.0513;
930.6000;0.8498;-0.0677;
930.9000;0.8563;-0.0537;
931.2000;0.8563;-0.0584;
931.5000;0.8563;-0.0560;
931.8000;0.8482;-0.0747;
932.1000;0.8580;-0.0724;
932.4000;0.8571;-0.0817;
932.7000;0.8563;-0.0864;
933.0000;0.8555;-0.0817;
933.3000;0.8555;-0.0794;
933.6000;0.8555;-0.0794;
933.9000;0.8531;-0.0794;
934.2000;0.8563;-0.0700;
934.5000;0.8571;-0.0654;
934.8000;0.8531;-0.0747;
935.1000;0.8604;-0.0584;
935.4000;0.8555;-0.0700;
935.7000;0.8539;-0.0724;
936.0000;0.8555;-0.0724;
936.3000;0.8547;-0.0817;
936.6000;0.8555;-0.0817;
936.9000;0.8555;-0.0770;
937.2000;0.8490;-0.0817;
937.5000;0.8547;-0.0677;
937.8000;0.8498;-0.0817;
938.1000;0.8523;-0.0700;
938.4000;0.8555;-0.0630;
938.7000;0.8539;-0.0630;
939.0000;0.8539;-0.0630;
939.3000;0.8539;-0.0724;
939.6000;0.8539;-0.0770;
939.9000;0.8547;-0.0677;
940.2000;0.8531;-0.0700;
940.5000;0.8523;-0.0794;
940.8000;0.8531;-0.0817;
941.1000;0.8547;-0.0630;
941.4000;0.8523;-0.0654;
941.7000;0.8514;-0.0677;
942.0000;0.8523;-0.0630;
942.3000;0.8523;-0.0630;
942.6000;0.8523;-0.0630;
942.9000;0.8563;-0.0537;
943.2000;0.8539;-0.0584;
943.5000;0.8539;-0.0537;
943.8000;0.8531;-0.0584;
944.1000;0.8523;-0.0560;
944.4000;0.8531;-0.0490;
944.7000;0.8514;-0.0584;
945.0000;0.8498;-0.0654;
945.3000;0.8514;-0.0654;
945.6000;0.8514;-0.0607;
945.9000;0.8531;-0.0630;
946.2000;0.8539;-0.0607;
946.5000;0.8514;-0.0560;
946.8000;0.8531;-0.0537;
947.1000;0.8531;-0.0490;
947.4000;0.8539;-0.0467;
947.7000;0.8547;-0.0443;
948.0000;0.8539;-0.0584;
948.3000;0.8531;-0.0537;
948.6000;0.8523;-0.0560;
948.9000;0.8514;-0.0513;
949.2000;0.8539;-0.0397;
949.5000;0.8514;-0.0490;
949.8000;0.8506;-0.0513;
950.1000;0.8506;-0.0607;
950.4000;0.8523;-0.0654;
950.7000;0.8490;-0.0794;
951.0000;0.8514;-0.0770;
951.3000;0.8514;-0.0770;
951.6000;0.8498;-0.0700;
951.9000;0.8506;-0.0724;
952.2000;0.8498;-0.0677;
952.5000;0.8498;-0.0700;
952.8000;0.8514;-0.0584;
953.1000;0.8457;-0.0607;
953.4000;0.8506;-0.0537;
953.7000;0.8506;-0.0560;
954.0000;0.8490;-0.0560;
954.3000;0.8498;-0.0513;
954.6000;0.8506;-0.0467;
954.9000;0.8514;-0.0397;
955.2000;0.8490;-0.0443;
955.5000;0.8498;-0.0420;
955.8000;0.8547;-0.0327;
956.1000;0.8490;-0.0537;
956.4000;0.8498;-0.0513;
956.7000;0.8490;-0.0584;
957.0000;0.8482;-0.0584;
957.3000;0.8490;-0.0560;
957.6000;0.8506;-0.0420;
957.9000;0.8506;-0.0467;
958.2000;0.8523;-0.0467;
958.5000;0.8498;-0.0560;
958.8000;0.8474;-0.0654;
959.1000;0.8506;-0.0630;
959.4000;0.8498;-0.0584;
959.7000;0.8490;-0.0560;
960.0000;0.8498;-0.0467;
960.3000;0.8506;-0.0420;
960.6000;0.8482;-0.0467;
960.9000;0.8482;-0.0467;
961.2000;0.8457;-0.0513;
961.5000;0.8514;-0.0397;
961.8000;0.8506;-0.0397;
962.1000;0.8466;-0.0467;
962.4000;0.8474;-0.0490;
962.7000;0.8547;-0.0233;
963.0000;0.8466;-0.0443;
963.3000;0.8474;-0.0467;
963.6000;0.8474;-0.0513;
963.9000;0.8449;-0.0607;
964.2000;0.8482;-0.0537;
964.5000;0.8466;-0.0560;
964.8000;0.8466;-0.0584;
965.1000;0.8441;-0.0630;
965.4000;0.8474;-0.0560;
965.7000;0.8466;-0.0513;
966.0000;0.8457;-0.0513;
966.3000;0.8466;-0.0513;
966.6000;0.8474;-0.0490;
966.9000;0.8498;-0.0397;
967.2000;0.8482;-0.0513;
967.5000;0.8433;-0.0677;
967.8000;0.8482;-0.0537;
968.1000;0.8466;-0.0513;
968.4000;0.8474;-0.0490;
968.7000;0.8425;-0.0584;
969.0000;0.8457;-0.0420;
969.3000;0.8482;-0.0327;
969.6000;0.8482;-0.0350;
969.9000;0.8466;-0.0420;
970.2000;0.8474;-0.0327;
970.5000;0.8466;-0.0373;
970.8000;0.8449;-0.0397;
971.1000;0.8457;-0.0420;
971.4000;0.8449;-0.0420;
971.7000;0.8466;-0.0537;
972.0000;0.8466;-0.0490;
972.3000;0.8457;-0.0490;
972.6000;0.8466;-0.0490;
972.9000;0.8457;-0.0443;
973.2000;0.8490;-0.0420;
973.5000;0.8449;-0.0607;
973.8000;0.8457;-0.0654;
974.1000;0.8466;-0.0630;
974.4000;0.8466;-0.0700;
974.7000;0.8474;-0.0724;
975.0000;0.8514;-0.0630;
975.3000;0.8482;-0.0584;
975.6000;0.8457;-0.0584;
975.9000;0.8441;-0.0560;
976.2000;0.8425;-0.0607;
976.5000;0.8433;-0.0584;
976.8000;0.8441;-0.0607;
977.1000;0.8466;-0.0630;
977.4000;0.8441;-0.0607;
977.7000;0.8498;-0.0373;
978.0000;0.8523;-0.0233;
978.3000;0.8433;-0.0327;
978.6000;0.8449;-0.0327;
978.9000;0.8457;-0.0303;
979.2000;0.8466;-0.0233;
979.5000;0.8457;-0.0327;
979.8000;0.8466;-0.0373;
980.1000;0.8466;-0.0443;
980.4000;0.8449;-0.0607;
980.7000;0.8466;-0.0584;
981.0000;0.8449;-0.0537;
981.3000;0.8425;-0.0513;
981.6000;0.8441;-0.0537;
981.9000;0.8441;-0.0490;
982.2000;0.8433;-0.0513;
982.5000;0.8433;-0.0490;
982.8000;0.8474;-0.0443;
983.1000;0.8466;-0.0513;
983.4000;0.8449;-0.0537;
983.7000;0.8449;-0.0467;
984.0000;0.8441;-0.0420;
984.3000;0.8417;-0.0373;
984.6000;0.8441;-0.0350;
984.9000;0.8417;-0.0373;
985.2000;0.8425;-0.0233;
985.5000;0.8425;-0.0163;
985.8000;0.8425;-0.0257;
986.1000;0.8384;-0.0397;
986.4000;0.8425;-0.0280;
986.7000;0.8433;-0.0280;
987.0000;0.8425;-0.0303;
987.3000;0.8417;-0.0350;
987.6000;0.8433;-0.0443;
987.9000;0.8417;-0.0537;
988.2000;0.8433;-0.0397;
988.5000;0.8417;-0.0467;
988.8000;0.8425;-0.0443;
989.1000;0.8441;-0.0397;
989.4000;0.8441;-0.0443;
989.7000;0.8417;-0.0537;
990.0000;0.8417;-0.0677;
990.3000;0.8433;-0.0724;
990.6000;0.8409;-0.0747;
990.9000;0.8425;-0.0770;
991.2000;0.8425;-0.0794;
991.5000;0.8417;-0.0840;
991.8000;0.8441;-0.0724;
992.1000;0.8400;-0.0887;
992.4000;0.8417;-0.0910;
992.7000;0.8433;-0.0910;
993.0000;0.8384;-0.0980;
993.3000;0.8433;-0.0887;
993.6000;0.8417;-0.0910;
993.9000;0.8425;-0.0910;
994.2000;0.8417;-0.0864;
994.5000;0.8466;-0.0700;
994.8000;0.8417;-0.0840;
995.1000;0.8392;-0.0957;
995.4000;0.8409;-0.0910;
995.7000;0.8466;-0.0794;
996.0000;0.8417;-0.0957;
996.3000;0.8433;-0.0934;
996.6000;0.8417;-0.1004;
996.9000;0.8409;-0.0957;
997.2000;0.8400;-0.0957;
997.5000;0.8409;-0.0887;
997.8000;0.8417;-0.0840;
998.1000;0.8384;-0.0910;
998.4000;0.8327;-0.1027;
998.7000;0.8409;-0.0747;
999.0000;0.8433;-0.0770;
999.3000;0.8335;-0.1004;
999.6000;0.8400;-0.0957;
999.9000;0.8392;-0.0934;
1000.2000;0.8376;-0.0864;
1000.5000;0.8384;-0.0630;
1000.8000;0.8400;-0.0677;
1001.1000;0.8409;-0.0700;
1001.4000;0.8368;-0.0840;
1001.7000;0.8400;-0.0747;
1002.0000;0.8376;-0.0724;
1002.3000;0.8392;-0.0677;
1002.6000;0.8400;-0.0584;
1002.9000;0.8376;-0.0537;
1003.2000;0.8384;-0.0443;
1003.5000;0.8384;-0.0490;
1003.8000;0.8392;-0.0467;
1004.1000;0.8384;-0.0443;
1004.4000;0.8417;-0.0397;
1004.7000;0.8368;-0.0513;
1005.0000;0.8392;-0.0350;
1005.3000;0.8400;-0.0280;
1005.6000;0.8376;-0.0280;
1005.9000;0.8376;-0.0327;
1006.2000;0.8368;-0.0350;
1006.5000;0.8360;-0.0350;
1006.8000;0.8384;-0.0303;
1007.1000;0.8384;-0.0350;
1007.4000;0.8352;-0.0373;
1007.7000;0.8368;-0.0350;
1008.0000;0.8335;-0.0513;
1008.3000;0.8360;-0.0513;
1008.6000;0.8376;-0.0513;
1008.9000;0.8400;-0.0467;
1009.2000;0.8384;-0.0537;
1009.5000;0.8376;-0.0560;
1009.8000;0.8335;-0.0654;
1010.1000;0.8376;-0.0607;
1010.4000;0.8376;-0.0677;
1010.7000;0.8368;-0.0654;
1011.0000;0.8368;-0.0584;
1011.3000;0.8368;-0.0537;
1011.6000;0.8384;-0.0537;
1011.9000;0.8400;-0.0490;
1012.2000;0.8392;-0.0467;
1012.5000;0.8368;-0.0490;
1012.8000;0.8376;-0.0327;
1013.1000;0.8376;-0.0303;
1013.4000;0.8376;-0.0397;
1013.7000;0.8376;-0.0490;
1014.0000;0.8344;-0.0560;
1014.3000;0.8384;-0.0467;
1014.6000;0.8360;-0.0560;
1014.9000;0.8376;-0.0513;
1015.2000;0.8368;-0.0443;
1015.5000;0.8376;-0.0373;
1015.8000;0.8360;-0.0397;
1016.1000;0.8441;-0.0257;
1016.4000;0.8368;-0.0420;
1016.7000;0.8360;-0.0280;
1017.0000;0.8368;-0.0350;
1017.3000;0.8368;-0.0327;
1017.6000;0.8352;-0.0280;
1017.9000;0.8344;-0.0280;
1018.2000;0.8360;-0.0373;
1018.5000;0.8368;-0.0397;
1018.8000;0.8352;-0.0420;
1019.1000;0.8360;-0.0350;
1019.4000;0.8384;-0.0280;
1019.7000;0.8352;-0.0397;
1020.0000;0.8295;-0.0584;
1020.3000;0.8335;-0.0467;
1020.6000;0.8352;-0.0467;
1020.9000;0.8352;-0.0397;
1021.2000;0.8376;-0.0373;
1021.5000;0.8335;-0.0443;
1021.8000;0.8368;-0.0350;
1022.1000;0.8352;-0.0350;
1022.4000;0.8360;-0.0373;
1022.7000;0.8344;-0.0490;
1023.0000;0.8344;-0.0490;
1023.3000;0.8352;-0.0537;
1023.6000;0.8360;-0.0467;
1023.9000;0.8368;-0.0420;
1024.2000;0.8335;-0.0443;
1024.5000;0.8352;-0.0420;
1024.8000;0.8311;-0.0584;
1025.1000;0.8376;-0.0397;
1025.4000;0.8352;-0.0420;
1025.7000;0.8352;-0.0443;
1026.0000;0.8319;-0.0560;
1026.3000;0.8327;-0.0490;
1026.6000;0.8352;-0.0350;
1026.9000;0.8344;-0.0467;
1027.2000;0.8327;-0.0490;
1027.5000;0.8344;-0.0467;
1027.8000;0.8335;-0.0584;
1028.1000;0.8335;-0.0584;
1028.4000;0.8352;-0.0537;
1028.7000;0.8327;-0.0560;
1029.0000;0.8344;-0.0630;
1029.3000;0.8344;-0.0747;
1029.6000;0.8344;-0.0747;
1029.9000;0.8303;-0.0747;
1030.2000;0.8319;-0.0630;
1030.5000;0.8319;-0.0584;
1030.8000;0.8335;-0.0513;
1031.1000;0.8352;-0.0537;
1031.4000;0.8319;-0.0677;
1031.7000;0.8319;-0.0724;
1032.0000;0.8327;-0.0630;
1032.3000;0.8344;-0.0537;
1032.6000;0.8335;-0.0537;
1032.9000;0.8311;-0.0584;
1033.2000;0.8352;-0.0513;
1033.5000;0.8335;-0.0560;
1033.8000;0.8409;-0.0373;
1034.1000;0.8335;-0.0584;
1034.4000;0.8327;-0.0607;
1034.7000;0.8327;-0.0630;
1035.0000;0.8352;-0.0630;
1035.3000;0.8319;-0.0630;
1035.6000;0.8319;-0.0560;
1035.9000;0.8311;-0.0654;
1036.2000;0.8327;-0.0607;
1036.5000;0.8287;-0.0724;
1036.8000;0.8311;-0.0700;
1037.1000;0.8295;-0.0724;
1037.4000;0.8327;-0.0630;
1037.7000;0.8335;-0.0490;
1038.0000;0.8352;-0.0397;
1038.3000;0.8327;-0.0373;
1038.6000;0.8352;-0.0397;
1038.9000;0.8319;-0.0537;
1039.2000;0.8311;-0.0537;
1039.5000;0.8319;-0.0537;
1039.8000;0.8327;-0.0467;
1040.1000;0.8376;-0.0327;
1040.4000;0.8295;-0.0513;
1040.7000;0.8319;-0.0513;
1041.0000;0.8303;-0.0560;
1041.3000;0.8319;-0.0443;
1041.6000;0.8319;-0.0397;
1041.9000;0.8295;-0.0443;
1042.2000;0.8311;-0.0327;
1042.5000;0.8327;-0.0280;
1042.8000;0.8319;-0.0350;
1043.1000;0.8311;-0.0350;
1043.4000;0.8303;-0.0420;
1043.7000;0.8311;-0.0443;
1044.0000;0.8311;-0.0420;
1044.3000;0.8319;-0.0420;
1044.6000;0.8295;-0.0397;
1044.9000;0.8327;-0.0327;
1045.2000;0.8319;-0.0467;
1045.5000;0.8335;-0.0397;
1045.8000;0.8303;-0.0467;
1046.1000;0.8311;-0.0373;
1046.4000;0.8352;-0.0350;
1046.7000;0.8270;-0.0560;
1047.0000;0.8295;-0.0584;
1047.3000;0.8303;-0.0630;
1047.6000;0.8262;-0.0724;
1047.9000;0.8311;-0.0607;
1048.2000;0.8295;-0.0654;
1048.5000;0.8311;-0.0677;
1048.8000;0.8230;-0.0840;
1049.1000;0.8311;-0.0630;
1049.4000;0.8295;-0.0724;
1049.7000;0.8303;-0.0607;
1050.0000;0.8238;-0.0677;
1050.3000;0.8303;-0.0373;
1050.6000;0.8287;-0.0443;
1050.9000;0.8303;-0.0490;
1051.2000;0.8287;-0.0537;
1051.5000;0.8295;-0.0537;
1051.8000;0.8303;-0.0607;
1052.1000;0.8295;-0.0607;
1052.4000;0.8287;-0.0654;
1052.7000;0.8287;-0.0630;
1053.0000;0.8327;-0.0420;
1053.3000;0.8327;-0.0467;
1053.6000;0.8303;-0.0490;
1053.9000;0.8303;-0.0373;
1054.2000;0.8303;-0.0350;
1054.5000;0.8287;-0.0420;
1054.8000;0.8278;-0.0420;
1055.1000;0.8230;-0.0513;
1055.4000;0.8295;-0.0490;
1055.7000;0.8303;-0.0537;
1056.0000;0.8384;-0.0420;
1056.3000;0.8278;-0.0700;
1056.6000;0.8295;-0.0724;
1056.9000;0.8327;-0.0654;
1057.2000;0.8295;-0.0654;
1057.5000;0.8287;-0.0513;
1057.8000;0.8254;-0.0537;
1058.1000;0.8303;-0.0443;
1058.4000;0.8287;-0.0560;
1058.7000;0.8278;-0.0537;
1059.0000;0.8287;-0.0467;
1059.3000;0.8311;-0.0257;
1059.6000;0.8278;-0.0257;
1059.9000;0.8295;-0.0117;
1060.2000;0.8270;-0.0187;
1060.5000;0.8287;-0.0140;
1060.8000;0.8270;-0.0163;
1061.1000;0.8278;-0.0117;
1061.4000;0.8254;-0.0187;
1061.7000;0.8295;-0.0140;
1062.0000;0.8287;-0.0117;
1062.3000;0.8287;-0.0187;
1062.6000;0.8295;-0.0257;
1062.9000;0.8319;-0.0163;
1063.2000;0.8287;-0.0280;
1063.5000;0.8287;-0.0303;
1063.8000;0.8189;-0.0443;
1064.1000;0.8287;-0.0210;
1064.4000;0.8270;-0.0280;
1064.7000;0.8295;-0.0280;
1065.0000;0.8262;-0.0350;
1065.3000;0.8278;-0.0303;
1065.6000;0.8287;-0.0257;
1065.9000;0.8287;-0.0327;
1066.2000;0.8278;-0.0373;
1066.5000;0.8287;-0.0397;
1066.8000;0.8278;-0.0350;
1067.1000;0.8278;-0.0350;
1067.4000;0.8221;-0.0467;
1067.7000;0.8295;-0.0280;
1068.0000;0.8287;-0.0187;
1068.3000;0.8221;-0.0327;
1068.6000;0.8246;-0.0327;
1068.9000;0.8262;-0.0350;
1069.2000;0.8230;-0.0443;
1069.5000;0.8270;-0.0303;
1069.8000;0.8278;-0.0280;
1070.1000;0.8270;-0.0233;
1070.4000;0.8270;-0.0187;
1070.7000;0.8278;-0.0163;
1071.0000;0.8278;-0.0117;
1071.3000;0.8278;-0.0233;
1071.6000;0.8238;-0.0280;
1071.9000;0.8254;-0.0280;
1072.2000;0.8262;-0.0280;
1072.5000;0.8262;-0.0327;
1072.8000;0.8205;-0.0373;
1073.1000;0.8254;-0.0257;
1073.4000;0.8270;-0.0303;
1073.7000;0.8246;-0.0420;
1074.0000;0.8254;-0.0513;
1074.3000;0.8270;-0.0467;
1074.6000;0.8262;-0.0513;
1074.9000;0.8262;-0.0467;
1075.2000;0.8246;-0.0443;
1075.5000;0.8254;-0.0327;
1075.8000;0.8221;-0.0513;
1076.1000;0.8254;-0.0420;
1076.4000;0.8270;-0.0443;
1076.7000;0.8278;-0.0420;
1077.0000;0.8278;-0.0513;
1077.3000;0.8303;-0.0420;
1077.6000;0.8303;-0.0420;
1077.9000;0.8262;-0.0537;
1078.2000;0.8303;-0.0490;
1078.5000;0.8270;-0.0537;
1078.8000;0.8311;-0.0467;
1079.1000;0.8221;-0.0607;
1079.4000;0.8254;-0.0560;
1079.7000;0.8270;-0.0537;
1080.0000;0.8270;-0.0584;
1080.3000;0.8246;-0.0607;
1080.6000;0.8221;-0.0677;
1080.9000;0.8262;-0.0560;
1081.2000;0.8270;-0.0490;
1081.5000;0.8254;-0.0443;
1081.8000;0.8270;-0.0350;
1082.1000;0.8238;-0.0397;
1082.4000;0.8270;-0.0420;
1082.7000;0.8270;-0.0420;
1083.0000;0.8221;-0.0303;
1083.3000;0.8238;-0.0350;
1083.6000;0.8262;-0.0233;
1083.9000;0.8278;-0.0233;
1084.2000;0.8254;-0.0257;
1084.5000;0.8238;-0.0303;
1084.8000;0.8254;-0.0350;
1085.1000;0.8262;-0.0443;
1085.4000;0.8230;-0.0490;
1085.7000;0.8254;-0.0397;
1086.0000;0.8238;-0.0397;
1086.3000;0.8270;-0.0397;
1086.6000;0.8270;-0.0373;
1086.9000;0.8230;-0.0397;
1087.2000;0.8262;-0.0257;
1087.5000;0.8238;-0.0257;
1087.8000;0.8262;-0.0280;
1088.1000;0.8238;-0.0257;
1088.4000;0.8238;-0.0350;
1088.7000;0.8246;-0.0350;
1089.0000;0.8262;-0.0350;
1089.3000;0.8230;-0.0443;
1089.6000;0.8230;-0.0420;
1089.9000;0.8238;-0.0327;
1090.2000;0.8262;-0.0257;
1090.5000;0.8238;-0.0350;
1090.8000;0.8205;-0.0327;
1091.1000;0.8173;-0.0397;
1091.4000;0.8230;-0.0350;
1091.7000;0.8238;-0.0373;
1092.0000;0.8246;-0.0303;
1092.3000;0.8213;-0.0373;
1092.6000;0.8238;-0.0327;
1092.9000;0.8238;-0.0443;
1093.2000;0.8238;-0.0537;
1093.5000;0.8205;-0.0630;
1093.8000;0.8230;-0.0513;
1094.1000;0.8221;-0.0490;
1094.4000;0.8230;-0.0490;
1094.7000;0.8221;-0.0420;
1095.0000;0.8181;-0.0584;
1095.3000;0.8230;-0.0490;
1095.6000;0.8221;-0.0513;
1095.9000;0.8238;-0.0513;
1096.2000;0.8246;-0.0397;
1096.5000;0.8238;-0.0327;
1096.8000;0.8238;-0.0280;
1097.1000;0.8254;-0.0257;
1097.4000;0.8213;-0.0303;
1097.7000;0.8295;-0.0257;
1098.0000;0.8238;-0.0397;
1098.3000;0.8213;-0.0490;
1098.6000;0.8230;-0.0490;
1098.9000;0.8230;-0.0420;
1099.2000;0.8205;-0.0584;
1099.5000;0.8221;-0.0560;
1099.8000;0.8230;-0.0490;
1100.1000;0.8221;-0.0443;
1100.4000;0.8221;-0.0373;
1100.7000;0.8230;-0.0187;
1101.0000;0.8189;-0.0257;
1101.3000;0.8221;-0.0093;
1101.6000;0.8295;0.0070;
1101.9000;0.8262;-0.0093;
1102.2000;0.8213;-0.0187;
1102.5000;0.8221;-0.0233;
1102.8000;0.8230;-0.0257;
1103.1000;0.8230;-0.0350;
1103.4000;0.8197;-0.0490;
1103.7000;0.8230;-0.0420;
1104.0000;0.8205;-0.0490;
1104.3000;0.8221;-0.0443;
1104.6000;0.8205;-0.0513;
1104.9000;0.8213;-0.0513;
1105.2000;0.8221;-0.0467;
1105.5000;0.8221;-0.0420;
1105.8000;0.8205;-0.0397;
1106.1000;0.8205;-0.0373;
1106.4000;0.8205;-0.0350;
1106.7000;0.8278;-0.0257;
1107.0000;0.8181;-0.0443;
1107.3000;0.8197;-0.0303;
1107.6000;0.8197;-0.0280;
1107.9000;0.8295;-0.0023;
1108.2000;0.8213;-0.0187;
1108.5000;0.8213;-0.0187;
1108.8000;0.8189;-0.0257;
1109.1000;0.8205;-0.0280;
1109.4000;0.8221;-0.0233;
1109.7000;0.8230;-0.0163;
1110.0000;0.8238;-0.0093;
1110.3000;0.8213;-0.0210;
1110.6000;0.8213;-0.0233;
1110.9000;0.8238;-0.0117;
1111.2000;0.8205;-0.0303;
1111.5000;0.8221;-0.0303;
1111.8000;0.8197;-0.0233;
1112.1000;0.8221;-0.0117;
1112.4000;0.8205;-0.0117;
1112.7000;0.8213;-0.0070;
1113.0000;0.8205;-0.0070;
1113.3000;0.8238;0.0023;
1113.6000;0.8230;0.0000;
1113.9000;0.8189;-0.0093;
1114.2000;0.8221;-0.0070;
1114.5000;0.8262;-0.0047;
1114.8000;0.8213;-0.0163;
1115.1000;0.8189;-0.0210;
1115.4000;0.8189;-0.0303;
1115.7000;0.8246;-0.0187;
1116.0000;0.8189;-0.0280;
1116.3000;0.8189;-0.0327;
1116.6000;0.8148;-0.0420;
1116.9000;0.8213;-0.0257;
1117.2000;0.8254;-0.0070;
1117.5000;0.8181;-0.0233;
1117.8000;0.8197;-0.0163;
1118.1000;0.8197;-0.0140;
1118.4000;0.8213;-0.0117;
1118.7000;0.8197;-0.0187;
1119.0000;0.8197;-0.0210;
1119.3000;0.8270;-0.0023;
1119.6000;0.8197;-0.0233;
1119.9000;0.8205;-0.0257;
1120.2000;0.8197;-0.0303;
1120.5000;0.8197;-0.0303;
1120.8000;0.8197;-0.0303;
1121.1000;0.8213;-0.0280;
1121.4000;0.8213;-0.0280;
1121.7000;0.8197;-0.0280;
1122.0000;0.8205;-0.0233;
1122.3000;0.8205;-0.0233;
1122.6000;0.8213;-0.0187;
1122.9000;0.8205;-0.0257;
1123.2000;0.8189;-0.0257;
1123.5000;0.8213;-0.0117;
1123.8000;0.8246;-0.0070;
1124.1000;0.8197;-0.0117;
1124.4000;0.8197;-0.0093;
1124.7000;0.8197;-0.0117;
1125.0000;0.8254;-0.0070;
1125.3000;0.8189;-0.0187;
1125.6000;0.8156;-0.0233;
1125.9000;0.8213;-0.0093;
1126.2000;0.8205;-0.0257;
1126.5000;0.8197;-0.0303;
1126.8000;0.8205;-0.0257;
1127.1000;0.8213;-0.0257;
1127.4000;0.8205;-0.0210;
1127.7000;0.8189;-0.0210;
1128.0000;0.8189;-0.0327;
1128.3000;0.8181;-0.0490;
1128.6000;0.8173;-0.0537;
1128.9000;0.8164;-0.0677;
1129.2000;0.8189;-0.0654;
1129.5000;0.8164;-0.0724;
1129.8000;0.8189;-0.0700;
1130.1000;0.8189;-0.0560;
1130.4000;0.8189;-0.0537;
1130.7000;0.8156;-0.0513;
1131.0000;0.8164;-0.0490;
1131.3000;0.8164;-0.0490;
1131.6000;0.8189;-0.0397;
1131.9000;0.8173;-0.0350;
1132.2000;0.8181;-0.0373;
1132.5000;0.8205;-0.0350;
1132.8000;0.8181;-0.0443;
1133.1000;0.8230;-0.0257;
1133.4000;0.8181;-0.0327;
1133.7000;0.8189;-0.0327;
1134.0000;0.8189;-0.0303;
1134.3000;0.8181;-0.0280;
1134.6000;0.8164;-0.0140;
1134.9000;0.8173;-0.0093;
1135.2000;0.8181;-0.0140;
1135.5000;0.8181;-0.0187;
1135.8000;0.8173;-0.0280;
1136.1000;0.8156;-0.0327;
1136.4000;0.8164;-0.0327;
1136.7000;0.8164;-0.0397;
1137.0000;0.8164;-0.0397;
1137.3000;0.8189;-0.0420;
1137.6000;0.8181;-0.0280;
1137.9000;0.8156;-0.0303;
1138.2000;0.8156;-0.0397;
1138.5000;0.8164;-0.0373;
1138.8000;0.8164;-0.0373;
1139.1000;0.8189;-0.0443;
1139.4000;0.8173;-0.0490;
1139.7000;0.8173;-0.0373;
1140.0000;0.8173;-0.0280;
1140.3000;0.8164;-0.0280;
1140.6000;0.8164;-0.0257;
1140.9000;0.8173;-0.0163;
1141.2000;0.8132;-0.0210;
1141.5000;0.8164;-0.0163;
1141.8000;0.8148;-0.0233;
1142.1000;0.8124;-0.0210;
1142.4000;0.8164;-0.0117;
1142.7000;0.8156;-0.0023;
1143.0000;0.8148;-0.0093;
1143.3000;0.8156;-0.0140;
1143.6000;0.8164;-0.0210;
1143.9000;0.8156;-0.0280;
1144.2000;0.8173;-0.0233;
1144.5000;0.8164;-0.0257;
1144.8000;0.8181;-0.0280;
1145.1000;0.8173;-0.0327;
1145.4000;0.8164;-0.0443;
1145.7000;0.8173;-0.0443;
1146.0000;0.8173;-0.0327;
1146.3000;0.8156;-0.0397;
1146.6000;0.8189;-0.0280;
1146.9000;0.8189;-0.0280;
1147.2000;0.8148;-0.0327;
1147.5000;0.8148;-0.0350;
1147.8000;0.8156;-0.0327;
1148.1000;0.8173;-0.0327;
1148.4000;0.8173;-0.0303;
1148.7000;0.8164;-0.0303;
1149.0000;0.8124;-0.0397;
1149.3000;0.8173;-0.0327;
1149.6000;0.8156;-0.0280;
1149.9000;0.8156;-0.0280;
1150.2000;0.8156;-0.0257;
1150.5000;0.8173;-0.0257;
1150.8000;0.8173;-0.0233;
1151.1000;0.8173;-0.0210;
1151.4000;0.8164;-0.0187;
1151.7000;0.8156;-0.0163;
1152.0000;0.8148;-0.0280;
1152.3000;0.8156;-0.0280;
1152.6000;0.8148;-0.0280;
1152.9000;0.8140;-0.0257;
1153.2000;0.8156;-0.0163;
1153.5000;0.8148;-0.0210;
1153.8000;0.8140;-0.0233;
1154.1000;0.8148;-0.0280;
1154.4000;0.8156;-0.0257;
1154.7000;0.8148;-0.0327;
1155.0000;0.8173;-0.0280;
1155.3000;0.8148;-0.0210;
1155.6000;0.8156;-0.0163;
1155.9000;0.8132;-0.0257;
1156.2000;0.8156;-0.0117;
1156.5000;0.8148;-0.0117;
1156.8000;0.8148;-0.0140;
1157.1000;0.8156;-0.0117;
1157.4000;0.8148;-0.0093;
1157.7000;0.8148;-0.0140;
1158.0000;0.8148;-0.0187;
1158.3000;0.8116;-0.0257;
1158.6000;0.8140;-0.0233;
1158.9000;0.8148;-0.0187;
1159.2000;0.8140;-0.0210;
1159.5000;0.8148;-0.0233;
1159.8000;0.8156;-0.0257;
1160.1000;0.8156;-0.0303;
1160.4000;0.8156;-0.0257;
1160.7000;0.8148;-0.0210;
1161.0000;0.8156;-0.0140;
1161.3000;0.8156;-0.0140;
1161.6000;0.8148;-0.0257;
1161.9000;0.8140;-0.0327;
1162.2000;0.8107;-0.0467;
1162.5000;0.8140;-0.0350;
1162.8000;0.8132;-0.0350;
1163.1000;0.8148;-0.0280;
1163.4000;0.8124;-0.0280;
1163.7000;0.8164;-0.0187;
1164.0000;0.8148;-0.0280;
1164.3000;0.8156;-0.0257;
1164.6000;0.8099;-0.0303;
1164.9000;0.8116;-0.0280;
1165.2000;0.8140;-0.0233;
1165.5000;0.8124;-0.0257;
1165.8000;0.8140;-0.0187;
1166.1000;0.8132;-0.0140;
1166.4000;0.8132;-0.0210;
1166.7000;0.8124;-0.0373;
1167.0000;0.8132;-0.0420;
1167.3000;0.8140;-0.0350;
1167.6000;0.8156;-0.0397;
1167.9000;0.8140;-0.0397;
1168.2000;0.8132;-0.0397;
1168.5000;0.8148;-0.0327;
1168.8000;0.8140;-0.0257;
1169.1000;0.8132;-0.0397;
1169.4000;0.8083;-0.0397;
1169.7000;0.8116;-0.0327;
1170.0000;0.8148;-0.0280;
1170.3000;0.8132;-0.0303;
1170.6000;0.8107;-0.0303;
1170.9000;0.8132;-0.0257;
1171.2000;0.8148;-0.0350;
1171.5000;0.8132;-0.0397;
1171.8000;0.8140;-0.0257;
1172.1000;0.8132;-0.0233;
1172.4000;0.8140;-0.0187;
1172.7000;0.8140;-0.0047;
1173.0000;0.8140;-0.0070;
1173.3000;0.8124;-0.0093;
1173.6000;0.8148;-0.0023;
1173.9000;0.8164;-0.0070;
1174.2000;0.8067;-0.0233;
1174.5000;0.8132;-0.0163;
1174.8000;0.8132;-0.0187;
1175.1000;0.8132;-0.0257;
1175.4000;0.8124;-0.0257;
1175.7000;0.8124;-0.0257;
1176.0000;0.8116;-0.0257;
1176.3000;0.8124;-0.0233;
1176.6000;0.8148;-0.0233;
1176.9000;0.8124;-0.0303;
1177.2000;0.8124;-0.0397;
1177.5000;0.8132;-0.0397;
1177.8000;0.8132;-0.0420;
1178.1000;0.8124;-0.0467;
1178.4000;0.8107;-0.0373;
1178.7000;0.8124;-0.0233;
1179.0000;0.8140;-0.0187;
1179.3000;0.8107;-0.0303;
1179.6000;0.8116;-0.0280;
1179.9000;0.8099;-0.0257;
1180.2000;0.8107;-0.0210;
1180.5000;0.8132;-0.0187;
1180.8000;0.8059;-0.0327;
1181.1000;0.8221;0.0047;
1181.4000;0.8132;-0.0093;
1181.7000;0.8124;-0.0023;
1182.0000;0.8050;-0.0093;
1182.3000;0.8059;-0.0070;
1182.6000;0.8132;0.0140;
1182.9000;0.8132;0.0163;
1183.2000;0.8140;0.0117;
1183.5000;0.8124;0.0000;
1183.8000;0.8099;-0.0023;
1184.1000;0.8132;0.0093;
1184.4000;0.8107;0.0047;
1184.7000;0.8059;-0.0070;
1185.0000;0.8050;-0.0070;
1185.3000;0.8124;0.0163;
1185.6000;0.8132;0.0233;
1185.9000;0.8116;0.0163;
1186.2000;0.8140;0.0117;
1186.5000;0.8132;0.0047;
1186.8000;0.8156;0.0117;
1187.1000;0.8116;0.0023;
1187.4000;0.8132;-0.0023;
1187.7000;0.8059;-0.0373;
1188.0000;0.8132;-0.0140;
1188.3000;0.8132;-0.0140;
1188.6000;0.8116;-0.0163;
1188.9000;0.8148;-0.0023;
1189.2000;0.8124;-0.0117;
1189.5000;0.8164;0.0000;
1189.8000;0.8091;-0.0117;
1190.1000;0.8116;-0.0117;
1190.4000;0.8124;-0.0140;
1190.7000;0.8124;-0.0187;
1191.0000;0.8099;-0.0233;
1191.3000;0.8116;-0.0257;
1191.6000;0.8107;-0.0233;
1191.9000;0.8116;-0.0210;
1192.2000;0.8116;-0.0163;
1192.5000;0.8075;-0.0257;
1192.8000;0.8156;-0.0093;
1193.1000;0.8124;-0.0210;
1193.4000;0.8099;-0.0210;
1193.7000;0.8116;-0.0187;
1194.0000;0.8099;-0.0280;
1194.3000;0.8116;-0.0187;
1194.6000;0.8099;-0.0117;
1194.9000;0.8099;-0.0140;
1195.2000;0.8099;-0.0023;
1195.5000;0.8091;-0.0163;
1195.8000;0.8107;-0.0163;
1196.1000;0.8116;-0.0140;
1196.4000;0.8075;-0.0257;
1196.7000;0.8107;-0.0233;
1197.0000;0.8124;-0.0233;
1197.3000;0.8107;-0.0257;
1197.6000;0.8156;-0.0023;
1197.9000;0.8099;-0.0163;
1198.2000;0.8124;-0.0117;
1198.5000;0.8099;-0.0163;
1198.8000;0.8107;-0.0163;
1199.1000;0.8116;-0.0187;
1199.4000;0.8107;-0.0187;
1199.7000;0.8132;-0.0140;
1200.0000;0.8099;-0.0187;
1200.3000;0.8091;-0.0140;
1200.6000;0.8148;-0.0023;
1200.9000;0.8116;-0.0163;
1201.2000;0.8075;-0.0187;
1201.5000;0.8099;-0.0117;
1201.8000;0.8091;-0.0187;
1202.1000;0.8107;-0.0210;
1202.4000;0.8099;-0.0210;
1202.7000;0.8091;-0.0187;
1203.0000;0.8099;-0.0210;
1203.3000;0.8107;-0.0233;
1203.6000;0.8099;-0.0210;
1203.9000;0.8099;-0.0210;
1204.2000;0.8075;-0.0233;
1204.5000;0.8099;-0.0093;
1204.8000;0.8116;0.0070;
1205.1000;0.8083;0.0023;
1205.4000;0.8099;0.0047;
1205.7000;0.8083;0.0023;
1206.0000;0.8083;-0.0047;
1206.3000;0.8050;-0.0257;
1206.6000;0.8091;-0.0163;
1206.9000;0.8116;-0.0163;
1207.2000;0.8140;-0.0187;
1207.5000;0.8099;-0.0257;
1207.8000;0.8107;-0.0257;
1208.1000;0.8116;-0.0210;
1208.4000;0.8075;-0.0373;
1208.7000;0.8164;-0.0187;
1209.0000;0.8189;-0.0117;
1209.3000;0.8091;-0.0327;
1209.6000;0.8116;-0.0117;
1209.9000;0.8140;-0.0070;
1210.2000;0.8107;-0.0047;
1210.5000;0.8091;-0.0070;
1210.8000;0.8034;-0.0093;
1211.1000;0.8099;0.0023;
1211.4000;0.8107;-0.0023;
1211.7000;0.8107;-0.0023;
1212.0000;0.8099;-0.0070;
1212.3000;0.8107;-0.0187;
1212.6000;0.8099;-0.0117;
1212.9000;0.8083;-0.0233;
1213.2000;0.8083;-0.0210;
1213.5000;0.8099;-0.0140;
1213.8000;0.8099;-0.0047;
1214.1000;0.8050;-0.0140;
1214.4000;0.8059;-0.0093;
1214.7000;0.8099;-0.0023;
1215.0000;0.8091;0.0000;
1215.3000;0.8107;-0.0023;
1215.6000;0.8099;-0.0093;
1215.9000;0.8083;-0.0140;
1216.2000;0.8083;-0.0140;
1216.5000;0.8075;-0.0210;
1216.8000;0.8075;-0.0257;
1217.1000;0.8091;-0.0280;
1217.4000;0.8107;-0.0303;
1217.7000;0.8067;-0.0420;
1218.0000;0.8083;-0.0303;
1218.3000;0.8091;-0.0303;
1218.6000;0.8099;-0.0350;
1218.9000;0.8156;-0.0140;
1219.2000;0.8083;-0.0233;
1219.5000;0.8091;-0.0093;
1219.8000;0.8091;0.0000;
1220.1000;0.8099;0.0000;
1220.4000;0.8107;0.0000;
1220.7000;0.8091;0.0023;
1221.0000;0.8099;0.0047;
1221.3000;0.8091;-0.0023;
1221.6000;0.8075;-0.0023;
1221.9000;0.8091;-0.0093;
1222.2000;0.8083;-0.0047;
1222.5000;0.8083;0.0000;
1222.8000;0.8091;0.0000;
1223.1000;0.8124;0.0117;
1223.4000;0.8075;0.0023;
1223.7000;0.8075;0.0070;
1224.0000;0.8067;0.0070;
1224.3000;0.8091;0.0070;
1224.6000;0.8075;0.0000;
1224.9000;0.8075;-0.0070;
1225.2000;0.8083;-0.0093;
1225.5000;0.8091;-0.0070;
1225.8000;0.8083;-0.0117;
1226.1000;0.8091;-0.0070;
1226.4000;0.8091;-0.0140;
1226.7000;0.8091;-0.0140;
1227.0000;0.8075;-0.0210;
1227.3000;0.8050;-0.0303;
1227.6000;0.8075;-0.0280;
1227.9000;0.8091;-0.0187;
1228.2000;0.8075;-0.0233;
1228.5000;0.8083;-0.0210;
1228.8000;0.8083;-0.0117;
1229.1000;0.8099;-0.0023;
1229.4000;0.8075;0.0000;
1229.7000;0.8083;-0.0070;
1230.0000;0.8099;-0.0163;
1230.3000;0.8083;-0.0187;
1230.6000;0.8091;-0.0210;
1230.9000;0.8083;-0.0257;
1231.2000;0.8075;-0.0163;
1231.5000;0.8091;-0.0140;
1231.8000;0.8124;-0.0070;
1232.1000;0.8075;-0.0280;
1232.4000;0.8067;-0.0327;
1232.7000;0.8018;-0.0373;
1233.0000;0.8083;-0.0233;
1233.3000;0.8091;-0.0210;
1233.6000;0.8148;-0.0070;
1233.9000;0.8075;-0.0233;
1234.2000;0.8059;-0.0233;
1234.5000;0.8083;-0.0280;
1234.8000;0.8091;-0.0327;
1235.1000;0.8075;-0.0397;
1235.4000;0.8067;-0.0350;
1235.7000;0.8091;-0.0303;
1236.0000;0.8083;-0.0373;
1236.3000;0.8075;-0.0420;
1236.6000;0.8075;-0.0443;
1236.9000;0.8083;-0.0373;
1237.2000;0.8059;-0.0373;
1237.5000;0.8067;-0.0397;
1237.8000;0.8042;-0.0397;
1238.1000;0.8083;-0.0280;
1238.4000;0.8050;-0.0350;
1238.7000;0.8059;-0.0350;
1239.0000;0.8067;-0.0397;
1239.3000;0.8075;-0.0397;
1239.6000;0.8083;-0.0327;
1239.9000;0.8083;-0.0280;
1240.2000;0.8059;-0.0350;
1240.5000;0.8075;-0.0303;
1240.8000;0.8083;-0.0303;
1241.1000;0.8067;-0.0327;
1241.4000;0.8067;-0.0303;
1241.7000;0.8050;-0.0257;
1242.0000;0.8107;-0.0210;
1242.3000;0.8075;-0.0350;
1242.6000;0.8075;-0.0420;
1242.9000;0.8083;-0.0350;
1243.2000;0.8067;-0.0467;
1243.5000;0.8067;-0.0350;
1243.8000;0.8083;-0.0373;
1244.1000;0.8067;-0.0467;
1244.4000;0.8059;-0.0467;
1244.7000;0.8091;-0.0420;
1245.0000;0.8067;-0.0327;
1245.3000;0.8083;-0.0280;
1245.6000;0.8050;-0.0233;
1245.9000;0.8067;-0.0187;
1246.2000;0.8067;-0.0117;
1246.5000;0.8059;-0.0093;
1246.8000;0.8075;-0.0117;
1247.1000;0.8075;-0.0140;
1247.4000;0.8083;-0.0163;
1247.7000;0.8042;-0.0280;
1248.0000;0.8042;-0.0233;
1248.3000;0.8132;-0.0023;
1248.6000;0.8067;-0.0163;
1248.9000;0.8067;-0.0093;
1249.2000;0.8050;-0.0210;
1249.5000;0.8075;-0.0210;
1249.8000;0.8059;-0.0210;
1250.1000;0.8067;-0.0187;
1250.4000;0.8050;-0.0163;
1250.7000;0.8091;-0.0047;
1251.0000;0.8132;0.0117;
1251.3000;0.8075;-0.0047;
1251.6000;0.8075;-0.0093;
1251.9000;0.8067;-0.0140;
1252.2000;0.8075;-0.0140;
1252.5000;0.8091;-0.0117;
1252.8000;0.8042;-0.0187;
1253.1000;0.8067;-0.0117;
1253.4000;0.8091;-0.0070;
1253.7000;0.8132;0.0117;
1254.0000;0.8083;0.0023;
1254.3000;0.8067;0.0000;
1254.6000;0.8018;-0.0093;
1254.9000;0.8075;-0.0047;
1255.2000;0.8107;-0.0093;
1255.5000;0.8050;-0.0257;
1255.8000;0.8148;-0.0023;
1256.1000;0.8075;-0.0257;
1256.4000;0.8083;-0.0187;
1256.7000;0.8067;-0.0257;
1257.0000;0.8059;-0.0233;
1257.3000;0.8075;-0.0210;
1257.6000;0.8067;-0.0163;
1257.9000;0.8067;-0.0093;
1258.2000;0.8042;-0.0117;
1258.5000;0.8067;-0.0163;
1258.8000;0.8010;-0.0233;
1259.1000;0.8067;-0.0047;
1259.4000;0.8067;0.0047;
1259.7000;0.8042;0.0000;
1260.0000;0.8067;0.0000;
1260.3000;0.8042;-0.0023;
1260.6000;0.8034;-0.0023;
1260.9000;0.8083;-0.0023;
1261.2000;0.8067;-0.0140;
1261.5000;0.8067;-0.0093;
1261.8000;0.8042;-0.0117;
1262.1000;0.8002;-0.0233;
1262.4000;0.8050;-0.0117;
1262.7000;0.8067;-0.0023;
1263.0000;0.8075;0.0023;
1263.3000;0.8075;0.0117;
1263.6000;0.8091;0.0233;
1263.9000;0.8059;0.0047;
1264.2000;0.8067;0.0023;
1264.5000;0.8059;-0.0163;
1264.8000;0.8034;-0.0210;
1265.1000;0.8042;-0.0117;
1265.4000;0.8050;-0.0070;
1265.7000;0.8034;-0.0093;
1266.0000;0.8050;-0.0023;
1266.3000;0.8042;0.0000;
1266.6000;0.8042;-0.0023;
1266.9000;0.8059;-0.0047;
1267.2000;0.8042;-0.0093;
1267.5000;0.8050;-0.0140;
1267.8000;0.8050;-0.0140;
1268.1000;0.8050;-0.0187;
1268.4000;0.8050;-0.0233;
1268.7000;0.8050;-0.0210;
1269.0000;0.8059;-0.0210;
1269.3000;0.8050;-0.0327;
1269.6000;0.8059;-0.0257;
1269.9000;0.8083;-0.0233;
1270.2000;0.8059;-0.0210;
1270.5000;0.8059;-0.0257;
1270.8000;0.8050;-0.0210;
1271.1000;0.8034;-0.0233;
1271.4000;0.8034;-0.0233;
1271.7000;0.8034;-0.0210;
1272.0000;0.8034;-0.0210;
1272.3000;0.8002;-0.0233;
1272.6000;0.8042;-0.0163;
1272.9000;0.8018;-0.0280;
1273.2000;0.8010;-0.0373;
1273.5000;0.8034;-0.0280;
1273.8000;0.8042;-0.0257;
1274.1000;0.8026;-0.0210;
1274.4000;0.8042;-0.0233;
1274.7000;0.8042;-0.0257;
1275.0000;0.8034;-0.0187;
1275.3000;0.8034;-0.0163;
1275.6000;0.8042;-0.0187;
1275.9000;0.8034;-0.0187;
1276.2000;0.8050;-0.0163;
1276.5000;0.8034;-0.0117;
1276.8000;0.8059;0.0070;
1277.1000;0.8059;0.0093;
1277.4000;0.8059;0.0117;
1277.7000;0.8059;0.0047;
1278.0000;0.8042;-0.0117;
1278.3000;0.8059;0.0023;
1278.6000;0.8034;0.0000;
1278.9000;0.8059;0.0093;
1279.2000;0.8050;0.0023;
1279.5000;0.8042;-0.0070;
1279.8000;0.8042;0.0000;
1280.1000;0.8042;-0.0070;
1280.4000;0.8010;0.0000;
1280.7000;0.7985;-0.0070;
1281.0000;0.8026;0.0000;
1281.3000;0.8026;-0.0023;
1281.6000;0.8034;-0.0047;
1281.9000;0.8067;0.0000;
1282.2000;0.8026;-0.0047;
1282.5000;0.8042;-0.0070;
1282.8000;0.8050;-0.0023;
1283.1000;0.8042;0.0047;
1283.4000;0.8042;0.0047;
1283.7000;0.7985;-0.0140;
1284.0000;0.8059;-0.0047;
1284.3000;0.8034;-0.0047;
1284.6000;0.8059;-0.0070;
1284.9000;0.8034;-0.0093;
1285.2000;0.8026;-0.0070;
1285.5000;0.8034;0.0000;
1285.8000;0.8010;-0.0070;
1286.1000;0.8034;-0.0093;
1286.4000;0.8034;-0.0047;
1286.7000;0.8018;-0.0047;
1287.0000;0.7985;-0.0140;
1287.3000;0.8034;0.0023;
1287.6000;0.8026;0.0023;
1287.9000;0.8042;0.0163;
1288.2000;0.8034;0.0117;
1288.5000;0.8050;0.0093;
1288.8000;0.7953;-0.0093;
1289.1000;0.8026;0.0093;
1289.4000;0.8067;0.0117;
1289.7000;0.8042;0.0047;
1290.0000;0.8042;-0.0023;
1290.3000;0.8042;0.0047;
1290.6000;0.8034;0.0070;
1290.9000;0.8050;0.0000;
1291.2000;0.8010;-0.0047;
1291.5000;0.8010;-0.0093;
1291.8000;0.8026;-0.0093;
1292.1000;0.8042;-0.0093;
1292.4000;0.8034;-0.0163;
1292.7000;0.8034;-0.0257;
1293.0000;0.8034;-0.0303;
1293.3000;0.8059;-0.0210;
1293.6000;0.8010;-0.0280;
1293.9000;0.8042;-0.0163;
1294.2000;0.8034;-0.0233;
1294.5000;0.8050;-0.0163;
1294.8000;0.8034;-0.0163;
1295.1000;0.8010;-0.0303;
1295.4000;0.8042;-0.0140;
1295.7000;0.8026;-0.0117;
1296.0000;0.8034;-0.0140;
1296.3000;0.8042;-0.0093;
1296.6000;0.8010;-0.0117;
1296.9000;0.8050;-0.0093;
1297.2000;0.8026;-0.0187;
1297.5000;0.8034;-0.0163;
1297.8000;0.8026;-0.0163;
1298.1000;0.8034;-0.0117;
1298.4000;0.8010;-0.0070;
1298.7000;0.8002;-0.0117;
1299.0000;0.8026;-0.0070;
1299.3000;0.8026;-0.0023;
1299.6000;0.8050;-0.0047;
1299.9000;0.8059;-0.0023;
1300.2000;0.8034;-0.0093;
1300.5000;0.8018;-0.0163;
1300.8000;0.8026;-0.0070;
1301.1000;0.8018;-0.0093;
1301.4000;0.8026;0.0000;
1301.7000;0.8034;-0.0023;
1302.0000;0.8034;0.0023;
1302.3000;0.8018;-0.0023;
1302.6000;0.8075;0.0117;
1302.9000;0.7993;-0.0023;
1303.2000;0.8059;0.0140;
1303.5000;0.8026;0.0023;
1303.8000;0.8034;0.0000;
1304.1000;0.8002;-0.0047;
1304.4000;0.7977;0.0000;
1304.7000;0.8091;0.0350;
1305.0000;0.7993;0.0070;
1305.3000;0.8042;0.0070;
1305.6000;0.8026;0.0000;
1305.9000;0.8002;-0.0070;
1306.2000;0.8083;0.0070;
1306.5000;0.8034;0.0023;
1306.8000;0.8018;-0.0047;
1307.1000;0.8034;-0.0070;
1307.4000;0.8067;-0.0023;
1307.7000;0.8026;-0.0093;
1308.0000;0.8018;-0.0070;
1308.3000;0.8018;-0.0117;
1308.6000;0.8002;-0.0117;
1308.9000;0.8050;0.0047;
1309.2000;0.8034;0.0047;
1309.5000;0.8018;0.0023;
1309.8000;0.8018;0.0023;
1310.1000;0.8018;0.0047;
1310.4000;0.8010;0.0070;
1310.7000;0.8026;0.0117;
1311.0000;0.8026;0.0070;
1311.3000;0.8034;0.0117;
1311.6000;0.8059;0.0093;
1311.9000;0.7969;-0.0140;
1312.2000;0.8002;-0.0023;
1312.5000;0.8034;-0.0023;
1312.8000;0.8034;-0.0023;
1313.1000;0.8018;-0.0140;
1313.4000;0.8026;-0.0093;
1313.7000;0.8010;-0.0093;
1314.0000;0.8034;-0.0093;
1314.3000;0.8018;-0.0117;
1314.6000;0.8018;-0.0093;
1314.9000;0.8010;-0.0047;
1315.2000;0.8018;-0.0023;
1315.5000;0.8026;-0.0070;
1315.8000;0.8018;-0.0093;
1316.1000;0.8083;-0.0070;
1316.4000;0.8050;-0.0070;
1316.7000;0.8026;-0.0023;
1317.0000;0.8010;-0.0140;
1317.3000;0.8018;-0.0070;
1317.6000;0.8018;-0.0070;
1317.9000;0.8034;-0.0023;
1318.2000;0.8059;0.0093;
1318.5000;0.8018;-0.0023;
1318.8000;0.8018;0.0000;
1319.1000;0.8034;0.0163;
1319.4000;0.8010;0.0070;
1319.7000;0.8010;0.0000;
1320.0000;0.8002;-0.0023;
1320.3000;0.8018;0.0000;
1320.6000;0.8026;0.0023;
1320.9000;0.8042;0.0047;
1321.2000;0.8042;0.0000;
1321.5000;0.8034;0.0000;
1321.8000;0.8026;0.0023;
1322.1000;0.8059;-0.0023;
1322.4000;0.8026;-0.0117;
1322.7000;0.8042;0.0000;
1323.0000;0.8034;0.0070;
1323.3000;0.8010;0.0023;
1323.6000;0.8018;0.0047;
1323.9000;0.8002;0.0023;
1324.2000;0.8018;0.0093;
1324.5000;0.8018;0.0047;
1324.8000;0.8026;-0.0047;
1325.1000;0.8026;-0.0047;
1325.4000;0.8010;-0.0023;
1325.7000;0.8010;0.0070;
1326.0000;0.8034;0.0023;
1326.3000;0.8010;-0.0023;
1326.6000;0.8010;0.0000;
1326.9000;0.8010;0.0000;
1327.2000;0.8026;0.0000;
1327.5000;0.8010;-0.0047;
1327.8000;0.7993;-0.0140;
1328.1000;0.8010;-0.0117;
1328.4000;0.8026;-0.0093;
1328.7000;0.8026;-0.0093;
1329.0000;0.8034;-0.0047;
1329.3000;0.8034;0.0070;
1329.6000;0.8002;0.0000;
1329.9000;0.8002;0.0047;
1330.2000;0.8002;0.0023;
1330.5000;0.8002;0.0000;
1330.8000;0.8050;0.0000;
1331.1000;0.8002;-0.0047;
1331.4000;0.8002;-0.0093;
1331.7000;0.7993;-0.0023;
1332.0000;0.8010;0.0070;
1332.3000;0.8034;-0.0047;
1332.6000;0.8018;-0.0117;
1332.9000;0.8002;-0.0187;
1333.2000;0.8010;-0.0187;
1333.5000;0.8010;-0.0140;
1333.8000;0.8018;-0.0140;
1334.1000;0.7993;-0.0233;
1334.4000;0.8034;-0.0187;
1334.7000;0.8034;-0.0117;
1335.0000;0.7969;-0.0187;
1335.3000;0.8010;-0.0093;
1335.6000;0.7993;-0.0163;
1335.9000;0.8026;-0.0047;
1336.2000;0.8002;-0.0047;
1336.5000;0.8010;0.0023;
1336.8000;0.8026;0.0093;
1337.1000;0.8018;0.0070;
1337.4000;0.8026;0.0163;
1337.7000;0.8018;0.0117;
1338.0000;0.7993;-0.0023;
1338.3000;0.8010;-0.0047;
1338.6000;0.8002;-0.0117;
1338.9000;0.8018;-0.0023;
1339.2000;0.8018;0.0023;
1339.5000;0.8010;-0.0047;
1339.8000;0.8018;-0.0093;
1340.1000;0.7977;-0.0140;
1340.4000;0.7993;-0.0070;
1340.7000;0.8010;-0.0117;
1341.0000;0.7993;0.0000;
1341.3000;0.8018;0.0000;
1341.6000;0.8002;0.0000;
1341.9000;0.8002;-0.0117;
1342.2000;0.8018;-0.0047;
1342.5000;0.8010;-0.0093;
1342.8000;0.8018;0.0000;
1343.1000;0.8010;0.0023;
1343.4000;0.8010;0.0023;
1343.7000;0.8010;0.0047;
1344.0000;0.8026;-0.0070;
1344.3000;0.7993;-0.0117;
1344.6000;0.7969;-0.0163;
1344.9000;0.8010;-0.0140;
1345.2000;0.7985;-0.0233;
1345.5000;0.8002;-0.0140;
1345.8000;0.8002;-0.0117;
1346.1000;0.8010;-0.0070;
1346.4000;0.8018;-0.0140;
1346.7000;0.8002;-0.0210;
1347.0000;0.8018;-0.0327;
1347.3000;0.8010;-0.0303;
1347.6000;0.8018;-0.0280;
1347.9000;0.8010;-0.0280;
1348.2000;0.8002;-0.0280;
1348.5000;0.8010;-0.0187;
1348.8000;0.8026;-0.0117;
1349.1000;0.8002;-0.0117;
1349.4000;0.7953;-0.0210;
1349.7000;0.7993;-0.0093;
1350.0000;0.8010;-0.0047;
1350.3000;0.8010;-0.0047;
1350.6000;0.8002;-0.0070;
1350.9000;0.7945;-0.0187;
1351.2000;0.8002;-0.0187;
1351.5000;0.8010;-0.0233;
1351.8000;0.8075;-0.0047;
1352.1000;0.8018;-0.0210;
1352.4000;0.8010;-0.0233;
1352.7000;0.8002;-0.0093;
1353.0000;0.7993;-0.0093;
1353.3000;0.7993;-0.0163;
1353.6000;0.7961;-0.0210;
1353.9000;0.8010;-0.0070;
1354.2000;0.7920;-0.0280;
1354.5000;0.8034;0.0070;
1354.8000;0.8002;0.0047;
1355.1000;0.7985;0.0000;
1355.4000;0.8018;0.0047;
1355.7000;0.7993;-0.0023;
1356.0000;0.7993;-0.0023;
1356.3000;0.8010;0.0047;
1356.6000;0.8026;0.0023;
1356.9000;0.8034;0.0047;
1357.2000;0.8010;0.0117;
1357.5000;0.7985;0.0210;
1357.8000;0.8018;0.0327;
1358.1000;0.8018;0.0303;
1358.4000;0.8010;0.0210;
1358.7000;0.7993;0.0233;
1359.0000;0.7993;0.0187;
1359.3000;0.8018;0.0210;
1359.6000;0.8018;0.0140;
1359.9000;0.8010;0.0140;
1360.2000;0.8010;0.0117;
1360.5000;0.8010;0.0093;
1360.8000;0.7977;0.0023;
1361.1000;0.7977;0.0023;
1361.4000;0.7993;-0.0047;
1361.7000;0.7993;-0.0093;
1362.0000;0.7993;-0.0140;
1362.3000;0.7985;-0.0070;
1362.6000;0.7977;-0.0070;
1362.9000;0.7977;0.0000;
1363.2000;0.8010;0.0000;
1363.5000;0.7977;-0.0093;
1363.8000;0.7985;-0.0047;
1364.1000;0.7969;-0.0140;
1364.4000;0.8002;-0.0047;
1364.7000;0.8002;-0.0140;
1365.0000;0.7985;-0.0163;
1365.3000;0.7993;-0.0303;
1365.6000;0.8026;-0.0233;
1365.9000;0.8010;-0.0257;
1366.2000;0.7993;-0.0233;
1366.5000;0.7985;-0.0233;
1366.8000;0.8002;-0.0233;
1367.1000;0.8002;-0.0187;
1367.4000;0.7977;-0.0350;
1367.7000;0.7993;-0.0327;
1368.0000;0.7993;-0.0350;
1368.3000;0.7993;-0.0280;
1368.6000;0.7977;-0.0303;
1368.9000;0.7985;-0.0327;
1369.2000;0.7993;-0.0303;
1369.5000;0.7977;-0.0420;
1369.8000;0.7993;-0.0467;
1370.1000;0.7993;-0.0490;
1370.4000;0.7977;-0.0584;
1370.7000;0.8002;-0.0490;
1371.0000;0.8010;-0.0397;
1371.3000;0.7985;-0.0420;
1371.6000;0.8018;-0.0373;
1371.9000;0.7993;-0.0397;
1372.2000;0.8002;-0.0373;
1372.5000;0.8002;-0.0467;
1372.8000;0.8034;-0.0280;
1373.1000;0.7985;-0.0303;
1373.4000;0.8075;-0.0047;
1373.7000;0.8026;-0.0140;
1374.0000;0.7985;-0.0280;
1374.3000;0.7937;-0.0397;
1374.6000;0.8002;-0.0280;
1374.9000;0.7920;-0.0513;
1375.2000;0.7985;-0.0327;
1375.5000;0.7993;-0.0303;
1375.8000;0.8010;-0.0257;
1376.1000;0.8002;-0.0303;
1376.4000;0.7993;-0.0350;
1376.7000;0.7985;-0.0350;
1377.0000;0.8010;-0.0303;
1377.3000;0.8010;-0.0257;
1377.6000;0.7969;-0.0303;
1377.9000;0.7953;-0.0303;
1378.2000;0.8018;-0.0047;
1378.5000;0.7977;-0.0140;
1378.8000;0.7969;-0.0117;
1379.1000;0.7977;-0.0140;
1379.4000;0.7985;-0.0163;
1379.7000;0.8026;-0.0047;
1380.0000;0.8050;-0.0070;
1380.3000;0.7993;-0.0187;
1380.6000;0.7969;-0.0233;
1380.9000;0.7985;-0.0070;
1381.2000;0.8002;-0.0047;
1381.5000;0.8010;-0.0117;
1381.8000;0.8002;-0.0140;
1382.1000;0.8002;-0.0117;
1382.4000;0.7985;-0.0117;
1382.7000;0.7993;-0.0117;
1383.0000;0.7904;-0.0327;
1383.3000;0.7993;-0.0140;
1383.6000;0.7977;-0.0163;
1383.9000;0.7985;-0.0117;
1384.2000;0.7977;-0.0117;
1384.5000;0.7985;-0.0070;
1384.8000;0.7985;-0.0117;
1385.1000;0.7993;-0.0117;
1385.4000;0.7993;-0.0163;
1385.7000;0.7993;-0.0140;
1386.0000;0.8002;-0.0117;
1386.3000;0.8002;-0.0047;
1386.6000;0.8018;-0.0117;
1386.9000;0.7985;-0.0187;
1387.2000;0.7993;-0.0210;
1387.5000;0.8002;-0.0070;
1387.8000;0.7985;0.0023;
1388.1000;0.8050;0.0163;
1388.4000;0.8067;0.0210;
1388.7000;0.8010;0.0163;
1389.0000;0.7985;0.0070;
1389.3000;0.7969;0.0047;
1389.6000;0.7985;0.0093;
1389.9000;0.7969;0.0070;
1390.2000;0.8010;0.0047;
1390.5000;0.7985;-0.0070;
1390.8000;0.7985;-0.0047;
1391.1000;0.7985;-0.0163;
1391.4000;0.8010;-0.0210;
1391.7000;0.7993;-0.0187;
1392.0000;0.7985;-0.0280;
1392.3000;0.8002;-0.0187;
1392.6000;0.7993;-0.0117;
1392.9000;0.7993;-0.0117;
1393.2000;0.7977;-0.0117;
1393.5000;0.7969;-0.0163;
1393.8000;0.7977;-0.0187;
1394.1000;0.8050;-0.0047;
1394.4000;0.7969;-0.0303;
1394.7000;0.8042;-0.0210;
1395.0000;0.8042;-0.0163;
1395.3000;0.8010;-0.0187;
1395.6000;0.7993;-0.0117;
1395.9000;0.8018;-0.0047;
1396.2000;0.7993;-0.0117;
1396.5000;0.7993;-0.0070;
1396.8000;0.8002;-0.0047;
1397.1000;0.7977;-0.0117;
1397.4000;0.7969;-0.0163;
1397.7000;0.7985;-0.0140;
1398.0000;0.7977;-0.0210;
1398.3000;0.7977;-0.0187;
1398.6000;0.7961;-0.0187;
1398.9000;0.7969;-0.0047;
1399.2000;0.7985;0.0000;
1399.5000;0.7969;-0.0047;
1399.8000;0.7961;-0.0047;
