time/ms;Fluo/V;P700 deltaI/I x10³;
-199.8000;0.0781;-1.0589;
-199.5000;0.0749;-1.0679;
-199.2000;0.0790;-1.0634;
-198.9000;0.0798;-1.0679;
-198.6000;0.0781;-1.0679;
-198.3000;0.0790;-1.0679;
-198.0000;0.0749;-1.0837;
-197.7000;0.0781;-1.0702;
-197.4000;0.0798;-1.0724;
-197.1000;0.0855;-1.0566;
-196.8000;0.0708;-1.0928;
-196.5000;0.0790;-1.0656;
-196.2000;0.0781;-1.0724;
-195.9000;0.0749;-1.0747;
-195.6000;0.0692;-1.0951;
-195.3000;0.0928;-1.0385;
-195.0000;0.0798;-1.0724;
-194.7000;0.0798;-1.0724;
-194.4000;0.0741;-1.0860;
-194.1000;0.0773;-1.0679;
-193.8000;0.0790;-1.0634;
-193.5000;0.0798;-1.0656;
-193.2000;0.0863;-1.0453;
-192.9000;0.0822;-1.0498;
-192.6000;0.0773;-1.0566;
-192.3000;0.0920;-1.0227;
-192.0000;0.0781;-1.0679;
-191.7000;0.0790;-1.0656;
-191.4000;0.0708;-1.0860;
-191.1000;0.0904;-1.0408;
-190.8000;0.0814;-1.0611;
-190.5000;0.0798;-1.0656;
-190.2000;0.0773;-1.0702;
-189.9000;0.0757;-1.0611;
-189.6000;0.0724;-1.0702;
-189.3000;0.0806;-1.0543;
-189.0000;0.0749;-1.0634;
-188.7000;0.0773;-1.0589;
-188.4000;0.0798;-1.0543;
-188.1000;0.0781;-1.0656;
-187.8000;0.0806;-1.0702;
-187.5000;0.0773;-1.0815;
-187.2000;0.0765;-1.0837;
-186.9000;0.0781;-1.0679;
-186.6000;0.0757;-1.0634;
-186.3000;0.0773;-1.0543;
-186.0000;0.0814;-1.0430;
-185.7000;0.0773;-1.0521;
-185.4000;0.0773;-1.0498;
-185.1000;0.0822;-1.0475;
-184.8000;0.0806;-1.0611;
-184.5000;0.0814;-1.0521;
-184.2000;0.0765;-1.0656;
-183.9000;0.0724;-1.0837;
-183.6000;0.0895;-1.0430;
-183.3000;0.0741;-1.0837;
-183.0000;0.0724;-1.0815;
-182.7000;0.0790;-1.0656;
-182.4000;0.0806;-1.0679;
-182.1000;0.0790;-1.0747;
-181.8000;0.0798;-1.0747;
-181.5000;0.0798;-1.0589;
-181.2000;0.0790;-1.0566;
-180.9000;0.0765;-1.0634;
-180.6000;0.0798;-1.0521;
-180.3000;0.0798;-1.0453;
-180.0000;0.0806;-1.0521;
-179.7000;0.0798;-1.0611;
-179.4000;0.0773;-1.0747;
-179.1000;0.0814;-1.0543;
-178.8000;0.0798;-1.0498;
-178.5000;0.0765;-1.0589;
-178.2000;0.0765;-1.0566;
-177.9000;0.0806;-1.0453;
-177.6000;0.0773;-1.0566;
-177.3000;0.0757;-1.0611;
-177.0000;0.0781;-1.0634;
-176.7000;0.0757;-1.0656;
-176.4000;0.0757;-1.0634;
-176.1000;0.0790;-1.0521;
-175.8000;0.0806;-1.0385;
-175.5000;0.0798;-1.0475;
-175.2000;0.0773;-1.0408;
-174.9000;0.0773;-1.0408;
-174.6000;0.0733;-1.0498;
-174.3000;0.0781;-1.0430;
-174.0000;0.0822;-1.0385;
-173.7000;0.0814;-1.0453;
-173.4000;0.0790;-1.0611;
-173.1000;0.0790;-1.0656;
-172.8000;0.0765;-1.0724;
-172.5000;0.0773;-1.0702;
-172.2000;0.0773;-1.0747;
-171.9000;0.0781;-1.0656;
-171.6000;0.0855;-1.0385;
-171.3000;0.0781;-1.0430;
-171.0000;0.0790;-1.0453;
-170.7000;0.0773;-1.0475;
-170.4000;0.0733;-1.0543;
-170.1000;0.0765;-1.0408;
-169.8000;0.0757;-1.0408;
-169.5000;0.0806;-1.0249;
-169.2000;0.0692;-1.0543;
-168.9000;0.0798;-1.0340;
-168.6000;0.0757;-1.0475;
-168.3000;0.0741;-1.0498;
-168.0000;0.0790;-1.0227;
-167.7000;0.0790;-1.0181;
-167.4000;0.0798;-1.0272;
-167.1000;0.0773;-1.0362;
-166.8000;0.0765;-1.0340;
-166.5000;0.0781;-1.0317;
-166.2000;0.0733;-1.0362;
-165.9000;0.0773;-1.0272;
-165.6000;0.0765;-1.0317;
-165.3000;0.0822;-1.0136;
-165.0000;0.0798;-1.0204;
-164.7000;0.0773;-1.0272;
-164.4000;0.0781;-1.0204;
-164.1000;0.0806;-1.0204;
-163.8000;0.0781;-1.0249;
-163.5000;0.0798;-1.0249;
-163.2000;0.0773;-1.0249;
-162.9000;0.0765;-1.0181;
-162.6000;0.0806;-1.0113;
-162.3000;0.0790;-1.0091;
-162.0000;0.0765;-1.0181;
-161.7000;0.0814;-1.0068;
-161.4000;0.0806;-1.0136;
-161.1000;0.0790;-1.0181;
-160.8000;0.0765;-1.0272;
-160.5000;0.0765;-1.0340;
-160.2000;0.0798;-1.0272;
-159.9000;0.0790;-1.0272;
-159.6000;0.0757;-1.0408;
-159.3000;0.0765;-1.0430;
-159.0000;0.0798;-1.0294;
-158.7000;0.0781;-1.0317;
-158.4000;0.0765;-1.0272;
-158.1000;0.0806;-1.0091;
-157.8000;0.0733;-1.0227;
-157.5000;0.0806;-1.0046;
-157.2000;0.0806;-1.0091;
-156.9000;0.0822;-1.0113;
-156.6000;0.0781;-1.0294;
-156.3000;0.0798;-1.0272;
-156.0000;0.0790;-1.0362;
-155.7000;0.0757;-1.0521;
-155.4000;0.0806;-1.0521;
-155.1000;0.0814;-1.0521;
-154.8000;0.0757;-1.0656;
-154.5000;0.0798;-1.0475;
-154.2000;0.0708;-1.0656;
-153.9000;0.0692;-1.0679;
-153.6000;0.0790;-1.0475;
-153.3000;0.0871;-1.0408;
-153.0000;0.0733;-1.0679;
-152.7000;0.0790;-1.0430;
-152.4000;0.0806;-1.0430;
-152.1000;0.0830;-1.0294;
-151.8000;0.0790;-1.0385;
-151.5000;0.0814;-1.0453;
-151.2000;0.0741;-1.0702;
-150.9000;0.0806;-1.0589;
-150.6000;0.0830;-1.0475;
-150.3000;0.0830;-1.0521;
-150.0000;0.0790;-1.0589;
-149.7000;0.0773;-1.0679;
-149.4000;0.0790;-1.0634;
-149.1000;0.0781;-1.0566;
-148.8000;0.0806;-1.0430;
-148.5000;0.0773;-1.0340;
-148.2000;0.0798;-1.0317;
-147.9000;0.0790;-1.0294;
-147.6000;0.0781;-1.0362;
-147.3000;0.0773;-1.0453;
-147.0000;0.0806;-1.0498;
-146.7000;0.0806;-1.0498;
-146.4000;0.0790;-1.0634;
-146.1000;0.0790;-1.0611;
-145.8000;0.0781;-1.0679;
-145.5000;0.0757;-1.0656;
-145.2000;0.0757;-1.0634;
-144.9000;0.0781;-1.0521;
-144.6000;0.0806;-1.0453;
-144.3000;0.0781;-1.0543;
-144.0000;0.0790;-1.0453;
-143.7000;0.0806;-1.0385;
-143.4000;0.0773;-1.0521;
-143.1000;0.0757;-1.0543;
-142.8000;0.0830;-1.0498;
-142.5000;0.0790;-1.0656;
-142.2000;0.0757;-1.0724;
-141.9000;0.0781;-1.0656;
-141.6000;0.0741;-1.0747;
-141.3000;0.0798;-1.0634;
-141.0000;0.0781;-1.0679;
-140.7000;0.0790;-1.0634;
-140.4000;0.0684;-1.0905;
-140.1000;0.0798;-1.0656;
-139.8000;0.0830;-1.0566;
-139.5000;0.0806;-1.0589;
-139.2000;0.0871;-1.0317;
-138.9000;0.0773;-1.0498;
-138.6000;0.0773;-1.0475;
-138.3000;0.0806;-1.0453;
-138.0000;0.0863;-1.0294;
-137.7000;0.0773;-1.0611;
-137.4000;0.0643;-1.0951;
-137.1000;0.0733;-1.0747;
-136.8000;0.0798;-1.0611;
-136.5000;0.0790;-1.0702;
-136.2000;0.0822;-1.0589;
-135.9000;0.0773;-1.0634;
-135.6000;0.0781;-1.0679;
-135.3000;0.0798;-1.0634;
-135.0000;0.0781;-1.0679;
-134.7000;0.0855;-1.0498;
-134.4000;0.0798;-1.0543;
-134.1000;0.0822;-1.0521;
-133.8000;0.0765;-1.0589;
-133.5000;0.0781;-1.0566;
-133.2000;0.0806;-1.0475;
-132.9000;0.0773;-1.0498;
-132.6000;0.0806;-1.0475;
-132.3000;0.0830;-1.0453;
-132.0000;0.0814;-1.0521;
-131.7000;0.0830;-1.0453;
-131.4000;0.0798;-1.0498;
-131.1000;0.0806;-1.0521;
-130.8000;0.0781;-1.0656;
-130.5000;0.0790;-1.0634;
-130.2000;0.0781;-1.0589;
-129.9000;0.0773;-1.0634;
-129.6000;0.0790;-1.0656;
-129.3000;0.0798;-1.0747;
-129.0000;0.0790;-1.0702;
-128.7000;0.0781;-1.0589;
-128.4000;0.0806;-1.0498;
-128.1000;0.0757;-1.0589;
-127.8000;0.0773;-1.0656;
-127.5000;0.0790;-1.0611;
-127.2000;0.0773;-1.0589;
-126.9000;0.0765;-1.0543;
-126.6000;0.0790;-1.0453;
-126.3000;0.0798;-1.0475;
-126.0000;0.0765;-1.0566;
-125.7000;0.0790;-1.0521;
-125.4000;0.0790;-1.0453;
-125.1000;0.0790;-1.0385;
-124.8000;0.0790;-1.0385;
-124.5000;0.0798;-1.0430;
-124.2000;0.0806;-1.0408;
-123.9000;0.0733;-1.0498;
-123.6000;0.0798;-1.0362;
-123.3000;0.0773;-1.0430;
-123.0000;0.0790;-1.0385;
-122.7000;0.0790;-1.0453;
-122.4000;0.0781;-1.0475;
-122.1000;0.0781;-1.0498;
-121.8000;0.0806;-1.0408;
-121.5000;0.0773;-1.0385;
-121.2000;0.0757;-1.0385;
-120.9000;0.0798;-1.0340;
-120.6000;0.0871;-1.0159;
-120.3000;0.0708;-1.0521;
-120.0000;0.0838;-1.0227;
-119.7000;0.0830;-1.0249;
-119.4000;0.0781;-1.0340;
-119.1000;0.0757;-1.0362;
-118.8000;0.0781;-1.0317;
-118.5000;0.0863;-1.0204;
-118.2000;0.0806;-1.0227;
-117.9000;0.0790;-1.0204;
-117.6000;0.0790;-1.0204;
-117.3000;0.0781;-1.0249;
-117.0000;0.0814;-1.0113;
-116.7000;0.0757;-1.0294;
-116.4000;0.0806;-1.0294;
-116.1000;0.0749;-1.0430;
-115.8000;0.0773;-1.0408;
-115.5000;0.0798;-1.0408;
-115.2000;0.0830;-1.0498;
-114.9000;0.0814;-1.0521;
-114.6000;0.0798;-1.0543;
-114.3000;0.0814;-1.0453;
-114.0000;0.0765;-1.0475;
-113.7000;0.0757;-1.0453;
-113.4000;0.0847;-1.0340;
-113.1000;0.0781;-1.0408;
-112.8000;0.0822;-1.0408;
-112.5000;0.0806;-1.0498;
-112.2000;0.0838;-1.0430;
-111.9000;0.0716;-1.0679;
-111.6000;0.0814;-1.0475;
-111.3000;0.0781;-1.0566;
-111.0000;0.0781;-1.0566;
-110.7000;0.0765;-1.0634;
-110.4000;0.0806;-1.0543;
-110.1000;0.0790;-1.0611;
-109.8000;0.0773;-1.0611;
-109.5000;0.0733;-1.0656;
-109.2000;0.0781;-1.0475;
-108.9000;0.0830;-1.0294;
-108.6000;0.0790;-1.0453;
-108.3000;0.0773;-1.0498;
-108.0000;0.0798;-1.0475;
-107.7000;0.0733;-1.0611;
-107.4000;0.0798;-1.0430;
-107.1000;0.0716;-1.0566;
-106.8000;0.0765;-1.0385;
-106.5000;0.0863;-1.0204;
-106.2000;0.0781;-1.0475;
-105.9000;0.0716;-1.0702;
-105.6000;0.0757;-1.0566;
-105.3000;0.0773;-1.0498;
-105.0000;0.0733;-1.0498;
-104.7000;0.0757;-1.0340;
-104.4000;0.0781;-1.0362;
-104.1000;0.0708;-1.0498;
-103.8000;0.0952;-0.9955;
-103.5000;0.0847;-1.0249;
-103.2000;0.0781;-1.0453;
-102.9000;0.0765;-1.0408;
-102.6000;0.0806;-1.0249;
-102.3000;0.0798;-1.0272;
-102.0000;0.0790;-1.0294;
-101.7000;0.0790;-1.0272;
-101.4000;0.0773;-1.0272;
-101.1000;0.0790;-1.0362;
-100.8000;0.0765;-1.0430;
-100.5000;0.0806;-1.0340;
-100.2000;0.0814;-1.0294;
-99.9000;0.0749;-1.0498;
-99.6000;0.0798;-1.0340;
-99.3000;0.0944;-0.9955;
-99.0000;0.0798;-1.0294;
-98.7000;0.0790;-1.0340;
-98.4000;0.0773;-1.0294;
-98.1000;0.0798;-1.0340;
-97.8000;0.0806;-1.0430;
-97.5000;0.0806;-1.0408;
-97.2000;0.0733;-1.0634;
-96.9000;0.0887;-1.0249;
-96.6000;0.0790;-1.0475;
-96.3000;0.0838;-1.0340;
-96.0000;0.0733;-1.0611;
-95.7000;0.0781;-1.0475;
-95.4000;0.0814;-1.0385;
-95.1000;0.0781;-1.0408;
-94.8000;0.0814;-1.0362;
-94.5000;0.0773;-1.0543;
-94.2000;0.0814;-1.0475;
-93.9000;0.0798;-1.0453;
-93.6000;0.0790;-1.0453;
-93.3000;0.0798;-1.0475;
-93.0000;0.0798;-1.0521;
-92.7000;0.0790;-1.0543;
-92.4000;0.0781;-1.0521;
-92.1000;0.0765;-1.0611;
-91.8000;0.0798;-1.0566;
-91.5000;0.0781;-1.0589;
-91.2000;0.0781;-1.0611;
-90.9000;0.0781;-1.0611;
-90.6000;0.0806;-1.0679;
-90.3000;0.0806;-1.0770;
-90.0000;0.0790;-1.0860;
-89.7000;0.0765;-1.0973;
-89.4000;0.0781;-1.0951;
-89.1000;0.0708;-1.1086;
-88.8000;0.0838;-1.0770;
-88.5000;0.0781;-1.0883;
-88.2000;0.0790;-1.0724;
-87.9000;0.0643;-1.1086;
-87.6000;0.0765;-1.0837;
-87.3000;0.0798;-1.0815;
-87.0000;0.0781;-1.0724;
-86.7000;0.0741;-1.0770;
-86.4000;0.0806;-1.0634;
-86.1000;0.0806;-1.0589;
-85.8000;0.0749;-1.0656;
-85.5000;0.0781;-1.0656;
-85.2000;0.0798;-1.0611;
-84.9000;0.0790;-1.0679;
-84.6000;0.0790;-1.0679;
-84.3000;0.0790;-1.0770;
-84.0000;0.0676;-1.1109;
-83.7000;0.0790;-1.0837;
-83.4000;0.0798;-1.0770;
-83.1000;0.0790;-1.0928;
-82.8000;0.0798;-1.0951;
-82.5000;0.0798;-1.0973;
-82.2000;0.0790;-1.1018;
-81.9000;0.0765;-1.1154;
-81.6000;0.0659;-1.1403;
-81.3000;0.0790;-1.1154;
-81.0000;0.0822;-1.1086;
-80.7000;0.0830;-1.1064;
-80.4000;0.0749;-1.1199;
-80.1000;0.0741;-1.1290;
-79.8000;0.0798;-1.1177;
-79.5000;0.0733;-1.1335;
-79.2000;0.0798;-1.1041;
-78.9000;0.0773;-1.1041;
-78.6000;0.0830;-1.0860;
-78.3000;0.0733;-1.1041;
-78.0000;0.0781;-1.0883;
-77.7000;0.0798;-1.0860;
-77.4000;0.0700;-1.1154;
-77.1000;0.0798;-1.0837;
-76.8000;0.0773;-1.0996;
-76.5000;0.0806;-1.0860;
-76.2000;0.0798;-1.0928;
-75.9000;0.0749;-1.1064;
-75.6000;0.0765;-1.0928;
-75.3000;0.0676;-1.1132;
-75.0000;0.0847;-1.0656;
-74.7000;0.0806;-1.0770;
-74.4000;0.0692;-1.1018;
-74.1000;0.0790;-1.0770;
-73.8000;0.0806;-1.0724;
-73.5000;0.0765;-1.0792;
-73.2000;0.0790;-1.0747;
-72.9000;0.0790;-1.0679;
-72.6000;0.0790;-1.0747;
-72.3000;0.0773;-1.0770;
-72.0000;0.0790;-1.0792;
-71.7000;0.0773;-1.0770;
-71.4000;0.0790;-1.0724;
-71.1000;0.0806;-1.0679;
-70.8000;0.0790;-1.0724;
-70.5000;0.0798;-1.0679;
-70.2000;0.0806;-1.0566;
-69.9000;0.0790;-1.0589;
-69.6000;0.0814;-1.0566;
-69.3000;0.0773;-1.0679;
-69.0000;0.0798;-1.0770;
-68.7000;0.0798;-1.0837;
-68.4000;0.0798;-1.0837;
-68.1000;0.0765;-1.0883;
-67.8000;0.0790;-1.0837;
-67.5000;0.0806;-1.0747;
-67.2000;0.0781;-1.0770;
-66.9000;0.0798;-1.0815;
-66.6000;0.0781;-1.0973;
-66.3000;0.0806;-1.0883;
-66.0000;0.0773;-1.0815;
-65.7000;0.0790;-1.0702;
-65.4000;0.0773;-1.0724;
-65.1000;0.0790;-1.0656;
-64.8000;0.0781;-1.0611;
-64.5000;0.0790;-1.0543;
-64.2000;0.0724;-1.0815;
-63.9000;0.0790;-1.0702;
-63.6000;0.0798;-1.0747;
-63.3000;0.0798;-1.0792;
-63.0000;0.0781;-1.0747;
-62.7000;0.0781;-1.0747;
-62.4000;0.0781;-1.0656;
-62.1000;0.0798;-1.0611;
-61.8000;0.0790;-1.0724;
-61.5000;0.0838;-1.0679;
-61.2000;0.0781;-1.0792;
-60.9000;0.0773;-1.0770;
-60.6000;0.0765;-1.0792;
-60.3000;0.0765;-1.0747;
-60.0000;0.0757;-1.0837;
-59.7000;0.0806;-1.0747;
-59.4000;0.0790;-1.0770;
-59.1000;0.0781;-1.0724;
-58.8000;0.0781;-1.0679;
-58.5000;0.0765;-1.0702;
-58.2000;0.0847;-1.0566;
-57.9000;0.0773;-1.0724;
-57.6000;0.0822;-1.0634;
-57.3000;0.0806;-1.0679;
-57.0000;0.0773;-1.0770;
-56.7000;0.0757;-1.0837;
-56.4000;0.0757;-1.0860;
-56.1000;0.0733;-1.0883;
-55.8000;0.0806;-1.0702;
-55.5000;0.0798;-1.0770;
-55.2000;0.0798;-1.0702;
-54.9000;0.0822;-1.0656;
-54.6000;0.0781;-1.0747;
-54.3000;0.0749;-1.0770;
-54.0000;0.0781;-1.0611;
-53.7000;0.0781;-1.0611;
-53.4000;0.0879;-1.0453;
-53.1000;0.0798;-1.0792;
-52.8000;0.0790;-1.0883;
-52.5000;0.0749;-1.0973;
-52.2000;0.0822;-1.0747;
-51.9000;0.0847;-1.0702;
-51.6000;0.0700;-1.1064;
-51.3000;0.0716;-1.1018;
-51.0000;0.0806;-1.0702;
-50.7000;0.0814;-1.0702;
-50.4000;0.0773;-1.0702;
-50.1000;0.0781;-1.0679;
-49.8000;0.0798;-1.0656;
-49.5000;0.0781;-1.0656;
-49.2000;0.0790;-1.0679;
-48.9000;0.0806;-1.0724;
-48.6000;0.0781;-1.0815;
-48.3000;0.0781;-1.0770;
-48.0000;0.0806;-1.0702;
-47.7000;0.0765;-1.0702;
-47.4000;0.0798;-1.0611;
-47.1000;0.0692;-1.0837;
-46.8000;0.0806;-1.0611;
-46.5000;0.0790;-1.0589;
-46.2000;0.0806;-1.0634;
-45.9000;0.0781;-1.0656;
-45.6000;0.0781;-1.0634;
-45.3000;0.0855;-1.0430;
-45.0000;0.0773;-1.0611;
-44.7000;0.0765;-1.0566;
-44.4000;0.0790;-1.0475;
-44.1000;0.0814;-1.0453;
-43.8000;0.0781;-1.0634;
-43.5000;0.0830;-1.0475;
-43.2000;0.0765;-1.0747;
-42.9000;0.0814;-1.0634;
-42.6000;0.0790;-1.0634;
-42.3000;0.0781;-1.0679;
-42.0000;0.0790;-1.0656;
-41.7000;0.0773;-1.0679;
-41.4000;0.0781;-1.0656;
-41.1000;0.0790;-1.0724;
-40.8000;0.0773;-1.0770;
-40.5000;0.0790;-1.0656;
-40.2000;0.0741;-1.0815;
-39.9000;0.0781;-1.0792;
-39.6000;0.0765;-1.0837;
-39.3000;0.0765;-1.0860;
-39.0000;0.0790;-1.0837;
-38.7000;0.0814;-1.0770;
-38.4000;0.0781;-1.0883;
-38.1000;0.0798;-1.0860;
-37.8000;0.0676;-1.1109;
-37.5000;0.0798;-1.0860;
-37.2000;0.0798;-1.0815;
-36.9000;0.0838;-1.0702;
-36.6000;0.0798;-1.0815;
-36.3000;0.0781;-1.0860;
-36.0000;0.0814;-1.0724;
-35.7000;0.0749;-1.0860;
-35.4000;0.0798;-1.0747;
-35.1000;0.0790;-1.0747;
-34.8000;0.0773;-1.0792;
-34.5000;0.0765;-1.0724;
-34.2000;0.0806;-1.0656;
-33.9000;0.0798;-1.0679;
-33.6000;0.0798;-1.0656;
-33.3000;0.0773;-1.0724;
-33.0000;0.0773;-1.0611;
-32.7000;0.0765;-1.0656;
-32.4000;0.0814;-1.0543;
-32.1000;0.0798;-1.0566;
-31.8000;0.0773;-1.0634;
-31.5000;0.0895;-1.0430;
-31.2000;0.0716;-1.0883;
-30.9000;0.0790;-1.0656;
-30.6000;0.0790;-1.0656;
-30.3000;0.0781;-1.0679;
-30.0000;0.0806;-1.0656;
-29.7000;0.0781;-1.0656;
-29.4000;0.0928;-1.0340;
-29.1000;0.0790;-1.0724;
-28.8000;0.0855;-1.0566;
-28.5000;0.0781;-1.0837;
-28.2000;0.0798;-1.0770;
-27.9000;0.0806;-1.0792;
-27.6000;0.0781;-1.0792;
-27.3000;0.0798;-1.0724;
-27.0000;0.0781;-1.0724;
-26.7000;0.0773;-1.0679;
-26.4000;0.0798;-1.0566;
-26.1000;0.0773;-1.0543;
-25.8000;0.0814;-1.0498;
-25.5000;0.0790;-1.0656;
-25.2000;0.0798;-1.0702;
-24.9000;0.0798;-1.0679;
-24.6000;0.0863;-1.0521;
-24.3000;0.0790;-1.0747;
-24.0000;0.0773;-1.0724;
-23.7000;0.0806;-1.0724;
-23.4000;0.0765;-1.0905;
-23.1000;0.0855;-1.0702;
-22.8000;0.0806;-1.0747;
-22.5000;0.0724;-1.0928;
-22.2000;0.0749;-1.0951;
-21.9000;0.0790;-1.0860;
-21.6000;0.0781;-1.0770;
-21.3000;0.0716;-1.0951;
-21.0000;0.0741;-1.0905;
-20.7000;0.0781;-1.0724;
-20.4000;0.0765;-1.0770;
-20.1000;0.0798;-1.0679;
-19.8000;0.0798;-1.0656;
-19.5000;0.0830;-1.0543;
-19.2000;0.0838;-1.0566;
-18.9000;0.0790;-1.0611;
-18.6000;0.0790;-1.0521;
-18.3000;0.0806;-1.0521;
-18.0000;0.0781;-1.0634;
-17.7000;0.0806;-1.0589;
-17.4000;0.0798;-1.0566;
-17.1000;0.0790;-1.0747;
-16.8000;0.0765;-1.0815;
-16.5000;0.0814;-1.0770;
-16.2000;0.0895;-1.0611;
-15.9000;0.0773;-1.0883;
-15.6000;0.0757;-1.0837;
-15.3000;0.0847;-1.0566;
-15.0000;0.0790;-1.0611;
-14.7000;0.0838;-1.0521;
-14.4000;0.0790;-1.0611;
-14.1000;0.0790;-1.0702;
-13.8000;0.0798;-1.0747;
-13.5000;0.0716;-1.0996;
-13.2000;0.0806;-1.0679;
-12.9000;0.0814;-1.0702;
-12.6000;0.0773;-1.0679;
-12.3000;0.0781;-1.0724;
-12.0000;0.0773;-1.0702;
-11.7000;0.0790;-1.0724;
-11.4000;0.0806;-1.0611;
-11.1000;0.0806;-1.0589;
-10.8000;0.0790;-1.0521;
-10.5000;0.0781;-1.0521;
-10.2000;0.0765;-1.0589;
-9.9000;0.0798;-1.0589;
-9.6000;0.0781;-1.0611;
-9.3000;0.0773;-1.0679;
-9.0000;0.0773;-1.0679;
-8.7000;0.0798;-1.0566;
-8.4000;0.0749;-1.0702;
-8.1000;0.0765;-1.0724;
-7.8000;0.0781;-1.0702;
-7.5000;0.0773;-1.0770;
-7.2000;0.0814;-1.0724;
-6.9000;0.0781;-1.0792;
-6.6000;0.0790;-1.0747;
-6.3000;0.0765;-1.0815;
-6.0000;0.0790;-1.0634;
-5.7000;0.0773;-1.0656;
-5.4000;0.0798;-1.0543;
-5.1000;0.0741;-1.0702;
-4.8000;0.0781;-1.0589;
-4.5000;0.0773;-1.0589;
-4.2000;0.0814;-1.0498;
-3.9000;0.0838;-1.0340;
-3.6000;0.0798;-1.0498;
-3.3000;0.0847;-1.0362;
-3.0000;0.0822;-1.0453;
-2.7000;0.0806;-1.0521;
-2.4000;0.0781;-1.0634;
-2.1000;0.0798;-1.0634;
-1.8000;0.0773;-1.0702;
-1.5000;0.0773;-1.0702;
-1.2000;0.0773;-1.0770;
-0.9000;0.0790;-1.0815;
-0.6000;0.0692;-1.1064;
-0.3000;0.0806;-1.0792;
0.0000;0.0806;-1.0792;
0.3000;0.0798;-1.0928;
0.6000;0.0895;-1.0589;
0.9000;0.0879;-1.0498;
1.2000;0.0847;-1.0430;
1.5000;0.0863;-1.0408;
1.8000;0.0912;-1.0181;
2.1000;0.0871;-1.0159;
2.4000;0.0871;-1.0113;
2.7000;0.0887;-1.0046;
3.0000;0.0879;-0.9887;
3.3000;0.0904;-0.9819;
3.6000;0.0879;-0.9932;
3.9000;0.0887;-0.9932;
4.2000;0.0879;-0.9887;
4.5000;0.0887;-0.9887;
4.8000;0.0944;-0.9661;
5.1000;0.0895;-0.9819;
5.4000;0.0895;-0.9751;
5.7000;0.0936;-0.9616;
6.0000;0.0920;-0.9593;
6.3000;0.0895;-0.9570;
6.6000;0.0928;-0.9548;
6.9000;0.0920;-0.9480;
7.2000;0.0912;-0.9480;
7.5000;0.0887;-0.9503;
7.8000;0.0904;-0.9457;
8.1000;0.0912;-0.9457;
8.4000;0.0920;-0.9503;
8.7000;0.0912;-0.9480;
9.0000;0.0871;-0.9480;
9.3000;0.0887;-0.9457;
9.6000;0.0895;-0.9435;
9.9000;0.0830;-0.9570;
10.2000;0.0920;-0.9435;
10.5000;0.1001;-0.9322;
10.8000;0.0904;-0.9548;
11.1000;0.0904;-0.9570;
11.4000;0.0863;-0.9661;
11.7000;0.0887;-0.9593;
12.0000;0.0912;-0.9593;
12.3000;0.0887;-0.9616;
12.6000;0.0904;-0.9548;
12.9000;0.0928;-0.9525;
13.2000;0.0895;-0.9593;
13.5000;0.0814;-0.9842;
13.8000;0.0912;-0.9548;
14.1000;0.0928;-0.9525;
14.4000;0.0920;-0.9457;
14.7000;0.0912;-0.9457;
15.0000;0.0895;-0.9435;
15.3000;0.0895;-0.9435;
15.6000;0.0863;-0.9548;
15.9000;0.0920;-0.9503;
16.2000;0.0895;-0.9638;
16.5000;0.0757;-0.9955;
16.8000;0.0969;-0.9457;
17.1000;0.0904;-0.9661;
17.4000;0.0920;-0.9729;
17.7000;0.0822;-0.9910;
18.0000;0.0977;-0.9570;
18.3000;0.0904;-0.9774;
18.6000;0.0904;-0.9706;
18.9000;0.0944;-0.9525;
19.2000;0.0912;-0.9616;
19.5000;0.0895;-0.9570;
19.8000;0.0871;-0.9661;
20.1000;0.0863;-0.9819;
20.4000;0.0928;-0.9684;
20.7000;0.0904;-0.9729;
21.0000;0.0904;-0.9751;
21.3000;0.0920;-0.9706;
21.6000;0.0912;-0.9751;
21.9000;0.0912;-0.9842;
22.2000;0.0928;-0.9797;
22.5000;0.0895;-0.9865;
22.8000;0.0928;-0.9842;
23.1000;0.0912;-0.9955;
23.4000;0.0871;-0.9887;
23.7000;0.0920;-0.9751;
24.0000;0.0879;-0.9797;
24.3000;0.0912;-0.9751;
24.6000;0.0887;-0.9751;
24.9000;0.0904;-0.9638;
25.2000;0.0920;-0.9570;
25.5000;0.0912;-0.9548;
25.8000;0.0912;-0.9616;
26.1000;0.0912;-0.9638;
26.4000;0.0912;-0.9593;
26.7000;0.0928;-0.9525;
27.0000;0.0912;-0.9616;
27.3000;0.0920;-0.9503;
27.6000;0.0969;-0.9389;
27.9000;0.0920;-0.9480;
28.2000;0.0920;-0.9525;
28.5000;0.0806;-0.9932;
28.8000;0.0928;-0.9593;
29.1000;0.0920;-0.9503;
29.4000;0.0912;-0.9457;
29.7000;0.0879;-0.9548;
30.0000;0.0936;-0.9457;
30.3000;0.0912;-0.9616;
30.6000;0.0887;-0.9729;
30.9000;0.0952;-0.9548;
31.2000;0.0912;-0.9548;
31.5000;0.0952;-0.9435;
31.8000;0.1026;-0.9322;
32.1000;0.0961;-0.9480;
32.4000;0.0928;-0.9480;
32.7000;0.0920;-0.9548;
33.0000;0.0855;-0.9729;
33.3000;0.0928;-0.9480;
33.6000;0.0944;-0.9480;
33.9000;0.1018;-0.9322;
34.2000;0.0912;-0.9593;
34.5000;0.0936;-0.9548;
34.8000;0.0912;-0.9638;
35.1000;0.1034;-0.9299;
35.4000;0.0928;-0.9593;
35.7000;0.0895;-0.9593;
36.0000;0.0895;-0.9548;
36.3000;0.0928;-0.9480;
36.6000;0.0912;-0.9525;
36.9000;0.0920;-0.9480;
37.2000;0.0952;-0.9322;
37.5000;0.0904;-0.9367;
37.8000;0.0912;-0.9412;
38.1000;0.0936;-0.9389;
38.4000;0.0969;-0.9344;
38.7000;0.0944;-0.9435;
39.0000;0.0936;-0.9525;
39.3000;0.0928;-0.9503;
39.6000;0.0904;-0.9570;
39.9000;0.0912;-0.9548;
40.2000;0.0928;-0.9503;
40.5000;0.0871;-0.9593;
40.8000;0.1009;-0.9141;
41.1000;0.0871;-0.9503;
41.4000;0.1018;-0.9208;
41.7000;0.0961;-0.9435;
42.0000;0.0944;-0.9548;
42.3000;0.0928;-0.9638;
42.6000;0.0895;-0.9661;
42.9000;0.0928;-0.9638;
43.2000;0.0985;-0.9525;
43.5000;0.0928;-0.9548;
43.8000;0.0912;-0.9480;
44.1000;0.0904;-0.9503;
44.4000;0.0936;-0.9435;
44.7000;0.0928;-0.9503;
45.0000;0.0936;-0.9570;
45.3000;0.0871;-0.9751;
45.6000;0.0928;-0.9593;
45.9000;0.0961;-0.9457;
46.2000;0.0936;-0.9503;
46.5000;0.0952;-0.9480;
46.8000;0.0936;-0.9548;
47.1000;0.0847;-0.9684;
47.4000;0.0952;-0.9412;
47.7000;0.0944;-0.9412;
48.0000;0.0952;-0.9435;
48.3000;0.0936;-0.9435;
48.6000;0.0920;-0.9503;
48.9000;0.1026;-0.9299;
49.2000;0.0928;-0.9525;
49.5000;0.0920;-0.9684;
49.8000;0.1026;-0.9435;
50.1000;0.0920;-0.9638;
50.4000;0.0920;-0.9661;
50.7000;0.0904;-0.9684;
51.0000;0.0952;-0.9638;
51.3000;0.0961;-0.9638;
51.6000;0.0904;-0.9774;
51.9000;0.0928;-0.9706;
52.2000;0.0928;-0.9706;
52.5000;0.0920;-0.9729;
52.8000;0.0928;-0.9661;
53.1000;0.0895;-0.9774;
53.4000;0.0993;-0.9570;
53.7000;0.0936;-0.9684;
54.0000;0.0904;-0.9729;
54.3000;0.0993;-0.9593;
54.6000;0.0912;-0.9751;
54.9000;0.0944;-0.9774;
55.2000;0.0928;-0.9797;
55.5000;0.0928;-0.9729;
55.8000;0.0895;-0.9774;
56.1000;0.0944;-0.9684;
56.4000;0.0928;-0.9706;
56.7000;0.0936;-0.9661;
57.0000;0.0912;-0.9616;
57.3000;0.0904;-0.9661;
57.6000;0.0936;-0.9525;
57.9000;0.0895;-0.9570;
58.2000;0.0928;-0.9570;
58.5000;0.0928;-0.9457;
58.8000;0.0936;-0.9367;
59.1000;0.0920;-0.9367;
59.4000;0.0928;-0.9503;
59.7000;0.0952;-0.9480;
60.0000;0.0863;-0.9684;
60.3000;0.0928;-0.9457;
60.6000;0.0936;-0.9457;
60.9000;0.0895;-0.9570;
61.2000;0.0952;-0.9457;
61.5000;0.0961;-0.9457;
61.8000;0.0928;-0.9503;
62.1000;0.0952;-0.9457;
62.4000;0.0952;-0.9503;
62.7000;0.0920;-0.9593;
63.0000;0.0912;-0.9638;
63.3000;0.0904;-0.9684;
63.6000;0.0936;-0.9570;
63.9000;0.0944;-0.9525;
64.2000;0.0993;-0.9457;
64.5000;0.1058;-0.9299;
64.8000;0.0952;-0.9503;
65.1000;0.0952;-0.9435;
65.4000;0.0936;-0.9570;
65.7000;0.0806;-0.9865;
66.0000;0.0895;-0.9684;
66.3000;0.0936;-0.9729;
66.6000;0.0928;-0.9774;
66.9000;0.0912;-0.9842;
67.2000;0.0936;-0.9729;
67.5000;0.0920;-0.9729;
67.8000;0.0928;-0.9706;
68.1000;0.0920;-0.9684;
68.4000;0.0944;-0.9661;
68.7000;0.0920;-0.9729;
69.0000;0.0928;-0.9661;
69.3000;0.0928;-0.9661;
69.6000;0.0944;-0.9593;
69.9000;0.0944;-0.9570;
70.2000;0.0928;-0.9661;
70.5000;0.0944;-0.9616;
70.8000;0.0904;-0.9593;
71.1000;0.0969;-0.9525;
71.4000;0.0961;-0.9548;
71.7000;0.0952;-0.9503;
72.0000;0.0977;-0.9435;
72.3000;0.0887;-0.9751;
72.6000;0.1009;-0.9412;
72.9000;0.0936;-0.9593;
73.2000;0.0928;-0.9638;
73.5000;0.0936;-0.9616;
73.8000;0.0765;-0.9865;
74.1000;0.0912;-0.9548;
74.4000;0.0928;-0.9480;
74.7000;0.0912;-0.9503;
75.0000;0.0928;-0.9480;
75.3000;0.0912;-0.9412;
75.6000;0.0847;-0.9661;
75.9000;0.0944;-0.9457;
76.2000;0.0928;-0.9480;
76.5000;0.0936;-0.9457;
76.8000;0.0928;-0.9525;
77.1000;0.0936;-0.9480;
77.4000;0.0928;-0.9412;
77.7000;0.0952;-0.9299;
78.0000;0.0944;-0.9322;
78.3000;0.0961;-0.9276;
78.6000;0.0920;-0.9412;
78.9000;0.0977;-0.9231;
79.2000;0.0944;-0.9299;
79.5000;0.0904;-0.9389;
79.8000;0.0928;-0.9299;
80.1000;0.0895;-0.9322;
80.4000;0.0936;-0.9231;
80.7000;0.0912;-0.9276;
81.0000;0.0944;-0.9322;
81.3000;0.0928;-0.9389;
81.6000;0.0944;-0.9367;
81.9000;0.0952;-0.9367;
82.2000;0.0904;-0.9480;
82.5000;0.0904;-0.9480;
82.8000;0.0904;-0.9480;
83.1000;0.0944;-0.9367;
83.4000;0.0936;-0.9480;
83.7000;0.0944;-0.9480;
84.0000;0.0855;-0.9751;
84.3000;0.0961;-0.9457;
84.6000;0.0928;-0.9548;
84.9000;0.0928;-0.9457;
85.2000;0.0952;-0.9299;
85.5000;0.0944;-0.9322;
85.8000;0.0944;-0.9276;
86.1000;0.0928;-0.9389;
86.4000;0.0961;-0.9457;
86.7000;0.0887;-0.9661;
87.0000;0.0969;-0.9503;
87.3000;0.0944;-0.9593;
87.6000;0.0961;-0.9570;
87.9000;0.0928;-0.9593;
88.2000;0.0855;-0.9797;
88.5000;0.0928;-0.9548;
88.8000;0.0936;-0.9525;
89.1000;0.0920;-0.9593;
89.4000;0.0936;-0.9525;
89.7000;0.0904;-0.9593;
90.0000;0.1042;-0.9254;
90.3000;0.0944;-0.9503;
90.6000;0.0904;-0.9593;
90.9000;0.0912;-0.9706;
91.2000;0.0920;-0.9706;
91.5000;0.0969;-0.9480;
91.8000;0.0920;-0.9616;
92.1000;0.0879;-0.9729;
92.4000;0.0928;-0.9638;
92.7000;0.0904;-0.9684;
93.0000;0.0928;-0.9616;
93.3000;0.0936;-0.9638;
93.6000;0.0912;-0.9570;
93.9000;0.0944;-0.9548;
94.2000;0.0969;-0.9480;
94.5000;0.0961;-0.9570;
94.8000;0.0920;-0.9548;
95.1000;0.0944;-0.9457;
95.4000;0.0961;-0.9480;
95.7000;0.0961;-0.9570;
96.0000;0.0928;-0.9638;
96.3000;0.0936;-0.9616;
96.6000;0.0952;-0.9570;
96.9000;0.0977;-0.9525;
97.2000;0.0961;-0.9661;
97.5000;0.0993;-0.9616;
97.8000;0.0912;-0.9910;
98.1000;0.0944;-0.9819;
98.4000;0.0944;-0.9797;
98.7000;0.0928;-0.9797;
99.0000;0.0912;-0.9774;
99.3000;0.0936;-0.9797;
99.6000;0.0944;-0.9729;
99.9000;0.0985;-0.9525;
100.2000;0.0944;-0.9457;
100.5000;0.0928;-0.9412;
100.8000;0.0936;-0.9435;
101.1000;0.0936;-0.9412;
101.4000;0.0920;-0.9480;
101.7000;0.0944;-0.9412;
102.0000;0.0952;-0.9457;
102.3000;0.0961;-0.9412;
102.6000;0.0920;-0.9503;
102.9000;0.0928;-0.9457;
103.2000;0.0944;-0.9389;
103.5000;0.0944;-0.9344;
103.8000;0.0920;-0.9389;
104.1000;0.0952;-0.9322;
104.4000;0.0952;-0.9389;
104.7000;0.0944;-0.9480;
105.0000;0.0969;-0.9548;
105.3000;0.0936;-0.9593;
105.6000;0.0961;-0.9593;
105.9000;0.0936;-0.9706;
106.2000;0.1009;-0.9525;
106.5000;0.0936;-0.9751;
106.8000;0.0969;-0.9570;
107.1000;0.0944;-0.9593;
107.4000;0.0863;-0.9774;
107.7000;0.0904;-0.9638;
108.0000;0.1009;-0.9412;
108.3000;0.0961;-0.9503;
108.6000;0.1009;-0.9457;
108.9000;0.0928;-0.9616;
109.2000;0.0912;-0.9638;
109.5000;0.0944;-0.9480;
109.8000;0.0944;-0.9389;
110.1000;0.0985;-0.9254;
110.4000;0.0944;-0.9344;
110.7000;0.0936;-0.9412;
111.0000;0.0928;-0.9412;
111.3000;0.0944;-0.9322;
111.6000;0.0936;-0.9322;
111.9000;0.0838;-0.9616;
112.2000;0.0944;-0.9412;
112.5000;0.0952;-0.9389;
112.8000;0.0887;-0.9638;
113.1000;0.0936;-0.9548;
113.4000;0.0936;-0.9503;
113.7000;0.0887;-0.9548;
114.0000;0.0944;-0.9367;
114.3000;0.0944;-0.9344;
114.6000;0.0952;-0.9276;
114.9000;0.0936;-0.9344;
115.2000;0.0928;-0.9322;
115.5000;0.0952;-0.9322;
115.8000;0.0944;-0.9299;
116.1000;0.0961;-0.9299;
116.4000;0.0961;-0.9276;
116.7000;0.0944;-0.9367;
117.0000;0.0961;-0.9299;
117.3000;0.0961;-0.9344;
117.6000;0.0969;-0.9367;
117.9000;0.0944;-0.9435;
118.2000;0.0969;-0.9344;
118.5000;0.0961;-0.9344;
118.8000;0.0952;-0.9299;
119.1000;0.0928;-0.9344;
119.4000;0.0977;-0.9299;
119.7000;0.0961;-0.9389;
120.0000;0.0944;-0.9389;
120.3000;0.0920;-0.9412;
120.6000;0.0936;-0.9457;
120.9000;0.0944;-0.9548;
121.2000;0.0920;-0.9593;
121.5000;0.0871;-0.9774;
121.8000;0.0936;-0.9570;
122.1000;0.0952;-0.9548;
122.4000;0.0952;-0.9548;
122.7000;0.0944;-0.9503;
123.0000;0.0904;-0.9593;
123.3000;0.0944;-0.9480;
123.6000;0.0936;-0.9457;
123.9000;0.0944;-0.9457;
124.2000;0.0936;-0.9548;
124.5000;0.0920;-0.9548;
124.8000;0.0952;-0.9525;
125.1000;0.0969;-0.9389;
125.4000;0.0961;-0.9389;
125.7000;0.0928;-0.9503;
126.0000;0.0928;-0.9525;
126.3000;0.0944;-0.9322;
126.6000;0.0952;-0.9299;
126.9000;0.0928;-0.9480;
127.2000;0.0936;-0.9503;
127.5000;0.0904;-0.9616;
127.8000;0.0952;-0.9457;
128.1000;0.0912;-0.9480;
128.4000;0.0944;-0.9389;
128.7000;0.0944;-0.9412;
129.0000;0.0863;-0.9616;
129.3000;0.0912;-0.9435;
129.6000;0.0936;-0.9276;
129.9000;0.0936;-0.9254;
130.2000;0.0928;-0.9322;
130.5000;0.0936;-0.9208;
130.8000;0.0961;-0.9163;
131.1000;0.0961;-0.9299;
131.4000;0.0895;-0.9457;
131.7000;0.0928;-0.9344;
132.0000;0.0936;-0.9367;
132.3000;0.0928;-0.9412;
132.6000;0.0895;-0.9412;
132.9000;0.1050;-0.9073;
133.2000;0.0936;-0.9367;
133.5000;0.0993;-0.9254;
133.8000;0.1042;-0.9231;
134.1000;0.0920;-0.9616;
134.4000;0.0871;-0.9706;
134.7000;0.0952;-0.9435;
135.0000;0.0969;-0.9435;
135.3000;0.0936;-0.9503;
135.6000;0.0920;-0.9503;
135.9000;0.0904;-0.9570;
136.2000;0.1001;-0.9367;
136.5000;0.0879;-0.9661;
136.8000;0.1001;-0.9344;
137.1000;0.0936;-0.9570;
137.4000;0.0952;-0.9503;
137.7000;0.0928;-0.9616;
138.0000;0.0944;-0.9570;
138.3000;0.0952;-0.9548;
138.6000;0.0944;-0.9570;
138.9000;0.0904;-0.9593;
139.2000;0.0928;-0.9570;
139.5000;0.0920;-0.9548;
139.8000;0.0936;-0.9480;
140.1000;0.0961;-0.9389;
140.4000;0.0928;-0.9503;
140.7000;0.0920;-0.9616;
141.0000;0.0952;-0.9570;
141.3000;0.0952;-0.9570;
141.6000;0.0944;-0.9548;
141.9000;0.0936;-0.9503;
142.2000;0.0952;-0.9457;
142.5000;0.0936;-0.9503;
142.8000;0.0985;-0.9435;
143.1000;0.0952;-0.9548;
143.4000;0.0928;-0.9570;
143.7000;0.0944;-0.9480;
144.0000;0.0944;-0.9525;
144.3000;0.0920;-0.9593;
144.6000;0.0944;-0.9638;
144.9000;0.0952;-0.9616;
145.2000;0.0944;-0.9661;
145.5000;0.0879;-0.9955;
145.8000;0.0944;-0.9819;
146.1000;0.0936;-0.9842;
146.4000;0.0936;-0.9819;
146.7000;0.0928;-0.9842;
147.0000;0.0920;-0.9797;
147.3000;0.0928;-0.9684;
147.6000;0.0855;-0.9774;
147.9000;0.0887;-0.9684;
148.2000;0.0928;-0.9729;
148.5000;0.0944;-0.9774;
148.8000;0.0952;-0.9706;
149.1000;0.0944;-0.9684;
149.4000;0.0952;-0.9525;
149.7000;0.0936;-0.9570;
150.0000;0.0944;-0.9525;
150.3000;0.0887;-0.9661;
150.6000;0.0920;-0.9729;
150.9000;0.0920;-0.9751;
151.2000;0.0936;-0.9684;
151.5000;0.0969;-0.9706;
151.8000;0.0952;-0.9616;
152.1000;0.0928;-0.9593;
152.4000;0.0944;-0.9616;
152.7000;0.0952;-0.9616;
153.0000;0.0969;-0.9638;
153.3000;0.0936;-0.9729;
153.6000;0.0928;-0.9684;
153.9000;0.0952;-0.9661;
154.2000;0.0944;-0.9751;
154.5000;0.0928;-0.9751;
154.8000;0.0969;-0.9684;
155.1000;0.0969;-0.9638;
155.4000;0.0944;-0.9593;
155.7000;0.0952;-0.9616;
156.0000;0.0904;-0.9774;
156.3000;0.0928;-0.9616;
156.6000;0.0936;-0.9661;
156.9000;0.0961;-0.9593;
157.2000;0.0912;-0.9661;
157.5000;0.0993;-0.9435;
157.8000;0.0887;-0.9842;
158.1000;0.0944;-0.9616;
158.4000;0.0936;-0.9570;
158.7000;0.0944;-0.9638;
159.0000;0.0895;-0.9887;
159.3000;0.0952;-0.9774;
159.6000;0.0952;-0.9774;
159.9000;0.0936;-0.9774;
160.2000;0.0944;-0.9729;
160.5000;0.0961;-0.9661;
160.8000;0.0936;-0.9616;
161.1000;0.0920;-0.9661;
161.4000;0.0936;-0.9570;
161.7000;0.0952;-0.9525;
162.0000;0.0936;-0.9638;
162.3000;0.1009;-0.9457;
162.6000;0.0936;-0.9638;
162.9000;0.0920;-0.9638;
163.2000;0.0928;-0.9616;
163.5000;0.0863;-0.9751;
163.8000;0.0920;-0.9706;
164.1000;0.0977;-0.9593;
164.4000;0.0863;-0.9842;
164.7000;0.0871;-0.9751;
165.0000;0.0887;-0.9684;
165.3000;0.0944;-0.9593;
165.6000;0.0838;-0.9932;
165.9000;0.0912;-0.9751;
166.2000;0.0928;-0.9684;
166.5000;0.0912;-0.9684;
166.8000;0.0814;-0.9932;
167.1000;0.0928;-0.9751;
167.4000;0.0944;-0.9797;
167.7000;0.0920;-0.9774;
168.0000;0.0969;-0.9684;
168.3000;0.0969;-0.9661;
168.6000;0.0904;-0.9751;
168.9000;0.0928;-0.9661;
169.2000;0.0952;-0.9570;
169.5000;0.0928;-0.9661;
169.8000;0.0936;-0.9593;
170.1000;0.0969;-0.9525;
170.4000;0.0912;-0.9593;
170.7000;0.0961;-0.9503;
171.0000;0.0936;-0.9548;
171.3000;0.0969;-0.9525;
171.6000;0.0912;-0.9706;
171.9000;0.0952;-0.9661;
172.2000;0.0977;-0.9616;
172.5000;0.0912;-0.9819;
172.8000;0.0928;-0.9661;
173.1000;0.0920;-0.9638;
173.4000;0.0928;-0.9684;
173.7000;0.0936;-0.9616;
174.0000;0.0928;-0.9593;
174.3000;0.0944;-0.9525;
174.6000;0.0936;-0.9638;
174.9000;0.0838;-0.9887;
175.2000;0.0920;-0.9706;
175.5000;0.0952;-0.9684;
175.8000;0.0928;-0.9729;
176.1000;0.0936;-0.9616;
176.4000;0.0871;-0.9910;
176.7000;0.0912;-0.9729;
177.0000;0.0977;-0.9525;
177.3000;0.0936;-0.9616;
177.6000;0.0936;-0.9570;
177.9000;0.0928;-0.9570;
178.2000;0.0952;-0.9525;
178.5000;0.0969;-0.9503;
178.8000;0.0952;-0.9503;
179.1000;0.0944;-0.9435;
179.4000;0.0952;-0.9412;
179.7000;0.0928;-0.9457;
180.0000;0.0936;-0.9412;
180.3000;0.0936;-0.9389;
180.6000;0.0944;-0.9367;
180.9000;0.0920;-0.9457;
181.2000;0.1034;-0.9208;
181.5000;0.0985;-0.9435;
181.8000;0.0936;-0.9525;
182.1000;0.0944;-0.9503;
182.4000;0.0952;-0.9480;
182.7000;0.0944;-0.9480;
183.0000;0.0944;-0.9480;
183.3000;0.0936;-0.9525;
183.6000;0.0936;-0.9480;
183.9000;0.0944;-0.9435;
184.2000;0.0936;-0.9389;
184.5000;0.0936;-0.9457;
184.8000;0.0952;-0.9389;
185.1000;0.0928;-0.9457;
185.4000;0.0928;-0.9593;
185.7000;0.0936;-0.9616;
186.0000;0.0961;-0.9480;
186.3000;0.0952;-0.9548;
186.6000;0.0944;-0.9548;
186.9000;0.0952;-0.9548;
187.2000;0.0944;-0.9548;
187.5000;0.0928;-0.9525;
187.8000;0.0977;-0.9435;
188.1000;0.0952;-0.9457;
188.4000;0.0952;-0.9412;
188.7000;0.0936;-0.9480;
189.0000;0.0928;-0.9503;
189.3000;0.0863;-0.9706;
189.6000;0.0993;-0.9344;
189.9000;0.0952;-0.9480;
190.2000;0.0928;-0.9570;
190.5000;0.0961;-0.9503;
190.8000;0.0920;-0.9435;
191.1000;0.0936;-0.9435;
191.4000;0.0928;-0.9412;
191.7000;0.0936;-0.9367;
192.0000;0.0944;-0.9435;
192.3000;0.0944;-0.9412;
192.6000;0.0863;-0.9638;
192.9000;0.0952;-0.9412;
193.2000;0.0928;-0.9548;
193.5000;0.0952;-0.9435;
193.8000;0.0952;-0.9412;
194.1000;0.0920;-0.9548;
194.4000;0.0928;-0.9661;
194.7000;0.0961;-0.9616;
195.0000;0.0928;-0.9729;
195.3000;0.0928;-0.9774;
195.6000;0.0904;-0.9819;
195.9000;0.0961;-0.9684;
196.2000;0.0936;-0.9684;
196.5000;0.0936;-0.9684;
196.8000;0.0944;-0.9684;
197.1000;0.0944;-0.9593;
197.4000;0.0920;-0.9638;
197.7000;0.0944;-0.9570;
198.0000;0.0936;-0.9525;
198.3000;0.0920;-0.9616;
198.6000;0.0920;-0.9638;
198.9000;0.0920;-0.9593;
199.2000;0.0936;-0.9593;
199.5000;0.1034;-0.9367;
199.8000;0.0961;-0.9638;
200.1000;0.0977;-0.9525;
200.4000;0.0928;-0.9661;
200.7000;0.0928;-0.9661;
201.0000;0.0904;-0.9616;
201.3000;0.0944;-0.9593;
201.6000;0.0936;-0.9548;
201.9000;0.0928;-0.9638;
202.2000;0.0928;-0.9616;
202.5000;0.0904;-0.9684;
202.8000;0.0961;-0.9684;
203.1000;0.0969;-0.9706;
203.4000;0.0952;-0.9684;
203.7000;0.0961;-0.9684;
204.0000;0.0952;-0.9638;
204.3000;0.0928;-0.9661;
204.6000;0.0936;-0.9570;
204.9000;0.0936;-0.9503;
205.2000;0.0944;-0.9503;
205.5000;0.0969;-0.9503;
205.8000;0.0904;-0.9706;
206.1000;0.0847;-0.9978;
206.4000;0.0928;-0.9797;
206.7000;0.0961;-0.9661;
207.0000;0.0936;-0.9616;
207.3000;0.0944;-0.9593;
207.6000;0.0912;-0.9729;
207.9000;0.0961;-0.9616;
208.2000;0.0928;-0.9774;
208.5000;0.0936;-0.9729;
208.8000;0.0969;-0.9638;
209.1000;0.0961;-0.9729;
209.4000;0.0904;-0.9887;
209.7000;0.0952;-0.9706;
210.0000;0.0952;-0.9706;
210.3000;0.0936;-0.9842;
210.6000;0.0904;-0.9978;
210.9000;0.0936;-0.9932;
211.2000;0.0928;-0.9865;
211.5000;0.0912;-0.9910;
211.8000;0.0952;-0.9751;
212.1000;0.0928;-0.9751;
212.4000;0.0961;-0.9661;
212.7000;0.0920;-0.9774;
213.0000;0.0985;-0.9616;
213.3000;0.0928;-0.9729;
213.6000;0.0944;-0.9706;
213.9000;0.0936;-0.9797;
214.2000;0.0920;-0.9797;
214.5000;0.0920;-0.9842;
214.8000;0.0798;-1.0091;
215.1000;0.0928;-0.9684;
215.4000;0.1026;-0.9480;
215.7000;0.0928;-0.9797;
216.0000;0.0961;-0.9797;
216.3000;0.0969;-0.9842;
216.6000;0.0961;-0.9955;
216.9000;0.0944;-0.9910;
217.2000;0.0952;-0.9842;
217.5000;0.0920;-0.9865;
217.8000;0.0969;-0.9729;
218.1000;0.0952;-0.9729;
218.4000;0.0912;-0.9797;
218.7000;0.0952;-0.9661;
219.0000;0.0936;-0.9684;
219.3000;0.0936;-0.9684;
219.6000;0.0920;-0.9819;
219.9000;0.0928;-0.9706;
220.2000;0.0944;-0.9684;
220.5000;0.0952;-0.9593;
220.8000;0.0904;-0.9706;
221.1000;0.0904;-0.9684;
221.4000;0.0936;-0.9593;
221.7000;0.0928;-0.9661;
222.0000;0.0904;-0.9842;
222.3000;0.0936;-0.9751;
222.6000;0.0969;-0.9616;
222.9000;0.0936;-0.9661;
223.2000;0.0936;-0.9638;
223.5000;0.0928;-0.9661;
223.8000;0.0904;-0.9706;
224.1000;0.0936;-0.9684;
224.4000;0.0928;-0.9684;
224.7000;0.0961;-0.9638;
225.0000;0.0952;-0.9638;
225.3000;0.0936;-0.9706;
225.6000;0.0928;-0.9616;
225.9000;0.0944;-0.9525;
226.2000;0.0928;-0.9661;
226.5000;0.0847;-0.9865;
226.8000;0.0936;-0.9706;
227.1000;0.0977;-0.9638;
227.4000;0.0944;-0.9684;
227.7000;0.0944;-0.9684;
228.0000;0.0928;-0.9661;
228.3000;0.0928;-0.9638;
228.6000;0.0838;-0.9774;
228.9000;0.0936;-0.9616;
229.2000;0.0952;-0.9661;
229.5000;0.0847;-0.9865;
229.8000;0.1018;-0.9412;
230.1000;0.0879;-0.9819;
230.4000;0.0912;-0.9729;
230.7000;0.1009;-0.9389;
231.0000;0.0944;-0.9548;
231.3000;0.0928;-0.9593;
231.6000;0.0952;-0.9525;
231.9000;0.0936;-0.9570;
232.2000;0.0928;-0.9548;
232.5000;0.0920;-0.9638;
232.8000;0.0944;-0.9548;
233.1000;0.0928;-0.9548;
233.4000;0.0936;-0.9503;
233.7000;0.0928;-0.9435;
234.0000;0.0985;-0.9322;
234.3000;0.0969;-0.9389;
234.6000;0.0920;-0.9616;
234.9000;0.0936;-0.9593;
235.2000;0.0936;-0.9638;
235.5000;0.0928;-0.9729;
235.8000;0.0952;-0.9638;
236.1000;0.0912;-0.9751;
236.4000;0.0944;-0.9684;
236.7000;0.0928;-0.9797;
237.0000;0.0936;-0.9819;
237.3000;0.0944;-0.9910;
237.6000;0.0952;-0.9865;
237.9000;0.0830;-1.0046;
238.2000;0.0952;-0.9729;
238.5000;0.0961;-0.9661;
238.8000;0.0952;-0.9751;
239.1000;0.0928;-0.9842;
239.4000;0.0952;-0.9797;
239.7000;0.0952;-0.9661;
240.0000;0.0928;-0.9729;
240.3000;0.0952;-0.9548;
240.6000;0.0944;-0.9570;
240.9000;0.0904;-0.9706;
241.2000;0.0944;-0.9638;
241.5000;0.0944;-0.9593;
241.8000;0.0944;-0.9593;
242.1000;0.0952;-0.9616;
242.4000;0.0936;-0.9684;
242.7000;0.0944;-0.9751;
243.0000;0.0895;-0.9955;
243.3000;0.0969;-0.9706;
243.6000;0.0944;-0.9751;
243.9000;0.0936;-0.9706;
244.2000;0.0952;-0.9638;
244.5000;0.0928;-0.9661;
244.8000;0.0936;-0.9684;
245.1000;0.0904;-0.9684;
245.4000;0.0912;-0.9548;
245.7000;0.0944;-0.9367;
246.0000;0.0944;-0.9435;
246.3000;0.0944;-0.9457;
246.6000;0.0895;-0.9570;
246.9000;0.1058;-0.9163;
247.2000;0.0944;-0.9435;
247.5000;0.0920;-0.9457;
247.8000;0.0944;-0.9435;
248.1000;0.0985;-0.9254;
248.4000;0.0936;-0.9412;
248.7000;0.0952;-0.9412;
249.0000;0.0936;-0.9435;
249.3000;0.0928;-0.9480;
249.6000;0.0969;-0.9322;
249.9000;0.0895;-0.9412;
250.2000;0.0944;-0.9254;
250.5000;0.0863;-0.9480;
250.8000;0.0952;-0.9367;
251.1000;0.0936;-0.9367;
251.4000;0.0912;-0.9389;
251.7000;0.0952;-0.9276;
252.0000;0.0952;-0.9322;
252.3000;0.0969;-0.9322;
252.6000;0.0936;-0.9389;
252.9000;0.0920;-0.9435;
253.2000;0.0961;-0.9299;
253.5000;0.0920;-0.9367;
253.8000;0.0879;-0.9503;
254.1000;0.0920;-0.9435;
254.4000;0.0928;-0.9480;
254.7000;0.0928;-0.9548;
255.0000;0.0928;-0.9548;
255.3000;0.0920;-0.9661;
255.6000;0.0936;-0.9548;
255.9000;0.0944;-0.9570;
256.2000;0.0928;-0.9570;
256.5000;0.0944;-0.9548;
256.8000;0.0928;-0.9570;
257.1000;0.0944;-0.9548;
257.4000;0.0961;-0.9457;
257.7000;0.0961;-0.9435;
258.0000;0.0936;-0.9480;
258.3000;0.0944;-0.9457;
258.6000;0.0977;-0.9389;
258.9000;0.0920;-0.9593;
259.2000;0.0936;-0.9503;
259.5000;0.0952;-0.9435;
259.8000;0.0928;-0.9503;
260.1000;0.0936;-0.9525;
260.4000;0.0952;-0.9435;
260.7000;0.0952;-0.9480;
261.0000;0.0928;-0.9503;
261.3000;0.0912;-0.9525;
261.6000;0.0936;-0.9412;
261.9000;0.0944;-0.9389;
262.2000;0.0928;-0.9367;
262.5000;0.0928;-0.9299;
262.8000;0.0944;-0.9344;
263.1000;0.0936;-0.9435;
263.4000;0.0936;-0.9457;
263.7000;0.0912;-0.9570;
264.0000;0.0887;-0.9593;
264.3000;0.0920;-0.9389;
264.6000;0.0961;-0.9231;
264.9000;0.0936;-0.9276;
265.2000;0.0928;-0.9367;
265.5000;0.0928;-0.9389;
265.8000;0.0936;-0.9322;
266.1000;0.0920;-0.9412;
266.4000;0.0936;-0.9389;
266.7000;0.0912;-0.9480;
267.0000;0.0985;-0.9412;
267.3000;0.0944;-0.9503;
267.6000;0.0928;-0.9548;
267.9000;0.0944;-0.9435;
268.2000;0.0952;-0.9457;
268.5000;0.0936;-0.9480;
268.8000;0.0895;-0.9525;
269.1000;0.0936;-0.9457;
269.4000;0.0928;-0.9480;
269.7000;0.0952;-0.9525;
270.0000;0.0936;-0.9548;
270.3000;0.0920;-0.9638;
270.6000;0.0912;-0.9661;
270.9000;0.0904;-0.9751;
271.2000;0.0928;-0.9684;
271.5000;0.0944;-0.9638;
271.8000;0.0928;-0.9616;
272.1000;0.0847;-0.9797;
272.4000;0.0977;-0.9548;
272.7000;0.0952;-0.9548;
273.0000;0.0944;-0.9525;
273.3000;0.0944;-0.9548;
273.6000;0.1009;-0.9480;
273.9000;0.0928;-0.9684;
274.2000;0.0928;-0.9706;
274.5000;0.0928;-0.9706;
274.8000;0.0944;-0.9616;
275.1000;0.0944;-0.9616;
275.4000;0.0936;-0.9548;
275.7000;0.0904;-0.9570;
276.0000;0.0944;-0.9435;
276.3000;0.0928;-0.9367;
276.6000;0.0928;-0.9276;
276.9000;0.0928;-0.9299;
277.2000;0.0944;-0.9344;
277.5000;0.0952;-0.9367;
277.8000;0.0936;-0.9525;
278.1000;0.0944;-0.9593;
278.4000;0.0969;-0.9616;
278.7000;0.0969;-0.9525;
279.0000;0.0944;-0.9435;
279.3000;0.0944;-0.9412;
279.6000;0.0936;-0.9480;
279.9000;0.0936;-0.9503;
280.2000;0.0952;-0.9457;
280.5000;0.0887;-0.9616;
280.8000;0.0928;-0.9435;
281.1000;0.0944;-0.9344;
281.4000;0.0928;-0.9344;
281.7000;0.0928;-0.9186;
282.0000;0.0920;-0.9208;
282.3000;0.0944;-0.9186;
282.6000;0.0952;-0.9186;
282.9000;0.0993;-0.9073;
283.2000;0.0928;-0.9276;
283.5000;0.0952;-0.9231;
283.8000;0.0928;-0.9276;
284.1000;0.0928;-0.9322;
284.4000;0.0952;-0.9344;
284.7000;0.0961;-0.9276;
285.0000;0.0936;-0.9389;
285.3000;0.0936;-0.9480;
285.6000;0.0920;-0.9457;
285.9000;0.1018;-0.9231;
286.2000;0.0944;-0.9435;
286.5000;0.0952;-0.9367;
286.8000;0.0928;-0.9412;
287.1000;0.0944;-0.9367;
287.4000;0.0928;-0.9367;
287.7000;0.0944;-0.9276;
288.0000;0.1018;-0.9050;
288.3000;0.0936;-0.9299;
288.6000;0.0961;-0.9231;
288.9000;0.0895;-0.9322;
289.2000;0.0928;-0.9254;
289.5000;0.0936;-0.9322;
289.8000;0.0952;-0.9322;
290.1000;0.0952;-0.9389;
290.4000;0.0936;-0.9480;
290.7000;0.0887;-0.9593;
291.0000;0.0928;-0.9412;
291.3000;0.0944;-0.9322;
291.6000;0.0936;-0.9367;
291.9000;0.0952;-0.9276;
292.2000;0.0920;-0.9457;
292.5000;0.0944;-0.9389;
292.8000;0.0928;-0.9412;
293.1000;0.1018;-0.9186;
293.4000;0.0977;-0.9299;
293.7000;0.0944;-0.9435;
294.0000;0.0944;-0.9435;
294.3000;0.0944;-0.9435;
294.6000;0.0912;-0.9412;
294.9000;0.0928;-0.9412;
295.2000;0.0952;-0.9344;
295.5000;0.0806;-0.9661;
295.8000;0.0814;-0.9593;
296.1000;0.0944;-0.9367;
296.4000;0.0944;-0.9412;
296.7000;0.0985;-0.9254;
297.0000;0.0969;-0.9208;
297.3000;0.0936;-0.9322;
297.6000;0.0904;-0.9412;
297.9000;0.0944;-0.9254;
298.2000;0.1026;-0.9118;
298.5000;0.0920;-0.9389;
298.8000;0.0977;-0.9163;
299.1000;0.0944;-0.9254;
299.4000;0.0936;-0.9254;
299.7000;0.0977;-0.9254;
300.0000;0.0920;-0.9412;
300.3000;0.0952;-0.9322;
300.6000;0.0944;-0.9344;
300.9000;0.0912;-0.9435;
301.2000;0.0985;-0.9344;
301.5000;0.0944;-0.9480;
301.8000;0.0944;-0.9389;
302.1000;0.0944;-0.9344;
302.4000;0.0952;-0.9389;
302.7000;0.0952;-0.9367;
303.0000;0.0944;-0.9344;
303.3000;0.0936;-0.9412;
303.6000;0.1042;-0.9141;
303.9000;0.0879;-0.9548;
304.2000;0.0952;-0.9412;
304.5000;0.0920;-0.9525;
304.8000;0.0993;-0.9344;
305.1000;0.0952;-0.9389;
305.4000;0.0936;-0.9389;
305.7000;0.0920;-0.9480;
306.0000;0.1009;-0.9276;
306.3000;0.0961;-0.9503;
306.6000;0.0928;-0.9480;
306.9000;0.0944;-0.9367;
307.2000;0.0928;-0.9367;
307.5000;0.0985;-0.9254;
307.8000;0.0944;-0.9344;
308.1000;0.0944;-0.9299;
308.4000;0.0936;-0.9367;
308.7000;0.0961;-0.9389;
309.0000;0.0944;-0.9435;
309.3000;0.0969;-0.9457;
309.6000;0.0952;-0.9367;
309.9000;0.0912;-0.9457;
310.2000;0.0944;-0.9457;
310.5000;0.0920;-0.9548;
310.8000;0.0952;-0.9480;
311.1000;0.0936;-0.9503;
311.4000;0.0936;-0.9525;
311.7000;0.0961;-0.9412;
312.0000;0.0993;-0.9254;
312.3000;0.0952;-0.9344;
312.6000;0.0944;-0.9344;
312.9000;0.0961;-0.9344;
313.2000;0.0961;-0.9412;
313.5000;0.0928;-0.9480;
313.8000;0.0920;-0.9412;
314.1000;0.0936;-0.9389;
314.4000;0.0928;-0.9344;
314.7000;0.0952;-0.9344;
315.0000;0.0895;-0.9570;
315.3000;0.0952;-0.9480;
315.6000;0.0928;-0.9548;
315.9000;0.0879;-0.9616;
316.2000;0.0904;-0.9548;
316.5000;0.0904;-0.9525;
316.8000;0.0912;-0.9480;
317.1000;0.0936;-0.9457;
317.4000;0.1001;-0.9231;
317.7000;0.0928;-0.9412;
318.0000;0.0928;-0.9457;
318.3000;0.0936;-0.9435;
318.6000;0.0928;-0.9503;
318.9000;0.0936;-0.9503;
319.2000;0.0920;-0.9593;
319.5000;0.0928;-0.9616;
319.8000;0.0920;-0.9570;
320.1000;0.0944;-0.9503;
320.4000;0.0936;-0.9480;
320.7000;0.0952;-0.9457;
321.0000;0.0904;-0.9548;
321.3000;0.0936;-0.9367;
321.6000;0.0863;-0.9593;
321.9000;0.0928;-0.9412;
322.2000;0.0961;-0.9322;
322.5000;0.0928;-0.9367;
322.8000;0.0912;-0.9344;
323.1000;0.0887;-0.9389;
323.4000;0.0961;-0.9208;
323.7000;0.0879;-0.9412;
324.0000;0.0928;-0.9186;
324.3000;0.1001;-0.8982;
324.6000;0.0879;-0.9322;
324.9000;0.0904;-0.9299;
325.2000;0.0806;-0.9570;
325.5000;0.0961;-0.9231;
325.8000;0.0944;-0.9231;
326.1000;0.0944;-0.9254;
326.4000;0.0928;-0.9344;
326.7000;0.0936;-0.9412;
327.0000;0.0887;-0.9480;
327.3000;0.0993;-0.9276;
327.6000;0.0977;-0.9254;
327.9000;0.0944;-0.9389;
328.2000;0.0920;-0.9412;
328.5000;0.0961;-0.9299;
328.8000;0.0944;-0.9299;
329.1000;0.0912;-0.9344;
329.4000;0.0985;-0.9186;
329.7000;0.0936;-0.9367;
330.0000;0.0912;-0.9457;
330.3000;0.0993;-0.9322;
330.6000;0.0961;-0.9435;
330.9000;0.0920;-0.9457;
331.2000;0.0952;-0.9322;
331.5000;0.0944;-0.9299;
331.8000;0.0936;-0.9367;
332.1000;0.0944;-0.9344;
332.4000;0.0944;-0.9367;
332.7000;0.0936;-0.9389;
333.0000;0.0952;-0.9344;
333.3000;0.0952;-0.9389;
333.6000;0.0928;-0.9412;
333.9000;0.0944;-0.9389;
334.2000;0.0944;-0.9367;
334.5000;0.0961;-0.9389;
334.8000;0.0944;-0.9435;
335.1000;0.0887;-0.9661;
335.4000;0.0969;-0.9412;
335.7000;0.0928;-0.9389;
336.0000;0.0952;-0.9389;
336.3000;0.0952;-0.9389;
336.6000;0.0863;-0.9548;
336.9000;0.1058;-0.9050;
337.2000;0.0920;-0.9389;
337.5000;0.0952;-0.9367;
337.8000;0.0928;-0.9389;
338.1000;0.0936;-0.9480;
338.4000;0.0944;-0.9457;
338.7000;0.0871;-0.9684;
339.0000;0.0830;-0.9887;
339.3000;0.0936;-0.9548;
339.6000;0.0895;-0.9684;
339.9000;0.0936;-0.9525;
340.2000;0.0952;-0.9503;
340.5000;0.0928;-0.9616;
340.8000;0.0847;-0.9819;
341.1000;0.0879;-0.9819;
341.4000;0.1001;-0.9570;
341.7000;0.0952;-0.9661;
342.0000;0.0952;-0.9684;
342.3000;0.0936;-0.9706;
342.6000;0.0879;-0.9797;
342.9000;0.1001;-0.9457;
343.2000;0.0944;-0.9593;
343.5000;0.1123;-0.9141;
343.8000;0.0952;-0.9570;
344.1000;0.0936;-0.9684;
344.4000;0.0928;-0.9593;
344.7000;0.0895;-0.9638;
345.0000;0.0936;-0.9570;
345.3000;0.0928;-0.9548;
345.6000;0.0961;-0.9457;
345.9000;0.0961;-0.9412;
346.2000;0.0944;-0.9480;
346.5000;0.0961;-0.9480;
346.8000;0.0847;-0.9638;
347.1000;0.0944;-0.9412;
347.4000;0.0936;-0.9412;
347.7000;0.0944;-0.9412;
348.0000;0.0952;-0.9435;
348.3000;0.0936;-0.9367;
348.6000;0.0944;-0.9389;
348.9000;0.0928;-0.9525;
349.2000;0.0952;-0.9503;
349.5000;0.0936;-0.9548;
349.8000;0.0952;-0.9457;
350.1000;0.0936;-0.9593;
350.4000;0.0936;-0.9593;
350.7000;0.0920;-0.9593;
351.0000;0.0952;-0.9480;
351.3000;0.0952;-0.9503;
351.6000;0.0912;-0.9525;
351.9000;0.0944;-0.9389;
352.2000;0.0928;-0.9435;
352.5000;0.0928;-0.9503;
352.8000;0.0969;-0.9412;
353.1000;0.0961;-0.9457;
353.4000;0.0936;-0.9616;
353.7000;0.0904;-0.9661;
354.0000;0.0920;-0.9661;
354.3000;0.0985;-0.9480;
354.6000;0.0904;-0.9684;
354.9000;0.0920;-0.9616;
355.2000;0.0936;-0.9638;
355.5000;0.0944;-0.9570;
355.8000;0.0920;-0.9616;
356.1000;0.0928;-0.9570;
356.4000;0.0993;-0.9322;
356.7000;0.0961;-0.9480;
357.0000;0.0912;-0.9616;
357.3000;0.0952;-0.9435;
357.6000;0.0920;-0.9435;
357.9000;0.0920;-0.9457;
358.2000;0.0928;-0.9367;
358.5000;0.0936;-0.9344;
358.8000;0.0944;-0.9322;
359.1000;0.0944;-0.9344;
359.4000;0.0961;-0.9344;
359.7000;0.0928;-0.9389;
360.0000;0.0977;-0.9299;
360.3000;0.0912;-0.9389;
360.6000;0.0952;-0.9231;
360.9000;0.0895;-0.9412;
361.2000;0.0952;-0.9276;
361.5000;0.0928;-0.9276;
361.8000;0.0944;-0.9276;
362.1000;0.0936;-0.9344;
362.4000;0.1001;-0.9254;
362.7000;0.0887;-0.9548;
363.0000;0.0822;-0.9751;
363.3000;0.0952;-0.9412;
363.6000;0.0944;-0.9389;
363.9000;0.0936;-0.9344;
364.2000;0.0944;-0.9344;
364.5000;0.0944;-0.9344;
364.8000;0.0928;-0.9503;
365.1000;0.0895;-0.9684;
365.4000;0.0871;-0.9751;
365.7000;0.0887;-0.9706;
366.0000;0.0920;-0.9684;
366.3000;0.0936;-0.9525;
366.6000;0.0855;-0.9684;
366.9000;0.0895;-0.9570;
367.2000;0.0920;-0.9412;
367.5000;0.0936;-0.9480;
367.8000;0.0944;-0.9480;
368.1000;0.0936;-0.9480;
368.4000;0.1018;-0.9254;
368.7000;0.0952;-0.9412;
369.0000;0.0895;-0.9616;
369.3000;0.0928;-0.9570;
369.6000;0.0920;-0.9570;
369.9000;0.0936;-0.9503;
370.2000;0.0920;-0.9503;
370.5000;0.0920;-0.9525;
370.8000;0.0928;-0.9525;
371.1000;0.0952;-0.9435;
371.4000;0.0912;-0.9548;
371.7000;0.0952;-0.9457;
372.0000;0.0969;-0.9457;
372.3000;0.0822;-0.9978;
372.6000;0.0952;-0.9661;
372.9000;0.0928;-0.9661;
373.2000;0.0912;-0.9593;
373.5000;0.0944;-0.9570;
373.8000;0.0952;-0.9638;
374.1000;0.0944;-0.9593;
374.4000;0.0928;-0.9570;
374.7000;0.0936;-0.9525;
375.0000;0.0993;-0.9344;
375.3000;0.0944;-0.9525;
375.6000;0.0936;-0.9503;
375.9000;0.0944;-0.9435;
376.2000;0.0952;-0.9503;
376.5000;0.0904;-0.9616;
376.8000;0.0936;-0.9525;
377.1000;0.0920;-0.9548;
377.4000;0.0944;-0.9480;
377.7000;0.0969;-0.9503;
378.0000;0.0928;-0.9525;
378.3000;0.0961;-0.9457;
378.6000;0.0928;-0.9480;
378.9000;0.0944;-0.9457;
379.2000;0.0944;-0.9367;
379.5000;0.0944;-0.9412;
379.8000;0.0855;-0.9661;
380.1000;0.0928;-0.9525;
380.4000;0.0952;-0.9435;
380.7000;0.0912;-0.9480;
381.0000;0.0936;-0.9435;
381.3000;0.1001;-0.9276;
381.6000;0.0920;-0.9435;
381.9000;0.0944;-0.9412;
382.2000;0.0928;-0.9480;
382.5000;0.0895;-0.9638;
382.8000;0.0952;-0.9480;
383.1000;0.0928;-0.9593;
383.4000;0.0904;-0.9661;
383.7000;0.0912;-0.9751;
384.0000;0.0944;-0.9706;
384.3000;0.0912;-0.9729;
384.6000;0.0928;-0.9729;
384.9000;0.0944;-0.9684;
385.2000;0.0936;-0.9729;
385.5000;0.0961;-0.9684;
385.8000;0.0952;-0.9661;
386.1000;0.0936;-0.9729;
386.4000;0.0944;-0.9706;
386.7000;0.0952;-0.9525;
387.0000;0.0936;-0.9593;
387.3000;0.0944;-0.9525;
387.6000;0.1009;-0.9276;
387.9000;0.0928;-0.9412;
388.2000;0.0952;-0.9322;
388.5000;0.0944;-0.9276;
388.8000;0.0928;-0.9322;
389.1000;0.0920;-0.9367;
389.4000;0.0985;-0.9276;
389.7000;0.0961;-0.9389;
390.0000;0.0944;-0.9367;
390.3000;0.0936;-0.9389;
390.6000;0.0814;-0.9661;
390.9000;0.0952;-0.9389;
391.2000;0.0944;-0.9412;
391.5000;0.0936;-0.9389;
391.8000;0.0936;-0.9412;
392.1000;0.0920;-0.9525;
392.4000;0.0920;-0.9435;
392.7000;0.0936;-0.9389;
393.0000;0.0969;-0.9276;
393.3000;0.0944;-0.9389;
393.6000;0.0936;-0.9435;
393.9000;0.1066;-0.9186;
394.2000;0.0887;-0.9706;
394.5000;0.0928;-0.9548;
394.8000;0.0895;-0.9570;
395.1000;0.0920;-0.9525;
395.4000;0.0904;-0.9412;
395.7000;0.0855;-0.9435;
396.0000;0.0944;-0.9163;
396.3000;0.0912;-0.9208;
396.6000;0.0936;-0.9118;
396.9000;0.0952;-0.9073;
397.2000;0.0944;-0.9141;
397.5000;0.0977;-0.9005;
397.8000;0.0928;-0.9186;
398.1000;0.0928;-0.9254;
398.4000;0.0928;-0.9254;
398.7000;0.0920;-0.9367;
399.0000;0.0928;-0.9412;
399.3000;0.0944;-0.9435;
399.6000;0.0936;-0.9570;
399.9000;0.0928;-0.9638;
400.2000;0.0895;-0.9616;
400.5000;0.0944;-0.9525;
400.8000;0.0961;-0.9525;
401.1000;0.0928;-0.9525;
401.4000;0.0928;-0.9525;
401.7000;0.0928;-0.9503;
402.0000;0.0920;-0.9548;
402.3000;0.0920;-0.9525;
402.6000;0.0920;-0.9525;
402.9000;0.0928;-0.9457;
403.2000;0.0920;-0.9548;
403.5000;0.0920;-0.9570;
403.8000;0.0814;-0.9865;
404.1000;0.0944;-0.9548;
404.4000;0.0944;-0.9480;
404.7000;0.0961;-0.9367;
405.0000;0.0944;-0.9344;
405.3000;0.0936;-0.9412;
405.6000;0.0969;-0.9367;
405.9000;0.0944;-0.9389;
406.2000;0.0944;-0.9299;
406.5000;0.0936;-0.9344;
406.8000;0.0961;-0.9231;
407.1000;0.0944;-0.9299;
407.4000;0.0887;-0.9525;
407.7000;0.0944;-0.9276;
408.0000;0.0928;-0.9276;
408.3000;0.0936;-0.9276;
408.6000;0.0961;-0.9231;
408.9000;0.0944;-0.9322;
409.2000;0.0928;-0.9344;
409.5000;0.0944;-0.9231;
409.8000;0.0855;-0.9548;
410.1000;0.0838;-0.9706;
410.4000;0.0920;-0.9480;
410.7000;0.0985;-0.9389;
411.0000;0.0944;-0.9457;
411.3000;0.0944;-0.9548;
411.6000;0.0773;-1.0023;
411.9000;0.0944;-0.9661;
412.2000;0.0936;-0.9751;
412.5000;0.0985;-0.9684;
412.8000;0.0928;-0.9729;
413.1000;0.0961;-0.9525;
413.4000;0.0814;-0.9819;
413.7000;0.0895;-0.9638;
414.0000;0.0920;-0.9570;
414.3000;0.0952;-0.9480;
414.6000;0.0961;-0.9412;
414.9000;0.0912;-0.9525;
415.2000;0.0944;-0.9389;
415.5000;0.0952;-0.9276;
415.8000;0.0952;-0.9276;
416.1000;0.0969;-0.9276;
416.4000;0.0936;-0.9412;
416.7000;0.0822;-0.9729;
417.0000;0.0952;-0.9389;
417.3000;0.0928;-0.9435;
417.6000;0.0879;-0.9503;
417.9000;0.0944;-0.9367;
418.2000;0.0920;-0.9412;
418.5000;0.0920;-0.9389;
418.8000;0.0920;-0.9367;
419.1000;0.0944;-0.9367;
419.4000;0.0936;-0.9344;
419.7000;0.1026;-0.9073;
420.0000;0.0936;-0.9344;
420.3000;0.0855;-0.9593;
420.6000;0.0944;-0.9389;
420.9000;0.0920;-0.9457;
421.2000;0.0920;-0.9457;
421.5000;0.0936;-0.9435;
421.8000;0.0969;-0.9322;
422.1000;0.0944;-0.9344;
422.4000;0.0985;-0.9389;
422.7000;0.0936;-0.9503;
423.0000;0.0944;-0.9457;
423.3000;0.0952;-0.9367;
423.6000;0.0928;-0.9435;
423.9000;0.0936;-0.9367;
424.2000;0.0871;-0.9570;
424.5000;0.0928;-0.9367;
424.8000;0.0936;-0.9299;
425.1000;0.0944;-0.9367;
425.4000;0.0936;-0.9367;
425.7000;0.0895;-0.9389;
426.0000;0.0952;-0.9276;
426.3000;0.0936;-0.9299;
426.6000;0.0928;-0.9412;
426.9000;0.0928;-0.9435;
427.2000;0.0936;-0.9480;
427.5000;0.0920;-0.9503;
427.8000;0.0920;-0.9570;
428.1000;0.0928;-0.9480;
428.4000;0.0928;-0.9412;
428.7000;0.0920;-0.9480;
429.0000;0.0920;-0.9435;
429.3000;0.0920;-0.9412;
429.6000;0.0944;-0.9412;
429.9000;0.0993;-0.9299;
430.2000;0.0944;-0.9322;
430.5000;0.0969;-0.9141;
430.8000;0.1001;-0.9073;
431.1000;0.0838;-0.9593;
431.4000;0.0961;-0.9322;
431.7000;0.0928;-0.9344;
432.0000;0.0944;-0.9276;
432.3000;0.0920;-0.9412;
432.6000;0.0912;-0.9435;
432.9000;0.0928;-0.9389;
433.2000;0.0928;-0.9525;
433.5000;0.0822;-0.9842;
433.8000;0.0952;-0.9570;
434.1000;0.1009;-0.9593;
434.4000;0.0904;-0.9774;
434.7000;0.0944;-0.9684;
435.0000;0.0961;-0.9593;
435.3000;0.0944;-0.9638;
435.6000;0.1026;-0.9457;
435.9000;0.1018;-0.9457;
436.2000;0.0936;-0.9684;
436.5000;0.0887;-0.9865;
436.8000;0.0904;-0.9819;
437.1000;0.0895;-0.9819;
437.4000;0.0961;-0.9593;
437.7000;0.0928;-0.9593;
438.0000;0.0904;-0.9593;
438.3000;0.0928;-0.9570;
438.6000;0.0961;-0.9503;
438.9000;0.0936;-0.9503;
439.2000;0.0936;-0.9503;
439.5000;0.0928;-0.9616;
439.8000;0.0912;-0.9616;
440.1000;0.0944;-0.9525;
440.4000;0.0920;-0.9503;
440.7000;0.1140;-0.9027;
441.0000;0.0969;-0.9367;
441.3000;0.0928;-0.9503;
441.6000;0.0847;-0.9729;
441.9000;0.0936;-0.9525;
442.2000;0.0920;-0.9593;
442.5000;0.0920;-0.9616;
442.8000;0.0936;-0.9548;
443.1000;0.0952;-0.9525;
443.4000;0.0952;-0.9616;
443.7000;0.0887;-0.9751;
444.0000;0.0969;-0.9548;
444.3000;0.0961;-0.9525;
444.6000;0.0961;-0.9548;
444.9000;0.0904;-0.9638;
445.2000;0.0985;-0.9525;
445.5000;0.0936;-0.9548;
445.8000;0.0912;-0.9638;
446.1000;0.0936;-0.9638;
446.4000;0.0944;-0.9525;
446.7000;0.0928;-0.9570;
447.0000;0.0887;-0.9684;
447.3000;0.0904;-0.9638;
447.6000;0.0985;-0.9480;
447.9000;0.0944;-0.9525;
448.2000;0.0985;-0.9344;
448.5000;0.0936;-0.9435;
448.8000;0.0952;-0.9322;
449.1000;0.0952;-0.9344;
449.4000;0.0944;-0.9457;
449.7000;0.0944;-0.9570;
450.0000;0.0920;-0.9638;
450.3000;0.0952;-0.9548;
450.6000;0.0936;-0.9548;
450.9000;0.0952;-0.9457;
451.2000;0.0985;-0.9367;
451.5000;0.0961;-0.9412;
451.8000;0.0961;-0.9457;
452.1000;0.0952;-0.9480;
452.4000;0.0928;-0.9503;
452.7000;0.0961;-0.9367;
453.0000;0.0928;-0.9435;
453.3000;0.0920;-0.9389;
453.6000;0.0904;-0.9412;
453.9000;0.0871;-0.9435;
454.2000;0.0961;-0.9231;
454.5000;0.0920;-0.9435;
454.8000;0.0961;-0.9208;
455.1000;0.0952;-0.9208;
455.4000;0.0952;-0.9208;
455.7000;0.0920;-0.9344;
456.0000;0.0944;-0.9208;
456.3000;0.0969;-0.9208;
456.6000;0.1001;-0.9050;
456.9000;0.0952;-0.9299;
457.2000;0.1018;-0.9163;
457.5000;0.0895;-0.9457;
457.8000;0.0944;-0.9344;
458.1000;0.0944;-0.9344;
458.4000;0.0936;-0.9344;
458.7000;0.0952;-0.9208;
459.0000;0.0944;-0.9276;
459.3000;0.0961;-0.9299;
459.6000;0.1018;-0.9163;
459.9000;0.0952;-0.9344;
460.2000;0.0944;-0.9299;
460.5000;0.0969;-0.9322;
460.8000;0.0912;-0.9457;
461.1000;0.0944;-0.9412;
461.4000;0.0936;-0.9503;
461.7000;0.0952;-0.9367;
462.0000;0.0944;-0.9344;
462.3000;0.0928;-0.9344;
462.6000;0.0936;-0.9254;
462.9000;0.0944;-0.9299;
463.2000;0.0944;-0.9276;
463.5000;0.0952;-0.9254;
463.8000;0.0952;-0.9208;
464.1000;0.0961;-0.9208;
464.4000;0.0944;-0.9208;
464.7000;0.0814;-0.9548;
465.0000;0.0936;-0.9141;
465.3000;0.0879;-0.9231;
465.6000;0.0977;-0.9027;
465.9000;0.0928;-0.9163;
466.2000;0.0928;-0.9186;
466.5000;0.0920;-0.9254;
466.8000;0.0944;-0.9299;
467.1000;0.0961;-0.9367;
467.4000;0.1001;-0.9367;
467.7000;0.1018;-0.9276;
468.0000;0.0920;-0.9570;
468.3000;0.0920;-0.9548;
468.6000;0.0969;-0.9389;
468.9000;0.0838;-0.9706;
469.2000;0.0944;-0.9412;
469.5000;0.0928;-0.9435;
469.8000;0.0920;-0.9412;
470.1000;0.0944;-0.9389;
470.4000;0.0944;-0.9389;
470.7000;0.0944;-0.9367;
471.0000;0.0977;-0.9344;
471.3000;0.0961;-0.9412;
471.6000;0.0928;-0.9570;
471.9000;0.0904;-0.9570;
472.2000;0.0936;-0.9525;
472.5000;0.0936;-0.9548;
472.8000;0.0928;-0.9525;
473.1000;0.0895;-0.9457;
473.4000;0.0912;-0.9344;
473.7000;0.0912;-0.9322;
474.0000;0.0904;-0.9322;
474.3000;0.0830;-0.9593;
474.6000;0.0969;-0.9299;
474.9000;0.0912;-0.9367;
475.2000;0.0887;-0.9412;
475.5000;0.0961;-0.9208;
475.8000;0.0993;-0.9118;
476.1000;0.0928;-0.9322;
476.4000;0.0961;-0.9322;
476.7000;0.0847;-0.9638;
477.0000;0.0969;-0.9435;
477.3000;0.0928;-0.9525;
477.6000;0.0928;-0.9593;
477.9000;0.0928;-0.9593;
478.2000;0.0944;-0.9593;
478.5000;0.0920;-0.9638;
478.8000;0.0904;-0.9751;
479.1000;0.0985;-0.9480;
479.4000;0.0936;-0.9616;
479.7000;0.0912;-0.9684;
480.0000;0.1001;-0.9435;
480.3000;0.0944;-0.9525;
480.6000;0.0928;-0.9661;
480.9000;0.0952;-0.9616;
481.2000;0.0928;-0.9616;
481.5000;0.0952;-0.9503;
481.8000;0.0944;-0.9503;
482.1000;0.0952;-0.9457;
482.4000;0.0952;-0.9389;
482.7000;0.0912;-0.9480;
483.0000;0.0944;-0.9412;
483.3000;0.0895;-0.9593;
483.6000;0.0961;-0.9389;
483.9000;0.0936;-0.9412;
484.2000;0.0928;-0.9435;
484.5000;0.0936;-0.9389;
484.8000;0.0952;-0.9299;
485.1000;0.0936;-0.9322;
485.4000;0.0936;-0.9299;
485.7000;0.0944;-0.9276;
486.0000;0.0936;-0.9276;
486.3000;0.0936;-0.9231;
486.6000;0.0944;-0.9322;
486.9000;0.0936;-0.9367;
487.2000;0.0928;-0.9389;
487.5000;0.1107;-0.8960;
487.8000;0.0912;-0.9412;
488.1000;0.0944;-0.9344;
488.4000;0.0936;-0.9344;
488.7000;0.0936;-0.9254;
489.0000;0.0944;-0.9254;
489.3000;0.0920;-0.9299;
489.6000;0.0952;-0.9276;
489.9000;0.0985;-0.9231;
490.2000;0.1018;-0.9186;
490.5000;0.0944;-0.9344;
490.8000;0.0887;-0.9480;
491.1000;0.0920;-0.9480;
491.4000;0.0936;-0.9389;
491.7000;0.0985;-0.9299;
492.0000;0.0936;-0.9367;
492.3000;0.0985;-0.9322;
492.6000;0.0952;-0.9389;
492.9000;0.0928;-0.9570;
493.2000;0.0928;-0.9593;
493.5000;0.0961;-0.9525;
493.8000;0.0806;-0.9797;
494.1000;0.0904;-0.9525;
494.4000;0.0944;-0.9412;
494.7000;0.0961;-0.9344;
495.0000;0.0936;-0.9457;
495.3000;0.0961;-0.9548;
495.6000;0.0920;-0.9661;
495.9000;0.0952;-0.9525;
496.2000;0.0944;-0.9570;
496.5000;0.0944;-0.9570;
496.8000;0.0944;-0.9593;
497.1000;0.0912;-0.9593;
497.4000;0.0944;-0.9435;
497.7000;0.0912;-0.9480;
498.0000;0.0920;-0.9503;
498.3000;0.0912;-0.9435;
498.6000;0.0936;-0.9480;
498.9000;0.0944;-0.9389;
499.2000;0.0936;-0.9367;
499.5000;0.0944;-0.9367;
499.8000;0.0944;-0.9412;
500.1000;0.0952;-0.9344;
500.4000;0.0920;-0.9367;
500.7000;0.0977;-0.9141;
501.0000;0.0936;-0.9276;
501.3000;0.0912;-0.9367;
501.6000;0.0928;-0.9322;
501.9000;0.0912;-0.9412;
502.2000;0.0936;-0.9412;
502.5000;0.0920;-0.9480;
502.8000;0.0944;-0.9457;
503.1000;0.0928;-0.9480;
503.4000;0.0993;-0.9299;
503.7000;0.1001;-0.9276;
504.0000;0.0912;-0.9480;
504.3000;0.0928;-0.9503;
504.6000;0.0961;-0.9525;
504.9000;0.0977;-0.9480;
505.2000;0.0936;-0.9570;
505.5000;0.0920;-0.9616;
505.8000;0.0961;-0.9503;
506.1000;0.0936;-0.9503;
506.4000;0.0928;-0.9548;
506.7000;0.0944;-0.9525;
507.0000;0.0920;-0.9570;
507.3000;0.0936;-0.9435;
507.6000;0.0961;-0.9480;
507.9000;0.0936;-0.9525;
508.2000;0.0904;-0.9616;
508.5000;0.0879;-0.9706;
508.8000;0.0993;-0.9344;
509.1000;0.0952;-0.9525;
509.4000;0.0936;-0.9570;
509.7000;0.0977;-0.9457;
510.0000;0.0920;-0.9638;
510.3000;0.0952;-0.9548;
510.6000;0.0952;-0.9503;
510.9000;0.0814;-0.9887;
511.2000;0.0895;-0.9729;
511.5000;0.0936;-0.9593;
511.8000;0.0879;-0.9865;
512.1000;0.0936;-0.9638;
512.4000;0.0944;-0.9706;
512.7000;0.0944;-0.9751;
513.0000;0.0961;-0.9684;
513.3000;0.0928;-0.9684;
513.6000;0.0961;-0.9638;
513.9000;0.0961;-0.9548;
514.2000;0.0985;-0.9457;
514.5000;0.0920;-0.9593;
514.8000;0.0952;-0.9570;
515.1000;0.0895;-0.9706;
515.4000;0.0952;-0.9570;
515.7000;0.0887;-0.9774;
516.0000;0.0936;-0.9638;
516.3000;0.0912;-0.9661;
516.6000;0.0936;-0.9503;
516.9000;0.1018;-0.9322;
517.2000;0.0928;-0.9457;
517.5000;0.0952;-0.9344;
517.8000;0.0928;-0.9367;
518.1000;0.0936;-0.9322;
518.4000;0.0936;-0.9322;
518.7000;0.0952;-0.9299;
519.0000;0.0944;-0.9322;
519.3000;0.0944;-0.9322;
519.6000;0.0928;-0.9457;
519.9000;0.0936;-0.9389;
520.2000;0.0928;-0.9389;
520.5000;0.1026;-0.9186;
520.8000;0.0993;-0.9299;
521.1000;0.0928;-0.9525;
521.4000;0.0944;-0.9457;
521.7000;0.0920;-0.9457;
522.0000;0.0928;-0.9435;
522.3000;0.0912;-0.9480;
522.6000;0.0944;-0.9503;
522.9000;0.0928;-0.9480;
523.2000;0.0944;-0.9457;
523.5000;0.0928;-0.9503;
523.8000;0.0912;-0.9480;
524.1000;0.0920;-0.9503;
524.4000;0.0952;-0.9457;
524.7000;0.0936;-0.9435;
525.0000;0.1009;-0.9231;
525.3000;0.0944;-0.9367;
525.6000;0.0944;-0.9389;
525.9000;0.0944;-0.9322;
526.2000;0.0952;-0.9231;
526.5000;0.0936;-0.9344;
526.8000;0.0961;-0.9299;
527.1000;0.0936;-0.9344;
527.4000;0.1050;-0.9027;
527.7000;0.0977;-0.9186;
528.0000;0.0879;-0.9412;
528.3000;0.0961;-0.9163;
528.6000;0.0936;-0.9163;
528.9000;0.0928;-0.9141;
529.2000;0.1018;-0.8937;
529.5000;0.0887;-0.9254;
529.8000;0.0936;-0.9118;
530.1000;0.0936;-0.9141;
530.4000;0.0944;-0.9208;
530.7000;0.0904;-0.9276;
531.0000;0.0920;-0.9163;
531.3000;0.0920;-0.9231;
531.6000;0.0969;-0.9231;
531.9000;0.0912;-0.9367;
532.2000;0.0912;-0.9322;
532.5000;0.0895;-0.9344;
532.8000;0.0879;-0.9480;
533.1000;0.0952;-0.9322;
533.4000;0.0944;-0.9367;
533.7000;0.0969;-0.9254;
534.0000;0.0912;-0.9389;
534.3000;0.0944;-0.9208;
534.6000;0.0871;-0.9367;
534.9000;0.0920;-0.9254;
535.2000;0.1001;-0.9208;
535.5000;0.0944;-0.9322;
535.8000;0.0952;-0.9254;
536.1000;0.0944;-0.9254;
536.4000;0.0936;-0.9322;
536.7000;0.0961;-0.9276;
537.0000;0.0936;-0.9322;
537.3000;0.0928;-0.9367;
537.6000;0.0952;-0.9254;
537.9000;0.0936;-0.9231;
538.2000;0.0936;-0.9163;
538.5000;0.0944;-0.9073;
538.8000;0.0920;-0.9163;
539.1000;0.0952;-0.9095;
539.4000;0.0969;-0.9141;
539.7000;0.0944;-0.9163;
540.0000;0.0936;-0.9186;
540.3000;0.1009;-0.9005;
540.6000;0.0969;-0.9095;
540.9000;0.0944;-0.9254;
541.2000;0.0928;-0.9389;
541.5000;0.0912;-0.9412;
541.8000;0.0969;-0.9254;
542.1000;0.0936;-0.9299;
542.4000;0.0944;-0.9322;
542.7000;0.0912;-0.9412;
543.0000;0.0936;-0.9322;
543.3000;0.0936;-0.9276;
543.6000;0.0944;-0.9299;
543.9000;0.0944;-0.9322;
544.2000;0.0944;-0.9322;
544.5000;0.0952;-0.9299;
544.8000;0.0928;-0.9480;
545.1000;0.0952;-0.9412;
545.4000;0.0936;-0.9412;
545.7000;0.0961;-0.9344;
546.0000;0.0904;-0.9457;
546.3000;0.0904;-0.9480;
546.6000;0.0928;-0.9503;
546.9000;0.0944;-0.9412;
547.2000;0.0920;-0.9480;
547.5000;0.0879;-0.9503;
547.8000;0.0936;-0.9367;
548.1000;0.0936;-0.9389;
548.4000;0.0952;-0.9276;
548.7000;0.0895;-0.9299;
549.0000;0.1001;-0.9050;
549.3000;0.0936;-0.9163;
549.6000;0.0961;-0.9050;
549.9000;0.0822;-0.9389;
550.2000;0.0944;-0.9141;
550.5000;0.0952;-0.9208;
550.8000;0.0944;-0.9276;
551.1000;0.1001;-0.9186;
551.4000;0.0855;-0.9548;
551.7000;0.0781;-0.9684;
552.0000;0.0895;-0.9344;
552.3000;0.0928;-0.9276;
552.6000;0.0936;-0.9231;
552.9000;0.1001;-0.9141;
553.2000;0.0944;-0.9254;
553.5000;0.0969;-0.9208;
553.8000;0.0928;-0.9344;
554.1000;0.0944;-0.9254;
554.4000;0.0847;-0.9480;
554.7000;0.0961;-0.9208;
555.0000;0.0952;-0.9163;
555.3000;0.0977;-0.9186;
555.6000;0.0920;-0.9367;
555.9000;0.0969;-0.9299;
556.2000;0.0920;-0.9389;
556.5000;0.0961;-0.9276;
556.8000;0.0961;-0.9208;
557.1000;0.0993;-0.9027;
557.4000;0.0928;-0.9276;
557.7000;0.0936;-0.9276;
558.0000;0.0928;-0.9276;
558.3000;0.0936;-0.9231;
558.6000;0.0920;-0.9254;
558.9000;0.0952;-0.9141;
559.2000;0.0944;-0.9231;
559.5000;0.0928;-0.9367;
559.8000;0.0912;-0.9435;
560.1000;0.0944;-0.9322;
560.4000;0.0944;-0.9299;
560.7000;0.0961;-0.9208;
561.0000;0.0969;-0.9254;
561.3000;0.0969;-0.9231;
561.6000;0.0977;-0.9254;
561.9000;0.0944;-0.9208;
562.2000;0.0944;-0.9186;
562.5000;0.0920;-0.9163;
562.8000;0.0912;-0.9186;
563.1000;0.0936;-0.9073;
563.4000;0.0928;-0.9186;
563.7000;0.0944;-0.9231;
564.0000;0.0936;-0.9344;
564.3000;0.0936;-0.9389;
564.6000;0.0944;-0.9367;
564.9000;0.1042;-0.9118;
565.2000;0.0944;-0.9344;
565.5000;0.0830;-0.9638;
565.8000;0.0993;-0.9163;
566.1000;0.0920;-0.9299;
566.4000;0.0944;-0.9276;
566.7000;0.0920;-0.9389;
567.0000;0.0928;-0.9276;
567.3000;0.0936;-0.9299;
567.6000;0.0952;-0.9276;
567.9000;0.0936;-0.9299;
568.2000;0.0936;-0.9435;
568.5000;0.0944;-0.9389;
568.8000;0.0944;-0.9435;
569.1000;0.0912;-0.9435;
569.4000;0.0928;-0.9412;
569.7000;0.0944;-0.9435;
570.0000;0.0936;-0.9457;
570.3000;0.0920;-0.9435;
570.6000;0.0936;-0.9367;
570.9000;0.1066;-0.9027;
571.2000;0.0961;-0.9367;
571.5000;0.0952;-0.9389;
571.8000;0.0920;-0.9412;
572.1000;0.0928;-0.9344;
572.4000;0.0952;-0.9344;
572.7000;0.0920;-0.9412;
573.0000;0.0928;-0.9389;
573.3000;0.0920;-0.9435;
573.6000;0.0952;-0.9435;
573.9000;0.0936;-0.9480;
574.2000;0.0944;-0.9457;
574.5000;0.0936;-0.9435;
574.8000;0.0928;-0.9480;
575.1000;0.0944;-0.9503;
575.4000;0.0936;-0.9616;
575.7000;0.0928;-0.9684;
576.0000;0.0936;-0.9684;
576.3000;0.0952;-0.9661;
576.6000;0.0952;-0.9570;
576.9000;0.0952;-0.9503;
577.2000;0.0944;-0.9525;
577.5000;0.0969;-0.9480;
577.8000;0.0977;-0.9480;
578.1000;0.0912;-0.9570;
578.4000;0.0928;-0.9525;
578.7000;0.0920;-0.9661;
579.0000;0.0952;-0.9480;
579.3000;0.0928;-0.9435;
579.6000;0.0944;-0.9389;
579.9000;0.0928;-0.9412;
580.2000;0.0936;-0.9367;
580.5000;0.0944;-0.9276;
580.8000;0.0969;-0.9186;
581.1000;0.0920;-0.9412;
581.4000;0.0936;-0.9412;
581.7000;0.0952;-0.9367;
582.0000;0.0928;-0.9435;
582.3000;0.0863;-0.9616;
582.6000;0.0928;-0.9457;
582.9000;0.0928;-0.9503;
583.2000;0.0912;-0.9457;
583.5000;0.0904;-0.9435;
583.8000;0.0993;-0.9208;
584.1000;0.0863;-0.9616;
584.4000;0.0928;-0.9548;
584.7000;0.0936;-0.9548;
585.0000;0.0944;-0.9570;
585.3000;0.0952;-0.9570;
585.6000;0.0928;-0.9616;
585.9000;0.1026;-0.9322;
586.2000;0.0961;-0.9548;
586.5000;0.0920;-0.9548;
586.8000;0.0936;-0.9525;
587.1000;0.0952;-0.9480;
587.4000;0.0969;-0.9367;
587.7000;0.0928;-0.9344;
588.0000;0.0961;-0.9299;
588.3000;0.0847;-0.9525;
588.6000;0.0936;-0.9435;
588.9000;0.0961;-0.9480;
589.2000;0.0936;-0.9570;
589.5000;0.0952;-0.9457;
589.8000;0.0863;-0.9706;
590.1000;0.0920;-0.9457;
590.4000;0.1009;-0.9208;
590.7000;0.0977;-0.9322;
591.0000;0.0895;-0.9480;
591.3000;0.0936;-0.9435;
591.6000;0.0928;-0.9367;
591.9000;0.0920;-0.9389;
592.2000;0.0928;-0.9412;
592.5000;0.0936;-0.9367;
592.8000;0.0928;-0.9344;
593.1000;0.0928;-0.9367;
593.4000;0.0952;-0.9389;
593.7000;0.0928;-0.9548;
594.0000;0.0944;-0.9435;
594.3000;0.0977;-0.9322;
594.6000;0.0944;-0.9412;
594.9000;0.0952;-0.9322;
595.2000;0.0969;-0.9322;
595.5000;0.0944;-0.9389;
595.8000;0.0936;-0.9412;
596.1000;0.0952;-0.9367;
596.4000;0.0952;-0.9412;
596.7000;0.0944;-0.9457;
597.0000;0.0928;-0.9480;
597.3000;0.0969;-0.9412;
597.6000;0.0993;-0.9322;
597.9000;0.0969;-0.9412;
598.2000;0.0904;-0.9548;
598.5000;0.0944;-0.9525;
598.8000;0.0920;-0.9638;
599.1000;0.0944;-0.9593;
599.4000;0.0904;-0.9661;
599.7000;0.0944;-0.9570;
600.0000;0.0936;-0.9684;
600.3000;0.0936;-0.9684;
600.6000;0.0936;-0.9774;
600.9000;0.0912;-0.9797;
601.2000;0.0936;-0.9751;
601.5000;0.0920;-0.9932;
601.8000;0.0904;-1.0023;
602.1000;0.0936;-1.0023;
602.4000;0.0912;-1.0159;
602.7000;0.0912;-1.0181;
603.0000;0.0944;-1.0272;
603.3000;0.0895;-1.0408;
603.6000;0.0895;-1.0498;
603.9000;0.0895;-1.0634;
604.2000;0.0887;-1.0702;
604.5000;0.0904;-1.0656;
604.8000;0.0871;-1.0702;
605.1000;0.0895;-1.0611;
605.4000;0.0887;-1.0611;
605.7000;0.0887;-1.0566;
606.0000;0.0847;-1.0702;
606.3000;0.0879;-1.0589;
606.6000;0.0895;-1.0589;
606.9000;0.0879;-1.0634;
607.2000;0.0855;-1.0679;
607.5000;0.0879;-1.0702;
607.8000;0.0863;-1.0679;
608.1000;0.0855;-1.0770;
608.4000;0.0871;-1.0860;
608.7000;0.0879;-1.0928;
609.0000;0.0806;-1.1041;
609.3000;0.0855;-1.0815;
609.6000;0.0855;-1.0837;
609.9000;0.0838;-1.0883;
610.2000;0.0879;-1.0860;
610.5000;0.0879;-1.0792;
610.8000;0.0871;-1.0770;
611.1000;0.1042;-1.0340;
611.4000;0.0879;-1.0634;
611.7000;0.0871;-1.0702;
612.0000;0.0855;-1.0724;
612.3000;0.0863;-1.0724;
612.6000;0.0838;-1.0679;
612.9000;0.0944;-1.0362;
613.2000;0.0855;-1.0634;
613.5000;0.0879;-1.0566;
613.8000;0.0838;-1.0634;
614.1000;0.0847;-1.0611;
614.4000;0.0871;-1.0611;
614.7000;0.0863;-1.0611;
615.0000;0.0806;-1.0792;
615.3000;0.0871;-1.0634;
615.6000;0.0863;-1.0589;
615.9000;0.0822;-1.0656;
616.2000;0.0863;-1.0521;
616.5000;0.0847;-1.0656;
616.8000;0.0847;-1.0521;
617.1000;0.0847;-1.0521;
617.4000;0.0838;-1.0543;
617.7000;0.0733;-1.0905;
618.0000;0.0855;-1.0611;
618.3000;0.0790;-1.0792;
618.6000;0.0855;-1.0566;
618.9000;0.0822;-1.0702;
619.2000;0.0871;-1.0702;
619.5000;0.0790;-1.0951;
619.8000;0.0757;-1.1018;
620.1000;0.0830;-1.0837;
620.4000;0.0822;-1.0815;
620.7000;0.0847;-1.0747;
621.0000;0.0944;-1.0453;
621.3000;0.0814;-1.0724;
621.6000;0.0887;-1.0521;
621.9000;0.0855;-1.0475;
622.2000;0.0830;-1.0475;
622.5000;0.0879;-1.0317;
622.8000;0.0830;-1.0430;
623.1000;0.0847;-1.0453;
623.4000;0.0773;-1.0634;
623.7000;0.0765;-1.0792;
624.0000;0.0822;-1.0589;
624.3000;0.0814;-1.0634;
624.6000;0.0822;-1.0589;
624.9000;0.0838;-1.0589;
625.2000;0.0830;-1.0679;
625.5000;0.0830;-1.0770;
625.8000;0.0733;-1.1018;
626.1000;0.0814;-1.0770;
626.4000;0.0838;-1.0747;
626.7000;0.0822;-1.0702;
627.0000;0.0806;-1.0724;
627.3000;0.0830;-1.0702;
627.6000;0.0822;-1.0656;
627.9000;0.0806;-1.0634;
628.2000;0.0838;-1.0611;
628.5000;0.0871;-1.0589;
628.8000;0.0838;-1.0679;
629.1000;0.0814;-1.0770;
629.4000;0.0733;-1.1086;
629.7000;0.0830;-1.0815;
630.0000;0.0838;-1.0770;
630.3000;0.0830;-1.0770;
630.6000;0.0863;-1.0792;
630.9000;0.0847;-1.0770;
631.2000;0.0814;-1.0792;
631.5000;0.0798;-1.0928;
631.8000;0.0822;-1.0860;
632.1000;0.0879;-1.0837;
632.4000;0.0822;-1.0973;
632.7000;0.0790;-1.0973;
633.0000;0.0847;-1.0883;
633.3000;0.0822;-1.0928;
633.6000;0.0847;-1.0860;
633.9000;0.0830;-1.0883;
634.2000;0.0814;-1.0837;
634.5000;0.0822;-1.0883;
634.8000;0.0838;-1.0815;
635.1000;0.0887;-1.0611;
635.4000;0.0814;-1.0724;
635.7000;0.0814;-1.0770;
636.0000;0.0814;-1.0724;
636.3000;0.0724;-1.0860;
636.6000;0.0781;-1.0634;
636.9000;0.0814;-1.0521;
637.2000;0.0822;-1.0475;
637.5000;0.0806;-1.0611;
637.8000;0.0790;-1.0702;
638.1000;0.0814;-1.0656;
638.4000;0.0887;-1.0498;
638.7000;0.0961;-1.0272;
639.0000;0.0822;-1.0611;
639.3000;0.0806;-1.0747;
639.6000;0.0822;-1.0770;
639.9000;0.0814;-1.0792;
640.2000;0.0830;-1.0770;
640.5000;0.0830;-1.0747;
640.8000;0.0830;-1.0792;
641.1000;0.0790;-1.0837;
641.4000;0.0798;-1.0770;
641.7000;0.0790;-1.0837;
642.0000;0.0749;-1.0905;
642.3000;0.0814;-1.0724;
642.6000;0.0838;-1.0679;
642.9000;0.0806;-1.0770;
643.2000;0.0822;-1.0724;
643.5000;0.0814;-1.0770;
643.8000;0.0798;-1.0770;
644.1000;0.0790;-1.0724;
644.4000;0.0814;-1.0589;
644.7000;0.0871;-1.0475;
645.0000;0.0822;-1.0634;
645.3000;0.0806;-1.0702;
645.6000;0.0830;-1.0521;
645.9000;0.0855;-1.0543;
646.2000;0.0806;-1.0770;
646.5000;0.0692;-1.1109;
646.8000;0.0830;-1.0792;
647.1000;0.0814;-1.0792;
647.4000;0.0814;-1.0656;
647.7000;0.0798;-1.0634;
648.0000;0.0806;-1.0656;
648.3000;0.0798;-1.0815;
648.6000;0.0895;-1.0566;
648.9000;0.0814;-1.0724;
649.2000;0.0798;-1.0770;
649.5000;0.0733;-1.0996;
649.8000;0.0806;-1.0747;
650.1000;0.0806;-1.0702;
650.4000;0.0806;-1.0747;
650.7000;0.0790;-1.0770;
651.0000;0.0822;-1.0679;
651.3000;0.0798;-1.0792;
651.6000;0.0798;-1.0792;
651.9000;0.0806;-1.0770;
652.2000;0.0790;-1.0815;
652.5000;0.0806;-1.0792;
652.8000;0.0814;-1.0792;
653.1000;0.0798;-1.0837;
653.4000;0.0806;-1.0770;
653.7000;0.0822;-1.0702;
654.0000;0.0790;-1.0770;
654.3000;0.0781;-1.0837;
654.6000;0.0814;-1.0770;
654.9000;0.0822;-1.0679;
655.2000;0.0822;-1.0679;
655.5000;0.0790;-1.0747;
655.8000;0.0790;-1.0747;
656.1000;0.0798;-1.0679;
656.4000;0.0781;-1.0679;
656.7000;0.0830;-1.0475;
657.0000;0.0912;-1.0227;
657.3000;0.0871;-1.0272;
657.6000;0.0798;-1.0543;
657.9000;0.0814;-1.0498;
658.2000;0.0798;-1.0566;
658.5000;0.0765;-1.0656;
658.8000;0.0790;-1.0543;
659.1000;0.0806;-1.0498;
659.4000;0.0790;-1.0566;
659.7000;0.0781;-1.0543;
660.0000;0.0814;-1.0385;
660.3000;0.0773;-1.0611;
660.6000;0.0838;-1.0521;
660.9000;0.0781;-1.0589;
661.2000;0.0806;-1.0611;
661.5000;0.0781;-1.0724;
661.8000;0.0830;-1.0543;
662.1000;0.0798;-1.0611;
662.4000;0.0822;-1.0521;
662.7000;0.0847;-1.0521;
663.0000;0.0847;-1.0498;
663.3000;0.0790;-1.0634;
663.6000;0.0822;-1.0543;
663.9000;0.0790;-1.0543;
664.2000;0.0814;-1.0453;
664.5000;0.0814;-1.0430;
664.8000;0.0847;-1.0317;
665.1000;0.0798;-1.0521;
665.4000;0.0790;-1.0589;
665.7000;0.0928;-1.0227;
666.0000;0.0806;-1.0453;
666.3000;0.0806;-1.0543;
666.6000;0.0781;-1.0543;
666.9000;0.0733;-1.0724;
667.2000;0.0798;-1.0521;
667.5000;0.0806;-1.0498;
667.8000;0.0781;-1.0656;
668.1000;0.0904;-1.0385;
668.4000;0.0749;-1.0724;
668.7000;0.0806;-1.0634;
669.0000;0.0757;-1.0679;
669.3000;0.0790;-1.0611;
669.6000;0.0790;-1.0634;
669.9000;0.0790;-1.0679;
670.2000;0.0798;-1.0634;
670.5000;0.0806;-1.0679;
670.8000;0.0814;-1.0724;
671.1000;0.0773;-1.0883;
671.4000;0.0790;-1.0815;
671.7000;0.0814;-1.0770;
672.0000;0.0806;-1.0679;
672.3000;0.0806;-1.0656;
672.6000;0.0790;-1.0702;
672.9000;0.0790;-1.0679;
673.2000;0.0781;-1.0656;
673.5000;0.0765;-1.0883;
673.8000;0.0765;-1.0860;
674.1000;0.0765;-1.0905;
674.4000;0.0806;-1.0702;
674.7000;0.0790;-1.0724;
675.0000;0.0814;-1.0656;
675.3000;0.0798;-1.0656;
675.6000;0.0814;-1.0611;
675.9000;0.0790;-1.0634;
676.2000;0.0773;-1.0521;
676.5000;0.0790;-1.0453;
676.8000;0.0798;-1.0543;
677.1000;0.0798;-1.0543;
677.4000;0.0765;-1.0656;
677.7000;0.0773;-1.0656;
678.0000;0.0814;-1.0634;
678.3000;0.0806;-1.0724;
678.6000;0.0773;-1.0770;
678.9000;0.0814;-1.0702;
679.2000;0.0781;-1.0792;
679.5000;0.0781;-1.0770;
679.8000;0.0798;-1.0656;
680.1000;0.0814;-1.0656;
680.4000;0.0781;-1.0656;
680.7000;0.0798;-1.0566;
681.0000;0.0790;-1.0589;
681.3000;0.0822;-1.0589;
681.6000;0.0781;-1.0702;
681.9000;0.0879;-1.0408;
682.2000;0.0790;-1.0589;
682.5000;0.0741;-1.0724;
682.8000;0.0830;-1.0566;
683.1000;0.0790;-1.0724;
683.4000;0.0781;-1.0702;
683.7000;0.0716;-1.0770;
684.0000;0.0790;-1.0611;
684.3000;0.0749;-1.0702;
684.6000;0.0838;-1.0521;
684.9000;0.0790;-1.0611;
685.2000;0.0773;-1.0656;
685.5000;0.0765;-1.0702;
685.8000;0.0822;-1.0589;
686.1000;0.0798;-1.0679;
686.4000;0.0790;-1.0679;
686.7000;0.0863;-1.0543;
687.0000;0.0790;-1.0770;
687.3000;0.0790;-1.0770;
687.6000;0.0798;-1.0656;
687.9000;0.0781;-1.0679;
688.2000;0.0790;-1.0656;
688.5000;0.0781;-1.0724;
688.8000;0.0700;-1.0996;
689.1000;0.0781;-1.0815;
689.4000;0.0790;-1.0747;
689.7000;0.0716;-1.0928;
690.0000;0.0765;-1.0837;
690.3000;0.0765;-1.0747;
690.6000;0.0806;-1.0589;
690.9000;0.0790;-1.0589;
691.2000;0.0790;-1.0543;
691.5000;0.0798;-1.0430;
691.8000;0.0781;-1.0543;
692.1000;0.0781;-1.0589;
692.4000;0.0798;-1.0566;
692.7000;0.0798;-1.0589;
693.0000;0.0781;-1.0634;
693.3000;0.0781;-1.0724;
693.6000;0.0773;-1.0747;
693.9000;0.0781;-1.0815;
694.2000;0.0773;-1.0770;
694.5000;0.0798;-1.0702;
694.8000;0.0822;-1.0566;
695.1000;0.0806;-1.0656;
695.4000;0.0757;-1.0770;
695.7000;0.0822;-1.0589;
696.0000;0.0838;-1.0498;
696.3000;0.0806;-1.0589;
696.6000;0.0814;-1.0498;
696.9000;0.0765;-1.0611;
697.2000;0.0790;-1.0611;
697.5000;0.0781;-1.0566;
697.8000;0.0773;-1.0566;
698.1000;0.0676;-1.0905;
698.4000;0.0773;-1.0566;
698.7000;0.0895;-1.0340;
699.0000;0.0790;-1.0498;
699.3000;0.0790;-1.0475;
699.6000;0.0781;-1.0498;
699.9000;0.0863;-1.0340;
700.2000;0.0765;-1.0679;
700.5000;0.0790;-1.0634;
700.8000;0.0765;-1.0634;
701.1000;0.0700;-1.0792;
701.4000;0.0781;-1.0498;
701.7000;0.0781;-1.0408;
702.0000;0.0814;-1.0453;
702.3000;0.0806;-1.0453;
702.6000;0.0806;-1.0543;
702.9000;0.0838;-1.0475;
703.2000;0.0871;-1.0430;
703.5000;0.0790;-1.0589;
703.8000;0.0765;-1.0589;
704.1000;0.0773;-1.0475;
704.4000;0.0749;-1.0543;
704.7000;0.0781;-1.0430;
705.0000;0.0773;-1.0498;
705.3000;0.0716;-1.0702;
705.6000;0.0790;-1.0475;
705.9000;0.0806;-1.0498;
706.2000;0.0765;-1.0521;
706.5000;0.0765;-1.0521;
706.8000;0.0781;-1.0543;
707.1000;0.0806;-1.0521;
707.4000;0.0773;-1.0634;
707.7000;0.0765;-1.0543;
708.0000;0.0814;-1.0475;
708.3000;0.0749;-1.0566;
708.6000;0.0838;-1.0430;
708.9000;0.0790;-1.0543;
709.2000;0.0773;-1.0656;
709.5000;0.0773;-1.0611;
709.8000;0.0790;-1.0611;
710.1000;0.0765;-1.0656;
710.4000;0.0806;-1.0679;
710.7000;0.0781;-1.0634;
711.0000;0.0790;-1.0589;
711.3000;0.0773;-1.0634;
711.6000;0.0781;-1.0566;
711.9000;0.0790;-1.0521;
712.2000;0.0781;-1.0543;
712.5000;0.0773;-1.0543;
712.8000;0.0757;-1.0656;
713.1000;0.0790;-1.0521;
713.4000;0.0781;-1.0475;
713.7000;0.0790;-1.0362;
714.0000;0.0814;-1.0317;
714.3000;0.0773;-1.0543;
714.6000;0.0887;-1.0181;
714.9000;0.0798;-1.0430;
715.2000;0.0692;-1.0747;
715.5000;0.0904;-1.0159;
715.8000;0.0847;-1.0272;
716.1000;0.0708;-1.0656;
716.4000;0.0781;-1.0453;
716.7000;0.0765;-1.0498;
717.0000;0.0790;-1.0498;
717.3000;0.0781;-1.0362;
717.6000;0.0790;-1.0272;
717.9000;0.0798;-1.0317;
718.2000;0.0781;-1.0430;
718.5000;0.0855;-1.0204;
718.8000;0.0773;-1.0385;
719.1000;0.0716;-1.0543;
719.4000;0.0765;-1.0521;
719.7000;0.0757;-1.0656;
720.0000;0.0757;-1.0589;
720.3000;0.0773;-1.0498;
720.6000;0.0781;-1.0453;
720.9000;0.0781;-1.0543;
721.2000;0.0781;-1.0543;
721.5000;0.0757;-1.0589;
721.8000;0.0830;-1.0408;
722.1000;0.0830;-1.0453;
722.4000;0.0781;-1.0656;
722.7000;0.0781;-1.0566;
723.0000;0.0708;-1.0702;
723.3000;0.0790;-1.0498;
723.6000;0.0781;-1.0589;
723.9000;0.0863;-1.0362;
724.2000;0.0781;-1.0453;
724.5000;0.0790;-1.0340;
724.8000;0.0781;-1.0340;
725.1000;0.0773;-1.0385;
725.4000;0.0790;-1.0385;
725.7000;0.0781;-1.0362;
726.0000;0.0871;-1.0113;
726.3000;0.0798;-1.0362;
726.6000;0.0798;-1.0430;
726.9000;0.0830;-1.0362;
727.2000;0.0773;-1.0453;
727.5000;0.0806;-1.0453;
727.8000;0.0773;-1.0408;
728.1000;0.0790;-1.0362;
728.4000;0.0773;-1.0408;
728.7000;0.0790;-1.0385;
729.0000;0.0798;-1.0521;
729.3000;0.0757;-1.0611;
729.6000;0.0773;-1.0475;
729.9000;0.0790;-1.0475;
730.2000;0.0781;-1.0453;
730.5000;0.0790;-1.0498;
730.8000;0.0749;-1.0543;
731.1000;0.0790;-1.0385;
731.4000;0.0855;-1.0249;
731.7000;0.0798;-1.0385;
732.0000;0.0781;-1.0475;
732.3000;0.0790;-1.0521;
732.6000;0.0806;-1.0475;
732.9000;0.0757;-1.0589;
733.2000;0.0757;-1.0521;
733.5000;0.0790;-1.0453;
733.8000;0.0765;-1.0543;
734.1000;0.0749;-1.0634;
734.4000;0.0790;-1.0475;
734.7000;0.0895;-1.0204;
735.0000;0.0790;-1.0430;
735.3000;0.0773;-1.0475;
735.6000;0.0773;-1.0543;
735.9000;0.0781;-1.0543;
736.2000;0.0806;-1.0475;
736.5000;0.0773;-1.0543;
736.8000;0.0838;-1.0385;
737.1000;0.0798;-1.0543;
737.4000;0.0773;-1.0589;
737.7000;0.0773;-1.0634;
738.0000;0.0757;-1.0656;
738.3000;0.0765;-1.0724;
738.6000;0.0724;-1.0815;
738.9000;0.0781;-1.0702;
739.2000;0.0765;-1.0724;
739.5000;0.0830;-1.0521;
739.8000;0.0798;-1.0634;
740.1000;0.0781;-1.0611;
740.4000;0.0716;-1.0679;
740.7000;0.0781;-1.0521;
741.0000;0.0790;-1.0475;
741.3000;0.0773;-1.0498;
741.6000;0.0773;-1.0521;
741.9000;0.0708;-1.0747;
742.2000;0.0790;-1.0656;
742.5000;0.0879;-1.0362;
742.8000;0.0830;-1.0475;
743.1000;0.0749;-1.0589;
743.4000;0.0798;-1.0543;
743.7000;0.0773;-1.0521;
744.0000;0.0806;-1.0408;
744.3000;0.0765;-1.0475;
744.6000;0.0749;-1.0521;
744.9000;0.0790;-1.0543;
745.2000;0.0749;-1.0702;
745.5000;0.0790;-1.0521;
745.8000;0.0741;-1.0566;
746.1000;0.0781;-1.0498;
746.4000;0.0765;-1.0521;
746.7000;0.0790;-1.0385;
747.0000;0.0749;-1.0430;
747.3000;0.0798;-1.0362;
747.6000;0.0773;-1.0430;
747.9000;0.0830;-1.0362;
748.2000;0.0781;-1.0543;
748.5000;0.0765;-1.0611;
748.8000;0.0757;-1.0611;
749.1000;0.0781;-1.0566;
749.4000;0.0790;-1.0589;
749.7000;0.0798;-1.0634;
750.0000;0.0781;-1.0566;
750.3000;0.0798;-1.0498;
750.6000;0.0773;-1.0589;
750.9000;0.0838;-1.0408;
751.2000;0.0773;-1.0611;
751.5000;0.0814;-1.0566;
751.8000;0.0806;-1.0589;
752.1000;0.0667;-1.0928;
752.4000;0.0757;-1.0724;
752.7000;0.0798;-1.0656;
753.0000;0.0773;-1.0634;
753.3000;0.0781;-1.0656;
753.6000;0.0733;-1.0792;
753.9000;0.0765;-1.0656;
754.2000;0.0781;-1.0611;
754.5000;0.0847;-1.0430;
754.8000;0.0773;-1.0611;
755.1000;0.0765;-1.0611;
755.4000;0.0790;-1.0543;
755.7000;0.0798;-1.0498;
756.0000;0.0741;-1.0656;
756.3000;0.0781;-1.0566;
756.6000;0.0765;-1.0589;
756.9000;0.0790;-1.0521;
757.2000;0.0765;-1.0611;
757.5000;0.0733;-1.0747;
757.8000;0.0806;-1.0589;
758.1000;0.0790;-1.0566;
758.4000;0.0749;-1.0543;
758.7000;0.0798;-1.0475;
759.0000;0.0765;-1.0611;
759.3000;0.0781;-1.0589;
759.6000;0.0781;-1.0589;
759.9000;0.0773;-1.0589;
760.2000;0.0749;-1.0634;
760.5000;0.0757;-1.0543;
760.8000;0.0765;-1.0543;
761.1000;0.0773;-1.0453;
761.4000;0.0765;-1.0408;
761.7000;0.0781;-1.0340;
762.0000;0.0790;-1.0294;
762.3000;0.0773;-1.0453;
762.6000;0.0724;-1.0566;
762.9000;0.0773;-1.0453;
763.2000;0.0781;-1.0430;
763.5000;0.0773;-1.0408;
763.8000;0.0765;-1.0362;
764.1000;0.0781;-1.0408;
764.4000;0.0830;-1.0249;
764.7000;0.0790;-1.0362;
765.0000;0.0790;-1.0430;
765.3000;0.0781;-1.0453;
765.6000;0.0863;-1.0227;
765.9000;0.0781;-1.0543;
766.2000;0.0806;-1.0408;
766.5000;0.0765;-1.0566;
766.8000;0.0855;-1.0340;
767.1000;0.0749;-1.0611;
767.4000;0.0757;-1.0611;
767.7000;0.0773;-1.0589;
768.0000;0.0790;-1.0566;
768.3000;0.0765;-1.0656;
768.6000;0.0798;-1.0679;
768.9000;0.0765;-1.0724;
769.2000;0.0781;-1.0656;
769.5000;0.0781;-1.0679;
769.8000;0.0765;-1.0679;
770.1000;0.0806;-1.0543;
770.4000;0.0781;-1.0543;
770.7000;0.0765;-1.0521;
771.0000;0.0790;-1.0340;
771.3000;0.0773;-1.0385;
771.6000;0.0773;-1.0385;
771.9000;0.0781;-1.0385;
772.2000;0.0773;-1.0475;
772.5000;0.0773;-1.0566;
772.8000;0.0765;-1.0656;
773.1000;0.0708;-1.0792;
773.4000;0.0757;-1.0679;
773.7000;0.0781;-1.0679;
774.0000;0.0773;-1.0724;
774.3000;0.0773;-1.0656;
774.6000;0.0773;-1.0589;
774.9000;0.0773;-1.0634;
775.2000;0.0733;-1.0883;
775.5000;0.0757;-1.0860;
775.8000;0.0798;-1.0770;
776.1000;0.0781;-1.0837;
776.4000;0.0838;-1.0770;
776.7000;0.0773;-1.0973;
777.0000;0.0806;-1.0883;
777.3000;0.0790;-1.0837;
777.6000;0.0773;-1.0905;
777.9000;0.0773;-1.0883;
778.2000;0.0773;-1.0905;
778.5000;0.0757;-1.0928;
778.8000;0.0781;-1.0770;
779.1000;0.0741;-1.0905;
779.4000;0.0790;-1.0724;
779.7000;0.0716;-1.0815;
780.0000;0.0822;-1.0656;
780.3000;0.0773;-1.0815;
780.6000;0.0741;-1.0815;
780.9000;0.0781;-1.0724;
781.2000;0.0724;-1.0905;
781.5000;0.0765;-1.0792;
781.8000;0.0765;-1.0792;
782.1000;0.0830;-1.0702;
782.4000;0.0781;-1.0792;
782.7000;0.0757;-1.0905;
783.0000;0.0781;-1.0860;
783.3000;0.0773;-1.0837;
783.6000;0.0765;-1.0770;
783.9000;0.0757;-1.0770;
784.2000;0.0773;-1.0770;
784.5000;0.0798;-1.0656;
784.8000;0.0716;-1.0860;
785.1000;0.0773;-1.0656;
785.4000;0.0749;-1.0747;
785.7000;0.0790;-1.0679;
786.0000;0.0757;-1.0860;
786.3000;0.0781;-1.0905;
786.6000;0.0790;-1.0837;
786.9000;0.0733;-1.0905;
787.2000;0.0773;-1.0770;
787.5000;0.0773;-1.0883;
787.8000;0.0798;-1.0770;
788.1000;0.0724;-1.0928;
788.4000;0.0773;-1.0792;
788.7000;0.0895;-1.0521;
789.0000;0.0765;-1.0837;
789.3000;0.0781;-1.0815;
789.6000;0.0790;-1.0815;
789.9000;0.0716;-1.0951;
790.2000;0.0773;-1.0656;
790.5000;0.0749;-1.0656;
790.8000;0.0806;-1.0656;
791.1000;0.0781;-1.0837;
791.4000;0.0781;-1.0837;
791.7000;0.0773;-1.0928;
792.0000;0.0798;-1.0928;
792.3000;0.0781;-1.0951;
792.6000;0.0773;-1.0973;
792.9000;0.0773;-1.1086;
793.2000;0.0798;-1.0973;
793.5000;0.0781;-1.0905;
793.8000;0.0781;-1.0724;
794.1000;0.0773;-1.0656;
794.4000;0.0765;-1.0634;
794.7000;0.0790;-1.0656;
795.0000;0.0798;-1.0770;
795.3000;0.0838;-1.0702;
795.6000;0.0790;-1.0837;
795.9000;0.0790;-1.0837;
796.2000;0.0790;-1.0837;
796.5000;0.0757;-1.1018;
796.8000;0.0830;-1.0815;
797.1000;0.0765;-1.0973;
797.4000;0.0773;-1.0905;
797.7000;0.0765;-1.0837;
798.0000;0.0838;-1.0656;
798.3000;0.0716;-1.0883;
798.6000;0.0773;-1.0702;
798.9000;0.0855;-1.0430;
799.2000;0.0765;-1.0611;
799.5000;0.0757;-1.0679;
799.8000;0.0838;-1.0589;
800.1000;0.0790;-1.0566;
800.4000;0.0871;-1.0385;
800.7000;0.0765;-1.0589;
801.0000;0.0798;-1.0566;
801.3000;0.0847;-1.0408;
801.6000;0.0757;-1.0589;
801.9000;0.0757;-1.0566;
802.2000;0.0716;-1.0679;
802.5000;0.0773;-1.0589;
802.8000;0.0781;-1.0634;
803.1000;0.0773;-1.0634;
803.4000;0.0838;-1.0453;
803.7000;0.0765;-1.0589;
804.0000;0.0838;-1.0385;
804.3000;0.0724;-1.0634;
804.6000;0.0765;-1.0498;
804.9000;0.0757;-1.0589;
805.2000;0.0757;-1.0656;
805.5000;0.0790;-1.0566;
805.8000;0.0773;-1.0589;
806.1000;0.0741;-1.0634;
806.4000;0.0790;-1.0566;
806.7000;0.0855;-1.0453;
807.0000;0.0765;-1.0634;
807.3000;0.0773;-1.0656;
807.6000;0.0676;-1.0747;
807.9000;0.0757;-1.0521;
808.2000;0.0765;-1.0521;
808.5000;0.0798;-1.0521;
808.8000;0.0781;-1.0566;
809.1000;0.0765;-1.0611;
809.4000;0.0765;-1.0634;
809.7000;0.0765;-1.0634;
810.0000;0.0781;-1.0634;
810.3000;0.0765;-1.0679;
810.6000;0.0741;-1.0792;
810.9000;0.0741;-1.0770;
811.2000;0.0741;-1.0770;
811.5000;0.0773;-1.0747;
811.8000;0.0781;-1.0634;
812.1000;0.0765;-1.0747;
812.4000;0.0781;-1.0747;
812.7000;0.0781;-1.0792;
813.0000;0.0773;-1.0702;
813.3000;0.0757;-1.0837;
813.6000;0.0781;-1.0770;
813.9000;0.0773;-1.0747;
814.2000;0.0765;-1.0792;
814.5000;0.0749;-1.0792;
814.8000;0.0708;-1.0815;
815.1000;0.0773;-1.0611;
815.4000;0.0781;-1.0543;
815.7000;0.0765;-1.0521;
816.0000;0.0781;-1.0408;
816.3000;0.0781;-1.0294;
816.6000;0.0773;-1.0294;
816.9000;0.0806;-1.0249;
817.2000;0.0781;-1.0317;
817.5000;0.0790;-1.0272;
817.8000;0.0773;-1.0317;
818.1000;0.0814;-1.0272;
818.4000;0.0798;-1.0294;
818.7000;0.0733;-1.0453;
819.0000;0.0781;-1.0362;
819.3000;0.0773;-1.0294;
819.6000;0.0765;-1.0408;
819.9000;0.0790;-1.0317;
820.2000;0.0733;-1.0385;
820.5000;0.0798;-1.0317;
820.8000;0.0814;-1.0317;
821.1000;0.0773;-1.0385;
821.4000;0.0781;-1.0430;
821.7000;0.0765;-1.0475;
822.0000;0.0773;-1.0521;
822.3000;0.0790;-1.0521;
822.6000;0.0781;-1.0475;
822.9000;0.0790;-1.0566;
823.2000;0.0700;-1.0770;
823.5000;0.0912;-1.0227;
823.8000;0.0806;-1.0498;
824.1000;0.0765;-1.0543;
824.4000;0.0781;-1.0521;
824.7000;0.0716;-1.0792;
825.0000;0.0790;-1.0589;
825.3000;0.0781;-1.0634;
825.6000;0.0838;-1.0340;
825.9000;0.0757;-1.0611;
826.2000;0.0765;-1.0589;
826.5000;0.0814;-1.0475;
826.8000;0.0749;-1.0656;
827.1000;0.0765;-1.0634;
827.4000;0.0659;-1.0860;
827.7000;0.0790;-1.0498;
828.0000;0.0749;-1.0656;
828.3000;0.0773;-1.0679;
828.6000;0.0773;-1.0747;
828.9000;0.0773;-1.0724;
829.2000;0.0757;-1.0747;
829.5000;0.0741;-1.0770;
829.8000;0.0757;-1.0724;
830.1000;0.0700;-1.0905;
830.4000;0.0765;-1.0792;
830.7000;0.0790;-1.0611;
831.0000;0.0814;-1.0543;
831.3000;0.0757;-1.0656;
831.6000;0.0773;-1.0521;
831.9000;0.0765;-1.0521;
832.2000;0.0790;-1.0498;
832.5000;0.0749;-1.0543;
832.8000;0.0863;-1.0249;
833.1000;0.0773;-1.0543;
833.4000;0.0741;-1.0702;
833.7000;0.0781;-1.0656;
834.0000;0.0724;-1.0747;
834.3000;0.0781;-1.0634;
834.6000;0.0651;-1.0883;
834.9000;0.0814;-1.0543;
835.2000;0.0806;-1.0475;
835.5000;0.0798;-1.0453;
835.8000;0.0798;-1.0498;
836.1000;0.0724;-1.0656;
836.4000;0.0790;-1.0498;
836.7000;0.0716;-1.0747;
837.0000;0.0724;-1.0702;
837.3000;0.0790;-1.0611;
837.6000;0.0765;-1.0611;
837.9000;0.0806;-1.0498;
838.2000;0.0773;-1.0498;
838.5000;0.0781;-1.0543;
838.8000;0.0798;-1.0521;
839.1000;0.0781;-1.0566;
839.4000;0.0781;-1.0475;
839.7000;0.0781;-1.0498;
840.0000;0.0830;-1.0340;
840.3000;0.0765;-1.0543;
840.6000;0.0765;-1.0475;
840.9000;0.0708;-1.0589;
841.2000;0.0733;-1.0543;
841.5000;0.0790;-1.0453;
841.8000;0.0773;-1.0498;
842.1000;0.0765;-1.0521;
842.4000;0.0765;-1.0498;
842.7000;0.0798;-1.0408;
843.0000;0.0781;-1.0453;
843.3000;0.0830;-1.0340;
843.6000;0.0814;-1.0408;
843.9000;0.0773;-1.0498;
844.2000;0.0798;-1.0385;
844.5000;0.0765;-1.0475;
844.8000;0.0773;-1.0498;
845.1000;0.0757;-1.0679;
845.4000;0.0757;-1.0747;
845.7000;0.0781;-1.0747;
846.0000;0.0749;-1.0815;
846.3000;0.0749;-1.0770;
846.6000;0.0765;-1.0724;
846.9000;0.0798;-1.0611;
847.2000;0.0733;-1.0724;
847.5000;0.0781;-1.0589;
847.8000;0.0757;-1.0543;
848.1000;0.0757;-1.0611;
848.4000;0.0904;-1.0294;
848.7000;0.0887;-1.0340;
849.0000;0.0749;-1.0589;
849.3000;0.0757;-1.0589;
849.6000;0.0838;-1.0362;
849.9000;0.0765;-1.0611;
850.2000;0.0757;-1.0611;
850.5000;0.0676;-1.0770;
850.8000;0.0773;-1.0498;
851.1000;0.0757;-1.0589;
851.4000;0.0716;-1.0792;
851.7000;0.0798;-1.0589;
852.0000;0.0773;-1.0634;
852.3000;0.0798;-1.0566;
852.6000;0.0806;-1.0475;
852.9000;0.0724;-1.0566;
853.2000;0.0757;-1.0453;
853.5000;0.0773;-1.0408;
853.8000;0.0773;-1.0430;
854.1000;0.0765;-1.0430;
854.4000;0.0757;-1.0453;
854.7000;0.0716;-1.0589;
855.0000;0.0773;-1.0453;
855.3000;0.0741;-1.0566;
855.6000;0.0749;-1.0566;
855.9000;0.0781;-1.0475;
856.2000;0.0773;-1.0634;
856.5000;0.0708;-1.0770;
856.8000;0.0773;-1.0634;
857.1000;0.0781;-1.0589;
857.4000;0.0757;-1.0679;
857.7000;0.0798;-1.0543;
858.0000;0.0781;-1.0521;
858.3000;0.0773;-1.0611;
858.6000;0.0822;-1.0498;
858.9000;0.0773;-1.0543;
859.2000;0.0724;-1.0656;
859.5000;0.0781;-1.0521;
859.8000;0.0773;-1.0543;
860.1000;0.0806;-1.0475;
860.4000;0.0765;-1.0543;
860.7000;0.0790;-1.0475;
861.0000;0.0757;-1.0385;
861.3000;0.0741;-1.0453;
861.6000;0.0781;-1.0385;
861.9000;0.0773;-1.0430;
862.2000;0.0781;-1.0453;
862.5000;0.0749;-1.0543;
862.8000;0.0790;-1.0543;
863.1000;0.0765;-1.0543;
863.4000;0.0765;-1.0543;
863.7000;0.0790;-1.0498;
864.0000;0.0749;-1.0611;
864.3000;0.0773;-1.0566;
864.6000;0.0790;-1.0543;
864.9000;0.0781;-1.0566;
865.2000;0.0765;-1.0656;
865.5000;0.0757;-1.0634;
865.8000;0.0781;-1.0453;
866.1000;0.0863;-1.0227;
866.4000;0.0765;-1.0385;
866.7000;0.0765;-1.0566;
867.0000;0.0749;-1.0679;
867.3000;0.0781;-1.0589;
867.6000;0.0781;-1.0566;
867.9000;0.0749;-1.0611;
868.2000;0.0790;-1.0385;
868.5000;0.0659;-1.0702;
868.8000;0.0765;-1.0521;
869.1000;0.0749;-1.0543;
869.4000;0.0716;-1.0634;
869.7000;0.0781;-1.0543;
870.0000;0.0749;-1.0656;
870.3000;0.0765;-1.0702;
870.6000;0.0757;-1.0611;
870.9000;0.0749;-1.0566;
871.2000;0.0781;-1.0543;
871.5000;0.0700;-1.0770;
871.8000;0.0757;-1.0724;
872.1000;0.0790;-1.0679;
872.4000;0.0635;-1.0996;
872.7000;0.0790;-1.0724;
873.0000;0.0790;-1.0679;
873.3000;0.0749;-1.0792;
873.6000;0.0822;-1.0656;
873.9000;0.0781;-1.0770;
874.2000;0.0765;-1.0837;
874.5000;0.0855;-1.0679;
874.8000;0.0790;-1.0905;
875.1000;0.0757;-1.0837;
875.4000;0.0814;-1.0679;
875.7000;0.0741;-1.0747;
876.0000;0.0790;-1.0634;
876.3000;0.0781;-1.0656;
876.6000;0.0830;-1.0543;
876.9000;0.0765;-1.0566;
877.2000;0.0773;-1.0543;
877.5000;0.0724;-1.0724;
877.8000;0.0773;-1.0589;
878.1000;0.0773;-1.0521;
878.4000;0.0773;-1.0543;
878.7000;0.0790;-1.0589;
879.0000;0.0765;-1.0589;
879.3000;0.0773;-1.0521;
879.6000;0.0798;-1.0453;
879.9000;0.0773;-1.0408;
880.2000;0.0790;-1.0362;
880.5000;0.0781;-1.0340;
880.8000;0.0798;-1.0317;
881.1000;0.0757;-1.0385;
881.4000;0.0773;-1.0498;
881.7000;0.0798;-1.0521;
882.0000;0.0757;-1.0566;
882.3000;0.0724;-1.0656;
882.6000;0.0773;-1.0475;
882.9000;0.0676;-1.0724;
883.2000;0.0781;-1.0385;
883.5000;0.0773;-1.0362;
883.8000;0.0773;-1.0317;
884.1000;0.0749;-1.0340;
884.4000;0.0724;-1.0385;
884.7000;0.0830;-1.0113;
885.0000;0.0790;-1.0317;
885.3000;0.0765;-1.0340;
885.6000;0.0814;-1.0249;
885.9000;0.0757;-1.0340;
886.2000;0.0790;-1.0249;
886.5000;0.0806;-1.0227;
886.8000;0.0749;-1.0317;
887.1000;0.0838;-1.0136;
887.4000;0.0773;-1.0227;
887.7000;0.0757;-1.0340;
888.0000;0.0773;-1.0430;
888.3000;0.0781;-1.0521;
888.6000;0.0757;-1.0543;
888.9000;0.0749;-1.0611;
889.2000;0.0724;-1.0656;
889.5000;0.0765;-1.0475;
889.8000;0.0773;-1.0475;
890.1000;0.0749;-1.0566;
890.4000;0.0773;-1.0475;
890.7000;0.0781;-1.0430;
891.0000;0.0700;-1.0679;
891.3000;0.0765;-1.0498;
891.6000;0.0757;-1.0475;
891.9000;0.0749;-1.0453;
892.2000;0.0773;-1.0498;
892.5000;0.0838;-1.0317;
892.8000;0.0708;-1.0611;
893.1000;0.0741;-1.0408;
893.4000;0.0847;-1.0136;
893.7000;0.0781;-1.0340;
894.0000;0.0765;-1.0453;
894.3000;0.0733;-1.0566;
894.6000;0.0822;-1.0408;
894.9000;0.0781;-1.0543;
895.2000;0.0781;-1.0475;
895.5000;0.0855;-1.0272;
895.8000;0.0676;-1.0747;
896.1000;0.0790;-1.0430;
896.4000;0.0781;-1.0498;
896.7000;0.0790;-1.0453;
897.0000;0.0749;-1.0430;
897.3000;0.0773;-1.0430;
897.6000;0.0716;-1.0521;
897.9000;0.0765;-1.0317;
898.2000;0.0781;-1.0317;
898.5000;0.0757;-1.0362;
898.8000;0.0765;-1.0204;
899.1000;0.0773;-1.0227;
899.4000;0.0773;-1.0136;
899.7000;0.0781;-1.0317;
900.0000;0.0790;-1.0317;
900.3000;0.0773;-1.0362;
900.6000;0.0765;-1.0475;
900.9000;0.0773;-1.0453;
901.2000;0.0749;-1.0543;
901.5000;0.0749;-1.0521;
901.8000;0.0757;-1.0498;
902.1000;0.0765;-1.0589;
902.4000;0.0781;-1.0589;
902.7000;0.0765;-1.0611;
903.0000;0.0847;-1.0498;
903.3000;0.0781;-1.0634;
903.6000;0.0790;-1.0634;
903.9000;0.0781;-1.0634;
904.2000;0.0798;-1.0566;
904.5000;0.0773;-1.0566;
904.8000;0.0741;-1.0702;
905.1000;0.0757;-1.0679;
905.4000;0.0765;-1.0702;
905.7000;0.0798;-1.0589;
906.0000;0.0773;-1.0566;
906.3000;0.0757;-1.0634;
906.6000;0.0790;-1.0543;
906.9000;0.0765;-1.0498;
907.2000;0.0741;-1.0521;
907.5000;0.0765;-1.0453;
907.8000;0.0749;-1.0521;
908.1000;0.0749;-1.0611;
908.4000;0.0749;-1.0543;
908.7000;0.0651;-1.0770;
909.0000;0.0757;-1.0543;
909.3000;0.0838;-1.0362;
909.6000;0.0757;-1.0543;
909.9000;0.0741;-1.0589;
910.2000;0.0765;-1.0521;
910.5000;0.0749;-1.0656;
910.8000;0.0651;-1.0905;
911.1000;0.0781;-1.0521;
911.4000;0.0749;-1.0521;
911.7000;0.0773;-1.0521;
912.0000;0.0790;-1.0566;
912.3000;0.0741;-1.0634;
912.6000;0.0773;-1.0543;
912.9000;0.0765;-1.0498;
913.2000;0.0765;-1.0543;
913.5000;0.0790;-1.0453;
913.8000;0.0822;-1.0340;
914.1000;0.0781;-1.0453;
914.4000;0.0781;-1.0566;
914.7000;0.0741;-1.0656;
915.0000;0.0838;-1.0453;
915.3000;0.0749;-1.0702;
915.6000;0.0790;-1.0566;
915.9000;0.0814;-1.0475;
916.2000;0.0757;-1.0475;
916.5000;0.0741;-1.0498;
916.8000;0.0765;-1.0475;
917.1000;0.0822;-1.0362;
917.4000;0.0700;-1.0543;
917.7000;0.0781;-1.0362;
918.0000;0.0773;-1.0408;
918.3000;0.0790;-1.0340;
918.6000;0.0847;-1.0159;
918.9000;0.0733;-1.0498;
919.2000;0.0757;-1.0498;
919.5000;0.0724;-1.0634;
919.8000;0.0765;-1.0498;
920.1000;0.0773;-1.0498;
920.4000;0.0781;-1.0475;
920.7000;0.0781;-1.0498;
921.0000;0.0814;-1.0453;
921.3000;0.0765;-1.0589;
921.6000;0.0781;-1.0589;
921.9000;0.0773;-1.0634;
922.2000;0.0822;-1.0634;
922.5000;0.0773;-1.0702;
922.8000;0.0676;-1.0837;
923.1000;0.0757;-1.0543;
923.4000;0.0773;-1.0453;
923.7000;0.0790;-1.0521;
924.0000;0.0749;-1.0611;
924.3000;0.0781;-1.0521;
924.6000;0.0781;-1.0453;
924.9000;0.0765;-1.0521;
925.2000;0.0773;-1.0543;
925.5000;0.0790;-1.0453;
925.8000;0.0790;-1.0521;
926.1000;0.0781;-1.0498;
926.4000;0.0741;-1.0566;
926.7000;0.0781;-1.0475;
927.0000;0.0830;-1.0362;
927.3000;0.0757;-1.0521;
927.6000;0.0765;-1.0385;
927.9000;0.0765;-1.0317;
928.2000;0.0765;-1.0362;
928.5000;0.0757;-1.0430;
928.8000;0.0757;-1.0362;
929.1000;0.0757;-1.0430;
929.4000;0.0757;-1.0453;
929.7000;0.0757;-1.0566;
930.0000;0.0749;-1.0566;
930.3000;0.0757;-1.0498;
930.6000;0.0781;-1.0430;
930.9000;0.0773;-1.0408;
931.2000;0.0781;-1.0453;
931.5000;0.0765;-1.0498;
931.8000;0.0781;-1.0430;
932.1000;0.0781;-1.0475;
932.4000;0.0781;-1.0430;
932.7000;0.0749;-1.0521;
933.0000;0.0798;-1.0362;
933.3000;0.0765;-1.0408;
933.6000;0.0790;-1.0272;
933.9000;0.0749;-1.0317;
934.2000;0.0765;-1.0272;
934.5000;0.0781;-1.0362;
934.8000;0.0765;-1.0453;
935.1000;0.0765;-1.0589;
935.4000;0.0781;-1.0589;
935.7000;0.0781;-1.0589;
936.0000;0.0749;-1.0566;
936.3000;0.0830;-1.0453;
936.6000;0.0806;-1.0475;
936.9000;0.0765;-1.0453;
937.2000;0.0790;-1.0340;
937.5000;0.0790;-1.0362;
937.8000;0.0773;-1.0362;
938.1000;0.0773;-1.0385;
938.4000;0.0733;-1.0408;
938.7000;0.0765;-1.0362;
939.0000;0.0781;-1.0272;
939.3000;0.0798;-1.0294;
939.6000;0.0757;-1.0408;
939.9000;0.0749;-1.0453;
940.2000;0.0741;-1.0521;
940.5000;0.0749;-1.0498;
940.8000;0.0749;-1.0408;
941.1000;0.0773;-1.0453;
941.4000;0.0765;-1.0430;
941.7000;0.0781;-1.0453;
942.0000;0.0838;-1.0294;
942.3000;0.0790;-1.0430;
942.6000;0.0830;-1.0362;
942.9000;0.0790;-1.0498;
943.2000;0.0773;-1.0589;
943.5000;0.0765;-1.0589;
943.8000;0.0757;-1.0566;
944.1000;0.0765;-1.0611;
944.4000;0.0781;-1.0566;
944.7000;0.0863;-1.0385;
945.0000;0.0757;-1.0747;
945.3000;0.0773;-1.0702;
945.6000;0.0830;-1.0498;
945.9000;0.0700;-1.0747;
946.2000;0.0757;-1.0611;
946.5000;0.0765;-1.0543;
946.8000;0.0814;-1.0521;
947.1000;0.0798;-1.0634;
947.4000;0.0765;-1.0747;
947.7000;0.0716;-1.0951;
948.0000;0.0773;-1.0770;
948.3000;0.0790;-1.0702;
948.6000;0.0773;-1.0611;
948.9000;0.0741;-1.0747;
949.2000;0.0659;-1.0973;
949.5000;0.0765;-1.0679;
949.8000;0.0773;-1.0634;
950.1000;0.0741;-1.0792;
950.4000;0.0773;-1.0702;
950.7000;0.0733;-1.0883;
951.0000;0.0781;-1.0702;
951.3000;0.0838;-1.0498;
951.6000;0.0765;-1.0589;
951.9000;0.0773;-1.0611;
952.2000;0.0749;-1.0747;
952.5000;0.0684;-1.0837;
952.8000;0.0765;-1.0679;
953.1000;0.0798;-1.0611;
953.4000;0.0773;-1.0656;
953.7000;0.0757;-1.0656;
954.0000;0.0773;-1.0611;
954.3000;0.0749;-1.0792;
954.6000;0.0765;-1.0611;
954.9000;0.0847;-1.0385;
955.2000;0.0733;-1.0634;
955.5000;0.0765;-1.0566;
955.8000;0.0733;-1.0656;
956.1000;0.0765;-1.0611;
956.4000;0.0790;-1.0566;
956.7000;0.0781;-1.0634;
957.0000;0.0773;-1.0679;
957.3000;0.0773;-1.0611;
957.6000;0.0790;-1.0611;
957.9000;0.0749;-1.0611;
958.2000;0.0741;-1.0634;
958.5000;0.0773;-1.0498;
958.8000;0.0765;-1.0589;
959.1000;0.0781;-1.0543;
959.4000;0.0667;-1.0815;
959.7000;0.0765;-1.0611;
960.0000;0.0765;-1.0679;
960.3000;0.0765;-1.0679;
960.6000;0.0773;-1.0634;
960.9000;0.0790;-1.0589;
961.2000;0.0741;-1.0679;
961.5000;0.0773;-1.0589;
961.8000;0.0765;-1.0566;
962.1000;0.0814;-1.0475;
962.4000;0.0790;-1.0498;
962.7000;0.0798;-1.0521;
963.0000;0.0773;-1.0589;
963.3000;0.0765;-1.0521;
963.6000;0.0757;-1.0566;
963.9000;0.0773;-1.0521;
964.2000;0.0781;-1.0498;
964.5000;0.0765;-1.0543;
964.8000;0.0773;-1.0521;
965.1000;0.0790;-1.0430;
965.4000;0.0773;-1.0498;
965.7000;0.0773;-1.0521;
966.0000;0.0765;-1.0543;
966.3000;0.0822;-1.0498;
966.6000;0.0781;-1.0521;
966.9000;0.0757;-1.0679;
967.2000;0.0765;-1.0611;
967.5000;0.0781;-1.0656;
967.8000;0.0765;-1.0656;
968.1000;0.0895;-1.0317;
968.4000;0.0773;-1.0611;
968.7000;0.0806;-1.0589;
969.0000;0.0765;-1.0589;
969.3000;0.0749;-1.0611;
969.6000;0.0741;-1.0679;
969.9000;0.0765;-1.0589;
970.2000;0.0757;-1.0543;
970.5000;0.0765;-1.0566;
970.8000;0.0773;-1.0521;
971.1000;0.0765;-1.0521;
971.4000;0.0749;-1.0521;
971.7000;0.0806;-1.0340;
972.0000;0.0765;-1.0430;
972.3000;0.0781;-1.0453;
972.6000;0.0773;-1.0453;
972.9000;0.0790;-1.0385;
973.2000;0.0741;-1.0475;
973.5000;0.0757;-1.0498;
973.8000;0.0781;-1.0634;
974.1000;0.0765;-1.0702;
974.4000;0.0790;-1.0611;
974.7000;0.0749;-1.0747;
975.0000;0.0773;-1.0747;
975.3000;0.0781;-1.0634;
975.6000;0.0781;-1.0566;
975.9000;0.0863;-1.0453;
976.2000;0.0863;-1.0521;
976.5000;0.0773;-1.0702;
976.8000;0.0781;-1.0656;
977.1000;0.0765;-1.0679;
977.4000;0.0855;-1.0385;
977.7000;0.0757;-1.0475;
978.0000;0.0741;-1.0589;
978.3000;0.0708;-1.0634;
978.6000;0.0741;-1.0521;
978.9000;0.0781;-1.0408;
979.2000;0.0749;-1.0521;
979.5000;0.0790;-1.0385;
979.8000;0.0855;-1.0249;
980.1000;0.0684;-1.0634;
980.4000;0.0765;-1.0453;
980.7000;0.0757;-1.0521;
981.0000;0.0773;-1.0521;
981.3000;0.0765;-1.0566;
981.6000;0.0765;-1.0498;
981.9000;0.0765;-1.0543;
982.2000;0.0773;-1.0566;
982.5000;0.0773;-1.0589;
982.8000;0.0798;-1.0611;
983.1000;0.0781;-1.0792;
983.4000;0.0830;-1.0566;
983.7000;0.0749;-1.0747;
984.0000;0.0814;-1.0521;
984.3000;0.0733;-1.0679;
984.6000;0.0765;-1.0747;
984.9000;0.0757;-1.0747;
985.2000;0.0765;-1.0770;
985.5000;0.0790;-1.0792;
985.8000;0.0790;-1.0747;
986.1000;0.0765;-1.0702;
986.4000;0.0830;-1.0475;
986.7000;0.0765;-1.0634;
987.0000;0.0814;-1.0521;
987.3000;0.0708;-1.0747;
987.6000;0.0765;-1.0566;
987.9000;0.0749;-1.0543;
988.2000;0.0798;-1.0543;
988.5000;0.0667;-1.0837;
988.8000;0.0733;-1.0679;
989.1000;0.0659;-1.0860;
989.4000;0.0749;-1.0611;
989.7000;0.0749;-1.0498;
990.0000;0.0781;-1.0566;
990.3000;0.0773;-1.0566;
990.6000;0.0855;-1.0408;
990.9000;0.0781;-1.0611;
991.2000;0.0757;-1.0589;
991.5000;0.0773;-1.0543;
991.8000;0.0724;-1.0679;
992.1000;0.0773;-1.0521;
992.4000;0.0806;-1.0521;
992.7000;0.0773;-1.0611;
993.0000;0.0708;-1.0747;
993.3000;0.0765;-1.0611;
993.6000;0.0773;-1.0634;
993.9000;0.0741;-1.0724;
994.2000;0.0781;-1.0566;
994.5000;0.0749;-1.0611;
994.8000;0.0773;-1.0566;
995.1000;0.0724;-1.0656;
995.4000;0.0773;-1.0521;
995.7000;0.0798;-1.0430;
996.0000;0.0765;-1.0430;
996.3000;0.0773;-1.0430;
996.6000;0.0773;-1.0408;
996.9000;0.0733;-1.0543;
997.2000;0.0765;-1.0475;
997.5000;0.0749;-1.0589;
997.8000;0.0765;-1.0611;
998.1000;0.0790;-1.0543;
998.4000;0.0798;-1.0543;
998.7000;0.0773;-1.0543;
999.0000;0.0757;-1.0611;
999.3000;0.0790;-1.0589;
999.6000;0.0749;-1.0656;
999.9000;0.0765;-1.0611;
1000.2000;0.0773;-1.0656;
1000.5000;0.0676;-1.0883;
1000.8000;0.0790;-1.0566;
1001.1000;0.0724;-1.0724;
1001.4000;0.0749;-1.0611;
1001.7000;0.0724;-1.0702;
1002.0000;0.0790;-1.0498;
1002.3000;0.0806;-1.0498;
1002.6000;0.0806;-1.0475;
1002.9000;0.0781;-1.0589;
1003.2000;0.0790;-1.0543;
1003.5000;0.0757;-1.0543;
1003.8000;0.0798;-1.0430;
1004.1000;0.0790;-1.0566;
1004.4000;0.0741;-1.0702;
1004.7000;0.0773;-1.0611;
1005.0000;0.0757;-1.0589;
1005.3000;0.0741;-1.0611;
1005.6000;0.0781;-1.0521;
1005.9000;0.0757;-1.0589;
1006.2000;0.0773;-1.0521;
1006.5000;0.0749;-1.0679;
1006.8000;0.0806;-1.0566;
1007.1000;0.0798;-1.0589;
1007.4000;0.0765;-1.0634;
1007.7000;0.0798;-1.0543;
1008.0000;0.0790;-1.0543;
1008.3000;0.0838;-1.0408;
1008.6000;0.0798;-1.0543;
1008.9000;0.0798;-1.0543;
1009.2000;0.0749;-1.0634;
1009.5000;0.0806;-1.0566;
1009.8000;0.0765;-1.0724;
1010.1000;0.0781;-1.0724;
1010.4000;0.0749;-1.0815;
1010.7000;0.0773;-1.0724;
1011.0000;0.0773;-1.0747;
1011.3000;0.0830;-1.0589;
1011.6000;0.0781;-1.0656;
1011.9000;0.0806;-1.0611;
1012.2000;0.0749;-1.0747;
1012.5000;0.0773;-1.0770;
1012.8000;0.0806;-1.0679;
1013.1000;0.0773;-1.0634;
1013.4000;0.0741;-1.0702;
1013.7000;0.0692;-1.0724;
1014.0000;0.0773;-1.0521;
1014.3000;0.0798;-1.0385;
1014.6000;0.0757;-1.0385;
1014.9000;0.0757;-1.0430;
1015.2000;0.0781;-1.0408;
1015.5000;0.0765;-1.0521;
1015.8000;0.0765;-1.0498;
1016.1000;0.0855;-1.0340;
1016.4000;0.0757;-1.0453;
1016.7000;0.0757;-1.0385;
1017.0000;0.0773;-1.0340;
1017.3000;0.0806;-1.0340;
1017.6000;0.0749;-1.0498;
1017.9000;0.0757;-1.0521;
1018.2000;0.0765;-1.0521;
1018.5000;0.0773;-1.0475;
1018.8000;0.0838;-1.0272;
1019.1000;0.0765;-1.0453;
1019.4000;0.0798;-1.0362;
1019.7000;0.0773;-1.0385;
1020.0000;0.0765;-1.0385;
1020.3000;0.0798;-1.0362;
1020.6000;0.0790;-1.0453;
1020.9000;0.0684;-1.0860;
1021.2000;0.0765;-1.0724;
1021.5000;0.0814;-1.0611;
1021.8000;0.0741;-1.0792;
1022.1000;0.0798;-1.0634;
1022.4000;0.0781;-1.0724;
1022.7000;0.0757;-1.0837;
1023.0000;0.0733;-1.0815;
1023.3000;0.0781;-1.0679;
1023.6000;0.0757;-1.0770;
1023.9000;0.0904;-1.0430;
1024.2000;0.0765;-1.0792;
1024.5000;0.0830;-1.0634;
1024.8000;0.0741;-1.0905;
1025.1000;0.0773;-1.0815;
1025.4000;0.0830;-1.0702;
1025.7000;0.0773;-1.0770;
1026.0000;0.0773;-1.0815;
1026.3000;0.0773;-1.0792;
1026.6000;0.0700;-1.0883;
1026.9000;0.0765;-1.0770;
1027.2000;0.0757;-1.0815;
1027.5000;0.0733;-1.0905;
1027.8000;0.0781;-1.0792;
1028.1000;0.0879;-1.0566;
1028.4000;0.0773;-1.0792;
1028.7000;0.0741;-1.0837;
1029.0000;0.0765;-1.0770;
1029.3000;0.0733;-1.0883;
1029.6000;0.0781;-1.0792;
1029.9000;0.0716;-1.0951;
1030.2000;0.0749;-1.0724;
1030.5000;0.0765;-1.0611;
1030.8000;0.0781;-1.0611;
1031.1000;0.0855;-1.0340;
1031.4000;0.0798;-1.0475;
1031.7000;0.0757;-1.0679;
1032.0000;0.0635;-1.1041;
1032.3000;0.0724;-1.0792;
1032.6000;0.0790;-1.0634;
1032.9000;0.0757;-1.0656;
1033.2000;0.0765;-1.0634;
1033.5000;0.0757;-1.0656;
1033.8000;0.0773;-1.0566;
1034.1000;0.0790;-1.0453;
1034.4000;0.0814;-1.0408;
1034.7000;0.0749;-1.0589;
1035.0000;0.0798;-1.0475;
1035.3000;0.0773;-1.0566;
1035.6000;0.0871;-1.0294;
1035.9000;0.0781;-1.0521;
1036.2000;0.0724;-1.0634;
1036.5000;0.0749;-1.0589;
1036.8000;0.0724;-1.0566;
1037.1000;0.0798;-1.0408;
1037.4000;0.0781;-1.0453;
1037.7000;0.0781;-1.0475;
1038.0000;0.0765;-1.0498;
1038.3000;0.0773;-1.0430;
1038.6000;0.0741;-1.0543;
1038.9000;0.0798;-1.0498;
1039.2000;0.0773;-1.0475;
1039.5000;0.0749;-1.0589;
1039.8000;0.0733;-1.0702;
1040.1000;0.0733;-1.0679;
1040.4000;0.0757;-1.0521;
1040.7000;0.0790;-1.0453;
1041.0000;0.0757;-1.0498;
1041.3000;0.0798;-1.0408;
1041.6000;0.0773;-1.0498;
1041.9000;0.0798;-1.0385;
1042.2000;0.0757;-1.0543;
1042.5000;0.0806;-1.0453;
1042.8000;0.0781;-1.0543;
1043.1000;0.0741;-1.0702;
1043.4000;0.0700;-1.0883;
1043.7000;0.0822;-1.0521;
1044.0000;0.0757;-1.0724;
1044.3000;0.0733;-1.0747;
1044.6000;0.0749;-1.0679;
1044.9000;0.0757;-1.0656;
1045.2000;0.0765;-1.0611;
1045.5000;0.0757;-1.0566;
1045.8000;0.0798;-1.0498;
1046.1000;0.0757;-1.0589;
1046.4000;0.0733;-1.0679;
1046.7000;0.0765;-1.0566;
1047.0000;0.0822;-1.0475;
1047.3000;0.0765;-1.0521;
1047.6000;0.0798;-1.0385;
1047.9000;0.0765;-1.0475;
1048.2000;0.0790;-1.0340;
1048.5000;0.0765;-1.0430;
1048.8000;0.0749;-1.0475;
1049.1000;0.0757;-1.0453;
1049.4000;0.0773;-1.0362;
1049.7000;0.0806;-1.0362;
1050.0000;0.0741;-1.0611;
1050.3000;0.0757;-1.0566;
1050.6000;0.0757;-1.0566;
1050.9000;0.0798;-1.0521;
1051.2000;0.0781;-1.0611;
1051.5000;0.0708;-1.0815;
1051.8000;0.0806;-1.0566;
1052.1000;0.0741;-1.0702;
1052.4000;0.0757;-1.0679;
1052.7000;0.0773;-1.0566;
1053.0000;0.0757;-1.0566;
1053.3000;0.0781;-1.0521;
1053.6000;0.0765;-1.0475;
1053.9000;0.0733;-1.0634;
1054.2000;0.0798;-1.0453;
1054.5000;0.0773;-1.0589;
1054.8000;0.0733;-1.0589;
1055.1000;0.0781;-1.0521;
1055.4000;0.0741;-1.0498;
1055.7000;0.0733;-1.0408;
1056.0000;0.0757;-1.0272;
1056.3000;0.0749;-1.0317;
1056.6000;0.0773;-1.0272;
1056.9000;0.0773;-1.0317;
1057.2000;0.0790;-1.0272;
1057.5000;0.0757;-1.0294;
1057.8000;0.0773;-1.0294;
1058.1000;0.0765;-1.0408;
1058.4000;0.0749;-1.0521;
1058.7000;0.0757;-1.0656;
1059.0000;0.0749;-1.0589;
1059.3000;0.0611;-1.0951;
1059.6000;0.0765;-1.0453;
1059.9000;0.0659;-1.0724;
1060.2000;0.0692;-1.0702;
1060.5000;0.0733;-1.0634;
1060.8000;0.0765;-1.0611;
1061.1000;0.0790;-1.0521;
1061.4000;0.0765;-1.0611;
1061.7000;0.0814;-1.0521;
1062.0000;0.0749;-1.0521;
1062.3000;0.0757;-1.0475;
1062.6000;0.0708;-1.0656;
1062.9000;0.0757;-1.0521;
1063.2000;0.0830;-1.0340;
1063.5000;0.0749;-1.0475;
1063.8000;0.0716;-1.0679;
1064.1000;0.0765;-1.0566;
1064.4000;0.0765;-1.0475;
1064.7000;0.0749;-1.0521;
1065.0000;0.0741;-1.0543;
1065.3000;0.0773;-1.0498;
1065.6000;0.0757;-1.0611;
1065.9000;0.0773;-1.0611;
1066.2000;0.0855;-1.0340;
1066.5000;0.0765;-1.0566;
1066.8000;0.0749;-1.0611;
1067.1000;0.0765;-1.0611;
1067.4000;0.0765;-1.0634;
1067.7000;0.0781;-1.0566;
1068.0000;0.0814;-1.0340;
1068.3000;0.0781;-1.0430;
1068.6000;0.0814;-1.0385;
1068.9000;0.0643;-1.0883;
1069.2000;0.0741;-1.0611;
1069.5000;0.0757;-1.0521;
1069.8000;0.0692;-1.0792;
1070.1000;0.0765;-1.0634;
1070.4000;0.0773;-1.0566;
1070.7000;0.0757;-1.0589;
1071.0000;0.0790;-1.0543;
1071.3000;0.0741;-1.0656;
1071.6000;0.0757;-1.0611;
1071.9000;0.0765;-1.0566;
1072.2000;0.0798;-1.0611;
1072.5000;0.0790;-1.0566;
1072.8000;0.0904;-1.0249;
1073.1000;0.0814;-1.0385;
1073.4000;0.0765;-1.0543;
1073.7000;0.0806;-1.0475;
1074.0000;0.0667;-1.0815;
1074.3000;0.0765;-1.0453;
1074.6000;0.0781;-1.0362;
1074.9000;0.0708;-1.0498;
1075.2000;0.0724;-1.0498;
1075.5000;0.0757;-1.0453;
1075.8000;0.0749;-1.0430;
1076.1000;0.0749;-1.0385;
1076.4000;0.0749;-1.0385;
1076.7000;0.0781;-1.0362;
1077.0000;0.0781;-1.0249;
1077.3000;0.0749;-1.0385;
1077.6000;0.0749;-1.0430;
1077.9000;0.0757;-1.0408;
1078.2000;0.0773;-1.0408;
1078.5000;0.0773;-1.0543;
1078.8000;0.0733;-1.0634;
1079.1000;0.0757;-1.0498;
1079.4000;0.0781;-1.0498;
1079.7000;0.0741;-1.0589;
1080.0000;0.0757;-1.0611;
1080.3000;0.0773;-1.0543;
1080.6000;0.0765;-1.0543;
1080.9000;0.0741;-1.0589;
1081.2000;0.0692;-1.0724;
1081.5000;0.0684;-1.0860;
1081.8000;0.0790;-1.0566;
1082.1000;0.0749;-1.0634;
1082.4000;0.0765;-1.0566;
1082.7000;0.0765;-1.0566;
1083.0000;0.0798;-1.0498;
1083.3000;0.0741;-1.0634;
1083.6000;0.0798;-1.0430;
1083.9000;0.0749;-1.0543;
1084.2000;0.0757;-1.0543;
1084.5000;0.0773;-1.0521;
1084.8000;0.0716;-1.0724;
1085.1000;0.0830;-1.0408;
1085.4000;0.0773;-1.0589;
1085.7000;0.0781;-1.0611;
1086.0000;0.0790;-1.0634;
1086.3000;0.0838;-1.0408;
1086.6000;0.0806;-1.0408;
1086.9000;0.0790;-1.0453;
1087.2000;0.0838;-1.0340;
1087.5000;0.0773;-1.0475;
1087.8000;0.0790;-1.0521;
1088.1000;0.0822;-1.0475;
1088.4000;0.0798;-1.0566;
1088.7000;0.0708;-1.0792;
1089.0000;0.0814;-1.0453;
1089.3000;0.0773;-1.0566;
1089.6000;0.0765;-1.0566;
1089.9000;0.0749;-1.0656;
1090.2000;0.0716;-1.0815;
1090.5000;0.0724;-1.0724;
1090.8000;0.0757;-1.0589;
1091.1000;0.0749;-1.0543;
1091.4000;0.0757;-1.0475;
1091.7000;0.0773;-1.0385;
1092.0000;0.0798;-1.0317;
1092.3000;0.0765;-1.0430;
1092.6000;0.0708;-1.0679;
1092.9000;0.0773;-1.0611;
1093.2000;0.0765;-1.0656;
1093.5000;0.0773;-1.0566;
1093.8000;0.0773;-1.0543;
1094.1000;0.0765;-1.0521;
1094.4000;0.0765;-1.0521;
1094.7000;0.0765;-1.0498;
1095.0000;0.0749;-1.0543;
1095.3000;0.0757;-1.0498;
1095.6000;0.0798;-1.0317;
1095.9000;0.0806;-1.0294;
1096.2000;0.0765;-1.0430;
1096.5000;0.0757;-1.0498;
1096.8000;0.0790;-1.0408;
1097.1000;0.0757;-1.0566;
1097.4000;0.0781;-1.0430;
1097.7000;0.0773;-1.0430;
1098.0000;0.0757;-1.0498;
1098.3000;0.0708;-1.0521;
1098.6000;0.0798;-1.0408;
1098.9000;0.0773;-1.0408;
1099.2000;0.0757;-1.0385;
1099.5000;0.0798;-1.0340;
1099.8000;0.0790;-1.0362;
1100.1000;0.0757;-1.0453;
1100.4000;0.0708;-1.0566;
1100.7000;0.0790;-1.0475;
1101.0000;0.0863;-1.0294;
1101.3000;0.0790;-1.0453;
1101.6000;0.0741;-1.0475;
1101.9000;0.0773;-1.0430;
1102.2000;0.0773;-1.0317;
1102.5000;0.0790;-1.0272;
1102.8000;0.0757;-1.0385;
1103.1000;0.0757;-1.0317;
1103.4000;0.0765;-1.0294;
1103.7000;0.0757;-1.0362;
1104.0000;0.0765;-1.0408;
1104.3000;0.0676;-1.0656;
1104.6000;0.0773;-1.0430;
1104.9000;0.0798;-1.0385;
1105.2000;0.0781;-1.0362;
1105.5000;0.0757;-1.0430;
1105.8000;0.0757;-1.0385;
1106.1000;0.0773;-1.0408;
1106.4000;0.0814;-1.0340;
1106.7000;0.0773;-1.0408;
1107.0000;0.0773;-1.0498;
1107.3000;0.0790;-1.0430;
1107.6000;0.0773;-1.0498;
1107.9000;0.0781;-1.0430;
1108.2000;0.0773;-1.0385;
1108.5000;0.0765;-1.0340;
1108.8000;0.0781;-1.0317;
1109.1000;0.0757;-1.0317;
1109.4000;0.0757;-1.0362;
1109.7000;0.0716;-1.0498;
1110.0000;0.0716;-1.0566;
1110.3000;0.0773;-1.0475;
1110.6000;0.0765;-1.0430;
1110.9000;0.0798;-1.0408;
1111.2000;0.0757;-1.0385;
1111.5000;0.0765;-1.0385;
1111.8000;0.0765;-1.0385;
1112.1000;0.0716;-1.0498;
1112.4000;0.0781;-1.0317;
1112.7000;0.0781;-1.0294;
1113.0000;0.0708;-1.0566;
1113.3000;0.0749;-1.0408;
1113.6000;0.0749;-1.0385;
1113.9000;0.0806;-1.0272;
1114.2000;0.0773;-1.0317;
1114.5000;0.0741;-1.0340;
1114.8000;0.0790;-1.0181;
1115.1000;0.0781;-1.0249;
1115.4000;0.0773;-1.0317;
1115.7000;0.0757;-1.0430;
1116.0000;0.0757;-1.0430;
1116.3000;0.0806;-1.0272;
1116.6000;0.0773;-1.0317;
1116.9000;0.0773;-1.0204;
1117.2000;0.0798;-1.0181;
1117.5000;0.0765;-1.0294;
1117.8000;0.0814;-1.0317;
1118.1000;0.0741;-1.0521;
1118.4000;0.0838;-1.0249;
1118.7000;0.0757;-1.0430;
1119.0000;0.0765;-1.0498;
1119.3000;0.0773;-1.0453;
1119.6000;0.0773;-1.0408;
1119.9000;0.0806;-1.0272;
1120.2000;0.0773;-1.0362;
1120.5000;0.0871;-1.0113;
1120.8000;0.0781;-1.0317;
1121.1000;0.0773;-1.0385;
1121.4000;0.0814;-1.0249;
1121.7000;0.0749;-1.0362;
1122.0000;0.0773;-1.0362;
1122.3000;0.0708;-1.0611;
1122.6000;0.0765;-1.0453;
1122.9000;0.0635;-1.0792;
1123.2000;0.0749;-1.0543;
1123.5000;0.0741;-1.0589;
1123.8000;0.0765;-1.0430;
1124.1000;0.0757;-1.0453;
1124.4000;0.0806;-1.0272;
1124.7000;0.0765;-1.0475;
1125.0000;0.0749;-1.0475;
1125.3000;0.0749;-1.0453;
1125.6000;0.0773;-1.0453;
1125.9000;0.0757;-1.0566;
1126.2000;0.0724;-1.0589;
1126.5000;0.0790;-1.0408;
1126.8000;0.0757;-1.0521;
1127.1000;0.0733;-1.0679;
1127.4000;0.0822;-1.0521;
1127.7000;0.0781;-1.0543;
1128.0000;0.0765;-1.0543;
1128.3000;0.0847;-1.0249;
1128.6000;0.0773;-1.0408;
1128.9000;0.0765;-1.0498;
1129.2000;0.0667;-1.0747;
1129.5000;0.0798;-1.0294;
1129.8000;0.0749;-1.0408;
1130.1000;0.0757;-1.0408;
1130.4000;0.0765;-1.0430;
1130.7000;0.0773;-1.0408;
1131.0000;0.0749;-1.0430;
1131.3000;0.0773;-1.0430;
1131.6000;0.0773;-1.0430;
1131.9000;0.0757;-1.0498;
1132.2000;0.0651;-1.0860;
1132.5000;0.0757;-1.0475;
1132.8000;0.0765;-1.0475;
1133.1000;0.0790;-1.0430;
1133.4000;0.0773;-1.0543;
1133.7000;0.0790;-1.0566;
1134.0000;0.0773;-1.0589;
1134.3000;0.0765;-1.0543;
1134.6000;0.0757;-1.0611;
1134.9000;0.0781;-1.0543;
1135.2000;0.0773;-1.0543;
1135.5000;0.0781;-1.0566;
1135.8000;0.0757;-1.0611;
1136.1000;0.0733;-1.0656;
1136.4000;0.0765;-1.0589;
1136.7000;0.0773;-1.0543;
1137.0000;0.0619;-1.0928;
1137.3000;0.0765;-1.0543;
1137.6000;0.0773;-1.0453;
1137.9000;0.0749;-1.0543;
1138.2000;0.0781;-1.0408;
1138.5000;0.0765;-1.0453;
1138.8000;0.0733;-1.0589;
1139.1000;0.0773;-1.0475;
1139.4000;0.0765;-1.0589;
1139.7000;0.0790;-1.0543;
1140.0000;0.0773;-1.0611;
1140.3000;0.0749;-1.0656;
1140.6000;0.0757;-1.0543;
1140.9000;0.0765;-1.0498;
1141.2000;0.0741;-1.0453;
1141.5000;0.0757;-1.0521;
1141.8000;0.0627;-1.0837;
1142.1000;0.0773;-1.0498;
1142.4000;0.0830;-1.0475;
1142.7000;0.0838;-1.0408;
1143.0000;0.0798;-1.0521;
1143.3000;0.0773;-1.0679;
1143.6000;0.0757;-1.0702;
1143.9000;0.0798;-1.0611;
1144.2000;0.0773;-1.0747;
1144.5000;0.0741;-1.0724;
1144.8000;0.0741;-1.0702;
1145.1000;0.0757;-1.0611;
1145.4000;0.0724;-1.0679;
1145.7000;0.0781;-1.0589;
1146.0000;0.0749;-1.0611;
1146.3000;0.0757;-1.0611;
1146.6000;0.0741;-1.0747;
1146.9000;0.0773;-1.0656;
1147.2000;0.0773;-1.0770;
1147.5000;0.0798;-1.0589;
1147.8000;0.0781;-1.0589;
1148.1000;0.0733;-1.0724;
1148.4000;0.0781;-1.0702;
1148.7000;0.0757;-1.0724;
1149.0000;0.0757;-1.0702;
1149.3000;0.0757;-1.0634;
1149.6000;0.0790;-1.0543;
1149.9000;0.0773;-1.0611;
1150.2000;0.0773;-1.0679;
1150.5000;0.0781;-1.0724;
1150.8000;0.0757;-1.0815;
1151.1000;0.0765;-1.0747;
1151.4000;0.0790;-1.0702;
1151.7000;0.0773;-1.0883;
1152.0000;0.0757;-1.0883;
1152.3000;0.0741;-1.0860;
1152.6000;0.0790;-1.0679;
1152.9000;0.0749;-1.0860;
1153.2000;0.0749;-1.0770;
1153.5000;0.0765;-1.0724;
1153.8000;0.0765;-1.0724;
1154.1000;0.0806;-1.0543;
1154.4000;0.0741;-1.0566;
1154.7000;0.0627;-1.0792;
1155.0000;0.0781;-1.0408;
1155.3000;0.0733;-1.0521;
1155.6000;0.0790;-1.0362;
1155.9000;0.0765;-1.0340;
1156.2000;0.0798;-1.0362;
1156.5000;0.0716;-1.0521;
1156.8000;0.0757;-1.0362;
1157.1000;0.0708;-1.0475;
1157.4000;0.0765;-1.0294;
1157.7000;0.0765;-1.0340;
1158.0000;0.0619;-1.0702;
1158.3000;0.0806;-1.0204;
1158.6000;0.0757;-1.0408;
1158.9000;0.0773;-1.0408;
1159.2000;0.0765;-1.0453;
1159.5000;0.0773;-1.0453;
1159.8000;0.0838;-1.0317;
1160.1000;0.0790;-1.0453;
1160.4000;0.0773;-1.0430;
1160.7000;0.0773;-1.0453;
1161.0000;0.0757;-1.0521;
1161.3000;0.0716;-1.0566;
1161.6000;0.0781;-1.0430;
1161.9000;0.0790;-1.0362;
1162.2000;0.0757;-1.0408;
1162.5000;0.0708;-1.0430;
1162.8000;0.0684;-1.0430;
1163.1000;0.0765;-1.0227;
1163.4000;0.0790;-1.0204;
1163.7000;0.0773;-1.0249;
1164.0000;0.0822;-1.0159;
1164.3000;0.0781;-1.0294;
1164.6000;0.0741;-1.0475;
1164.9000;0.0692;-1.0679;
1165.2000;0.0765;-1.0453;
1165.5000;0.0733;-1.0566;
1165.8000;0.0765;-1.0589;
1166.1000;0.0773;-1.0543;
1166.4000;0.0741;-1.0589;
1166.7000;0.0749;-1.0543;
1167.0000;0.0773;-1.0453;
1167.3000;0.0798;-1.0475;
1167.6000;0.0781;-1.0566;
1167.9000;0.0765;-1.0679;
1168.2000;0.0773;-1.0679;
1168.5000;0.0773;-1.0634;
1168.8000;0.0757;-1.0589;
1169.1000;0.0700;-1.0770;
1169.4000;0.0773;-1.0611;
1169.7000;0.0757;-1.0543;
1170.0000;0.0773;-1.0498;
1170.3000;0.0716;-1.0589;
1170.6000;0.0757;-1.0543;
1170.9000;0.0822;-1.0385;
1171.2000;0.0781;-1.0498;
1171.5000;0.0741;-1.0634;
1171.8000;0.0765;-1.0566;
1172.1000;0.0700;-1.0724;
1172.4000;0.0765;-1.0543;
1172.7000;0.0781;-1.0521;
1173.0000;0.0749;-1.0543;
1173.3000;0.0765;-1.0453;
1173.6000;0.0773;-1.0408;
1173.9000;0.0855;-1.0272;
1174.2000;0.0749;-1.0589;
1174.5000;0.0814;-1.0385;
1174.8000;0.0830;-1.0498;
1175.1000;0.0733;-1.0747;
1175.4000;0.0757;-1.0656;
1175.7000;0.0733;-1.0679;
1176.0000;0.0904;-1.0159;
1176.3000;0.0757;-1.0543;
1176.6000;0.0749;-1.0543;
1176.9000;0.0635;-1.0928;
1177.2000;0.0757;-1.0611;
1177.5000;0.0741;-1.0679;
1177.8000;0.0790;-1.0543;
1178.1000;0.0716;-1.0702;
1178.4000;0.0757;-1.0543;
1178.7000;0.0952;-1.0068;
1179.0000;0.0781;-1.0498;
1179.3000;0.0651;-1.0905;
1179.6000;0.0724;-1.0770;
1179.9000;0.0773;-1.0747;
1180.2000;0.0814;-1.0566;
1180.5000;0.0749;-1.0724;
1180.8000;0.0765;-1.0679;
1181.1000;0.0765;-1.0679;
1181.4000;0.0749;-1.0792;
1181.7000;0.0790;-1.0770;
1182.0000;0.0773;-1.0815;
1182.3000;0.0757;-1.0747;
1182.6000;0.0757;-1.0724;
1182.9000;0.0757;-1.0724;
1183.2000;0.0773;-1.0702;
1183.5000;0.0765;-1.0656;
1183.8000;0.0781;-1.0611;
1184.1000;0.0765;-1.0611;
1184.4000;0.0765;-1.0656;
1184.7000;0.0798;-1.0566;
1185.0000;0.0773;-1.0543;
1185.3000;0.0765;-1.0543;
1185.6000;0.0733;-1.0521;
1185.9000;0.0765;-1.0475;
1186.2000;0.0741;-1.0521;
1186.5000;0.0830;-1.0294;
1186.8000;0.0757;-1.0453;
1187.1000;0.0798;-1.0430;
1187.4000;0.0790;-1.0498;
1187.7000;0.0871;-1.0294;
1188.0000;0.0814;-1.0385;
1188.3000;0.0798;-1.0385;
1188.6000;0.0863;-1.0204;
1188.9000;0.0749;-1.0385;
1189.2000;0.0790;-1.0272;
1189.5000;0.0773;-1.0408;
1189.8000;0.0765;-1.0430;
1190.1000;0.0790;-1.0453;
1190.4000;0.0651;-1.0860;
1190.7000;0.0716;-1.0656;
1191.0000;0.0781;-1.0521;
1191.3000;0.0781;-1.0430;
1191.6000;0.0781;-1.0340;
1191.9000;0.0781;-1.0408;
1192.2000;0.0757;-1.0430;
1192.5000;0.0773;-1.0453;
1192.8000;0.0773;-1.0453;
1193.1000;0.0749;-1.0408;
1193.4000;0.0781;-1.0385;
1193.7000;0.0773;-1.0385;
1194.0000;0.0765;-1.0430;
1194.3000;0.0798;-1.0227;
1194.6000;0.0757;-1.0385;
1194.9000;0.0781;-1.0340;
1195.2000;0.0773;-1.0317;
1195.5000;0.0749;-1.0385;
1195.8000;0.0757;-1.0362;
1196.1000;0.0757;-1.0430;
1196.4000;0.0757;-1.0475;
1196.7000;0.0757;-1.0430;
1197.0000;0.0619;-1.0724;
1197.3000;0.0684;-1.0589;
1197.6000;0.0757;-1.0340;
1197.9000;0.0781;-1.0294;
1198.2000;0.0781;-1.0430;
1198.5000;0.0822;-1.0272;
1198.8000;0.0708;-1.0634;
1199.1000;0.0798;-1.0430;
1199.4000;0.0765;-1.0430;
1199.7000;0.0773;-1.0430;
1200.0000;0.0781;-1.0521;
1200.3000;0.0838;-1.0317;
1200.6000;0.0781;-1.0340;
1200.9000;0.0733;-1.0453;
1201.2000;0.0749;-1.0498;
1201.5000;0.0757;-1.0475;
1201.8000;0.0733;-1.0498;
1202.1000;0.0749;-1.0543;
1202.4000;0.0749;-1.0453;
1202.7000;0.0781;-1.0408;
1203.0000;0.0790;-1.0430;
1203.3000;0.0773;-1.0408;
1203.6000;0.0741;-1.0475;
1203.9000;0.0790;-1.0430;
1204.2000;0.0781;-1.0498;
1204.5000;0.0765;-1.0498;
1204.8000;0.0749;-1.0543;
1205.1000;0.0798;-1.0453;
1205.4000;0.0773;-1.0498;
1205.7000;0.0757;-1.0498;
1206.0000;0.0765;-1.0453;
1206.3000;0.0773;-1.0430;
1206.6000;0.0790;-1.0385;
1206.9000;0.0773;-1.0453;
1207.2000;0.0757;-1.0543;
1207.5000;0.0757;-1.0589;
1207.8000;0.0790;-1.0589;
1208.1000;0.0798;-1.0589;
1208.4000;0.0781;-1.0702;
1208.7000;0.0757;-1.0792;
1209.0000;0.0741;-1.0724;
1209.3000;0.0765;-1.0656;
1209.6000;0.0814;-1.0543;
1209.9000;0.0781;-1.0566;
1210.2000;0.0765;-1.0656;
1210.5000;0.0749;-1.0702;
1210.8000;0.0765;-1.0589;
1211.1000;0.0757;-1.0589;
1211.4000;0.0781;-1.0430;
1211.7000;0.0757;-1.0453;
1212.0000;0.0749;-1.0498;
1212.3000;0.0749;-1.0385;
1212.6000;0.0749;-1.0362;
1212.9000;0.0765;-1.0408;
1213.2000;0.0765;-1.0362;
1213.5000;0.0765;-1.0340;
1213.8000;0.0733;-1.0453;
1214.1000;0.0724;-1.0430;
1214.4000;0.0798;-1.0294;
1214.7000;0.0741;-1.0385;
1215.0000;0.0757;-1.0475;
1215.3000;0.0765;-1.0453;
1215.6000;0.0733;-1.0498;
1215.9000;0.0741;-1.0475;
1216.2000;0.0619;-1.0770;
1216.5000;0.0749;-1.0430;
1216.8000;0.0773;-1.0408;
1217.1000;0.0749;-1.0475;
1217.4000;0.0741;-1.0498;
1217.7000;0.0765;-1.0475;
1218.0000;0.0790;-1.0475;
1218.3000;0.0790;-1.0566;
1218.6000;0.0757;-1.0724;
1218.9000;0.0773;-1.0589;
1219.2000;0.0757;-1.0611;
1219.5000;0.0773;-1.0589;
1219.8000;0.0773;-1.0634;
1220.1000;0.0765;-1.0634;
1220.4000;0.0855;-1.0385;
1220.7000;0.0692;-1.0815;
1221.0000;0.0765;-1.0656;
1221.3000;0.0684;-1.0973;
1221.6000;0.0749;-1.0837;
1221.9000;0.0773;-1.0905;
1222.2000;0.0847;-1.0770;
1222.5000;0.0757;-1.0973;
1222.8000;0.0773;-1.0837;
1223.1000;0.0773;-1.0792;
1223.4000;0.0830;-1.0611;
1223.7000;0.0765;-1.0724;
1224.0000;0.0757;-1.0792;
1224.3000;0.0855;-1.0453;
1224.6000;0.0749;-1.0611;
1224.9000;0.0765;-1.0543;
1225.2000;0.0749;-1.0611;
1225.5000;0.0855;-1.0385;
1225.8000;0.0757;-1.0702;
1226.1000;0.0749;-1.0702;
1226.4000;0.0749;-1.0656;
1226.7000;0.0724;-1.0679;
1227.0000;0.0741;-1.0611;
1227.3000;0.0781;-1.0521;
1227.6000;0.0765;-1.0589;
1227.9000;0.0757;-1.0611;
1228.2000;0.0773;-1.0521;
1228.5000;0.0765;-1.0498;
1228.8000;0.0757;-1.0543;
1229.1000;0.0765;-1.0634;
1229.4000;0.0790;-1.0521;
1229.7000;0.0790;-1.0498;
1230.0000;0.0798;-1.0453;
1230.3000;0.0790;-1.0521;
1230.6000;0.0781;-1.0566;
1230.9000;0.0773;-1.0589;
1231.2000;0.0749;-1.0611;
1231.5000;0.0773;-1.0566;
1231.8000;0.0741;-1.0656;
1232.1000;0.0773;-1.0475;
1232.4000;0.0733;-1.0656;
1232.7000;0.0781;-1.0566;
1233.0000;0.0904;-1.0294;
1233.3000;0.0806;-1.0453;
1233.6000;0.0741;-1.0543;
1233.9000;0.0765;-1.0475;
1234.2000;0.0765;-1.0521;
1234.5000;0.0765;-1.0656;
1234.8000;0.0781;-1.0543;
1235.1000;0.0765;-1.0543;
1235.4000;0.0765;-1.0498;
1235.7000;0.0749;-1.0611;
1236.0000;0.0790;-1.0589;
1236.3000;0.0749;-1.0702;
1236.6000;0.0773;-1.0611;
1236.9000;0.0830;-1.0408;
1237.2000;0.0781;-1.0430;
1237.5000;0.0798;-1.0453;
1237.8000;0.0806;-1.0453;
1238.1000;0.0781;-1.0521;
1238.4000;0.0781;-1.0475;
1238.7000;0.0716;-1.0656;
1239.0000;0.0741;-1.0656;
1239.3000;0.0773;-1.0498;
1239.6000;0.0781;-1.0430;
1239.9000;0.0733;-1.0521;
1240.2000;0.0757;-1.0475;
1240.5000;0.0773;-1.0453;
1240.8000;0.0773;-1.0498;
1241.1000;0.0773;-1.0498;
1241.4000;0.0757;-1.0521;
1241.7000;0.0790;-1.0498;
1242.0000;0.0806;-1.0543;
1242.3000;0.0806;-1.0521;
1242.6000;0.0749;-1.0634;
1242.9000;0.0806;-1.0475;
1243.2000;0.0781;-1.0521;
1243.5000;0.0765;-1.0543;
1243.8000;0.0741;-1.0521;
1244.1000;0.0781;-1.0362;
1244.4000;0.0741;-1.0453;
1244.7000;0.0733;-1.0498;
1245.0000;0.0765;-1.0453;
1245.3000;0.0741;-1.0566;
1245.6000;0.0741;-1.0634;
1245.9000;0.0757;-1.0656;
1246.2000;0.0716;-1.0792;
1246.5000;0.0724;-1.0747;
1246.8000;0.0765;-1.0543;
1247.1000;0.0773;-1.0521;
1247.4000;0.0757;-1.0611;
1247.7000;0.0765;-1.0521;
1248.0000;0.0708;-1.0702;
1248.3000;0.0773;-1.0498;
1248.6000;0.0912;-1.0204;
1248.9000;0.0765;-1.0475;
1249.2000;0.0773;-1.0408;
1249.5000;0.0765;-1.0453;
1249.8000;0.0700;-1.0589;
1250.1000;0.0757;-1.0453;
1250.4000;0.0765;-1.0408;
1250.7000;0.0790;-1.0385;
1251.0000;0.0765;-1.0430;
1251.3000;0.0757;-1.0475;
1251.6000;0.0806;-1.0294;
1251.9000;0.0757;-1.0498;
1252.2000;0.0830;-1.0317;
1252.5000;0.0773;-1.0566;
1252.8000;0.0773;-1.0498;
1253.1000;0.0855;-1.0317;
1253.4000;0.0790;-1.0453;
1253.7000;0.0798;-1.0475;
1254.0000;0.0757;-1.0521;
1254.3000;0.0798;-1.0430;
1254.6000;0.0773;-1.0475;
1254.9000;0.0781;-1.0543;
1255.2000;0.0749;-1.0656;
1255.5000;0.0700;-1.0792;
1255.8000;0.0741;-1.0679;
1256.1000;0.0749;-1.0589;
1256.4000;0.0741;-1.0543;
1256.7000;0.0814;-1.0453;
1257.0000;0.0757;-1.0679;
1257.3000;0.0790;-1.0521;
1257.6000;0.0781;-1.0566;
1257.9000;0.0806;-1.0475;
1258.2000;0.0863;-1.0294;
1258.5000;0.0871;-1.0408;
1258.8000;0.0790;-1.0702;
1259.1000;0.0757;-1.0792;
1259.4000;0.0814;-1.0702;
1259.7000;0.0724;-1.0973;
1260.0000;0.0790;-1.0837;
1260.3000;0.0741;-1.0996;
1260.6000;0.0757;-1.0860;
1260.9000;0.0724;-1.0951;
1261.2000;0.0757;-1.0837;
1261.5000;0.0749;-1.0792;
1261.8000;0.0749;-1.0815;
1262.1000;0.0749;-1.0815;
1262.4000;0.0765;-1.0656;
1262.7000;0.0773;-1.0656;
1263.0000;0.0765;-1.0611;
1263.3000;0.0806;-1.0611;
1263.6000;0.0773;-1.0589;
1263.9000;0.0773;-1.0566;
1264.2000;0.0733;-1.0611;
1264.5000;0.0757;-1.0498;
1264.8000;0.0765;-1.0498;
1265.1000;0.0733;-1.0589;
1265.4000;0.0773;-1.0566;
1265.7000;0.0749;-1.0702;
1266.0000;0.0773;-1.0656;
1266.3000;0.0765;-1.0679;
1266.6000;0.0741;-1.0634;
1266.9000;0.0765;-1.0543;
1267.2000;0.0757;-1.0521;
1267.5000;0.0830;-1.0498;
1267.8000;0.0781;-1.0634;
1268.1000;0.0765;-1.0724;
1268.4000;0.0757;-1.0656;
1268.7000;0.0765;-1.0543;
1269.0000;0.0830;-1.0385;
1269.3000;0.0781;-1.0611;
1269.6000;0.0781;-1.0589;
1269.9000;0.0765;-1.0634;
1270.2000;0.0757;-1.0702;
1270.5000;0.0773;-1.0656;
1270.8000;0.0741;-1.0702;
1271.1000;0.0724;-1.0747;
1271.4000;0.0773;-1.0679;
1271.7000;0.0814;-1.0611;
1272.0000;0.0790;-1.0724;
1272.3000;0.0749;-1.0792;
1272.6000;0.0781;-1.0589;
1272.9000;0.0765;-1.0589;
1273.2000;0.0814;-1.0430;
1273.5000;0.0773;-1.0543;
1273.8000;0.0781;-1.0453;
1274.1000;0.0781;-1.0498;
1274.4000;0.0757;-1.0611;
1274.7000;0.0790;-1.0498;
1275.0000;0.0879;-1.0227;
1275.3000;0.0659;-1.0792;
1275.6000;0.0757;-1.0589;
1275.9000;0.0749;-1.0656;
1276.2000;0.0822;-1.0475;
1276.5000;0.0790;-1.0679;
1276.8000;0.0781;-1.0702;
1277.1000;0.0765;-1.0792;
1277.4000;0.0773;-1.0747;
1277.7000;0.0773;-1.0702;
1278.0000;0.0773;-1.0679;
1278.3000;0.0757;-1.0702;
1278.6000;0.0749;-1.0656;
1278.9000;0.0749;-1.0679;
1279.2000;0.0855;-1.0430;
1279.5000;0.0773;-1.0679;
1279.8000;0.0749;-1.0634;
1280.1000;0.0798;-1.0475;
1280.4000;0.0733;-1.0611;
1280.7000;0.0749;-1.0589;
1281.0000;0.0773;-1.0498;
1281.3000;0.0757;-1.0430;
1281.6000;0.0765;-1.0294;
1281.9000;0.0749;-1.0430;
1282.2000;0.0757;-1.0408;
1282.5000;0.0741;-1.0362;
1282.8000;0.0757;-1.0408;
1283.1000;0.0773;-1.0453;
1283.4000;0.0790;-1.0340;
1283.7000;0.0781;-1.0453;
1284.0000;0.0765;-1.0498;
1284.3000;0.0806;-1.0498;
1284.6000;0.0773;-1.0543;
1284.9000;0.0781;-1.0611;
1285.2000;0.0773;-1.0634;
1285.5000;0.0790;-1.0611;
1285.8000;0.0757;-1.0611;
1286.1000;0.0749;-1.0634;
1286.4000;0.0757;-1.0656;
1286.7000;0.0855;-1.0385;
1287.0000;0.0765;-1.0521;
1287.3000;0.0790;-1.0453;
1287.6000;0.0790;-1.0498;
1287.9000;0.0757;-1.0611;
1288.2000;0.0741;-1.0656;
1288.5000;0.0798;-1.0475;
1288.8000;0.0798;-1.0498;
1289.1000;0.0781;-1.0679;
1289.4000;0.0790;-1.0702;
1289.7000;0.0790;-1.0656;
1290.0000;0.0781;-1.0634;
1290.3000;0.0749;-1.0702;
1290.6000;0.0790;-1.0566;
1290.9000;0.0757;-1.0679;
1291.2000;0.0773;-1.0656;
1291.5000;0.0765;-1.0566;
1291.8000;0.0765;-1.0475;
1292.1000;0.0757;-1.0453;
1292.4000;0.0765;-1.0453;
1292.7000;0.0765;-1.0521;
1293.0000;0.0773;-1.0634;
1293.3000;0.0765;-1.0634;
1293.6000;0.0790;-1.0566;
1293.9000;0.0765;-1.0566;
1294.2000;0.0757;-1.0589;
1294.5000;0.0814;-1.0430;
1294.8000;0.0830;-1.0362;
1295.1000;0.0716;-1.0566;
1295.4000;0.0765;-1.0385;
1295.7000;0.0773;-1.0475;
1296.0000;0.0757;-1.0589;
1296.3000;0.0757;-1.0543;
1296.6000;0.0863;-1.0249;
1296.9000;0.0757;-1.0453;
1297.2000;0.0765;-1.0340;
1297.5000;0.0757;-1.0430;
1297.8000;0.0643;-1.0566;
1298.1000;0.0773;-1.0317;
1298.4000;0.0757;-1.0385;
1298.7000;0.0847;-1.0181;
1299.0000;0.0757;-1.0408;
1299.3000;0.0781;-1.0475;
1299.6000;0.0847;-1.0385;
1299.9000;0.0651;-1.0815;
1300.2000;0.0733;-1.0543;
1300.5000;0.0757;-1.0453;
1300.8000;0.0749;-1.0475;
1301.1000;0.0830;-1.0227;
1301.4000;0.0757;-1.0385;
1301.7000;0.0806;-1.0204;
1302.0000;0.0773;-1.0294;
1302.3000;0.0765;-1.0317;
1302.6000;0.0773;-1.0249;
1302.9000;0.0765;-1.0340;
1303.2000;0.0781;-1.0408;
1303.5000;0.0757;-1.0498;
1303.8000;0.0781;-1.0408;
1304.1000;0.0781;-1.0543;
1304.4000;0.0749;-1.0589;
1304.7000;0.0781;-1.0611;
1305.0000;0.0757;-1.0679;
1305.3000;0.0765;-1.0589;
1305.6000;0.0781;-1.0589;
1305.9000;0.0765;-1.0611;
1306.2000;0.0757;-1.0521;
1306.5000;0.0749;-1.0566;
1306.8000;0.0749;-1.0543;
1307.1000;0.0790;-1.0385;
1307.4000;0.0798;-1.0272;
1307.7000;0.0790;-1.0294;
1308.0000;0.0773;-1.0362;
1308.3000;0.0781;-1.0430;
1308.6000;0.0765;-1.0453;
1308.9000;0.0855;-1.0204;
1309.2000;0.0790;-1.0362;
1309.5000;0.0781;-1.0408;
1309.8000;0.0790;-1.0430;
1310.1000;0.0798;-1.0408;
1310.4000;0.0749;-1.0611;
1310.7000;0.0733;-1.0656;
1311.0000;0.0749;-1.0679;
1311.3000;0.0733;-1.0634;
1311.6000;0.0749;-1.0656;
1311.9000;0.0781;-1.0543;
1312.2000;0.0741;-1.0724;
1312.5000;0.0781;-1.0724;
1312.8000;0.0741;-1.0815;
1313.1000;0.0716;-1.0928;
1313.4000;0.0781;-1.0679;
1313.7000;0.0773;-1.0679;
1314.0000;0.0773;-1.0566;
1314.3000;0.0773;-1.0543;
1314.6000;0.0773;-1.0543;
1314.9000;0.0765;-1.0634;
1315.2000;0.0773;-1.0611;
1315.5000;0.0814;-1.0430;
1315.8000;0.0781;-1.0543;
1316.1000;0.0765;-1.0566;
1316.4000;0.0635;-1.0860;
1316.7000;0.0716;-1.0634;
1317.0000;0.0790;-1.0475;
1317.3000;0.0749;-1.0589;
1317.6000;0.0790;-1.0430;
1317.9000;0.0757;-1.0475;
1318.2000;0.0765;-1.0521;
1318.5000;0.0781;-1.0566;
1318.8000;0.0741;-1.0611;
1319.1000;0.0757;-1.0543;
1319.4000;0.0765;-1.0566;
1319.7000;0.0643;-1.0905;
1320.0000;0.0781;-1.0566;
1320.3000;0.0749;-1.0634;
1320.6000;0.0765;-1.0611;
1320.9000;0.0781;-1.0611;
1321.2000;0.0765;-1.0611;
1321.5000;0.0781;-1.0543;
1321.8000;0.0790;-1.0408;
1322.1000;0.0781;-1.0430;
1322.4000;0.0773;-1.0475;
1322.7000;0.0765;-1.0521;
1323.0000;0.0765;-1.0589;
1323.3000;0.0781;-1.0634;
1323.6000;0.0806;-1.0543;
1323.9000;0.0790;-1.0498;
1324.2000;0.0765;-1.0521;
1324.5000;0.0790;-1.0475;
1324.8000;0.0765;-1.0475;
1325.1000;0.0781;-1.0475;
1325.4000;0.0773;-1.0634;
1325.7000;0.0790;-1.0634;
1326.0000;0.0765;-1.0656;
1326.3000;0.0749;-1.0770;
1326.6000;0.0847;-1.0498;
1326.9000;0.0757;-1.0724;
1327.2000;0.0790;-1.0634;
1327.5000;0.0724;-1.0792;
1327.8000;0.0806;-1.0679;
1328.1000;0.0781;-1.0770;
1328.4000;0.0692;-1.0928;
1328.7000;0.0716;-1.0928;
1329.0000;0.0765;-1.0792;
1329.3000;0.0773;-1.0815;
1329.6000;0.0733;-1.0792;
1329.9000;0.0765;-1.0679;
1330.2000;0.0765;-1.0747;
1330.5000;0.0659;-1.1041;
1330.8000;0.0765;-1.0747;
1331.1000;0.0773;-1.0770;
1331.4000;0.0749;-1.0815;
1331.7000;0.0749;-1.0792;
1332.0000;0.0773;-1.0792;
1332.3000;0.0765;-1.0860;
1332.6000;0.0773;-1.0860;
1332.9000;0.0773;-1.0837;
1333.2000;0.0733;-1.0883;
1333.5000;0.0773;-1.0883;
1333.8000;0.0773;-1.0973;
1334.1000;0.0741;-1.1018;
1334.4000;0.0781;-1.0951;
1334.7000;0.0781;-1.0905;
1335.0000;0.0790;-1.0996;
1335.3000;0.0798;-1.0951;
1335.6000;0.0749;-1.1064;
1335.9000;0.0733;-1.1109;
1336.2000;0.0830;-1.0815;
1336.5000;0.0773;-1.0928;
1336.8000;0.0765;-1.0928;
1337.1000;0.0749;-1.0905;
1337.4000;0.0757;-1.0883;
1337.7000;0.0757;-1.0883;
1338.0000;0.0757;-1.0860;
1338.3000;0.0700;-1.0905;
1338.6000;0.0741;-1.0747;
1338.9000;0.0781;-1.0679;
1339.2000;0.0790;-1.0656;
1339.5000;0.0773;-1.0656;
1339.8000;0.0798;-1.0611;
1340.1000;0.0716;-1.0837;
1340.4000;0.0838;-1.0543;
1340.7000;0.0749;-1.0747;
1341.0000;0.0765;-1.0589;
1341.3000;0.0749;-1.0611;
1341.6000;0.0773;-1.0702;
1341.9000;0.0749;-1.0770;
1342.2000;0.0773;-1.0566;
1342.5000;0.0765;-1.0611;
1342.8000;0.0708;-1.0860;
1343.1000;0.0781;-1.0543;
1343.4000;0.0773;-1.0566;
1343.7000;0.0749;-1.0656;
1344.0000;0.0830;-1.0475;
1344.3000;0.0765;-1.0589;
1344.6000;0.0765;-1.0634;
1344.9000;0.0741;-1.0702;
1345.2000;0.0814;-1.0634;
1345.5000;0.0765;-1.0724;
1345.8000;0.0781;-1.0679;
1346.1000;0.0700;-1.0951;
1346.4000;0.0733;-1.0815;
1346.7000;0.0749;-1.0702;
1347.0000;0.0749;-1.0770;
1347.3000;0.0749;-1.0747;
1347.6000;0.0773;-1.0679;
1347.9000;0.0822;-1.0543;
1348.2000;0.0781;-1.0747;
1348.5000;0.0741;-1.0860;
1348.8000;0.0708;-1.0928;
1349.1000;0.0765;-1.0770;
1349.4000;0.0773;-1.0860;
1349.7000;0.0757;-1.0973;
1350.0000;0.0806;-1.0860;
1350.3000;0.0765;-1.0883;
1350.6000;0.0765;-1.0815;
1350.9000;0.0757;-1.0770;
1351.2000;0.0814;-1.0634;
1351.5000;0.0773;-1.0724;
1351.8000;0.0822;-1.0566;
1352.1000;0.0741;-1.0747;
1352.4000;0.0643;-1.0928;
1352.7000;0.0765;-1.0634;
1353.0000;0.0757;-1.0634;
1353.3000;0.0757;-1.0611;
1353.6000;0.0781;-1.0566;
1353.9000;0.0773;-1.0566;
1354.2000;0.0798;-1.0498;
1354.5000;0.0806;-1.0475;
1354.8000;0.0781;-1.0589;
1355.1000;0.0692;-1.0905;
1355.4000;0.0773;-1.0724;
1355.7000;0.0773;-1.0792;
1356.0000;0.0765;-1.0679;
1356.3000;0.0765;-1.0679;
1356.6000;0.0749;-1.0747;
1356.9000;0.0781;-1.0589;
1357.2000;0.0757;-1.0611;
1357.5000;0.0781;-1.0589;
1357.8000;0.0855;-1.0294;
1358.1000;0.0757;-1.0566;
1358.4000;0.0790;-1.0498;
1358.7000;0.0765;-1.0543;
1359.0000;0.0781;-1.0566;
1359.3000;0.0749;-1.0589;
1359.6000;0.0773;-1.0498;
1359.9000;0.0765;-1.0475;
1360.2000;0.0773;-1.0475;
1360.5000;0.0741;-1.0475;
1360.8000;0.0724;-1.0543;
1361.1000;0.0790;-1.0475;
1361.4000;0.0838;-1.0362;
1361.7000;0.0757;-1.0634;
1362.0000;0.0798;-1.0589;
1362.3000;0.0757;-1.0656;
1362.6000;0.0757;-1.0702;
1362.9000;0.0749;-1.0656;
1363.2000;0.0781;-1.0543;
1363.5000;0.0700;-1.0792;
1363.8000;0.0790;-1.0566;
1364.1000;0.0773;-1.0611;
1364.4000;0.0749;-1.0656;
1364.7000;0.0822;-1.0475;
1365.0000;0.0765;-1.0656;
1365.3000;0.0830;-1.0498;
1365.6000;0.0765;-1.0611;
1365.9000;0.0733;-1.0724;
1366.2000;0.0765;-1.0679;
1366.5000;0.0773;-1.0611;
1366.8000;0.0765;-1.0543;
1367.1000;0.0847;-1.0317;
1367.4000;0.0765;-1.0475;
1367.7000;0.0773;-1.0543;
1368.0000;0.0773;-1.0543;
1368.3000;0.0806;-1.0498;
1368.6000;0.0798;-1.0498;
1368.9000;0.0773;-1.0521;
1369.2000;0.0863;-1.0317;
1369.5000;0.0765;-1.0566;
1369.8000;0.0733;-1.0589;
1370.1000;0.0749;-1.0521;
1370.4000;0.0781;-1.0475;
1370.7000;0.0798;-1.0475;
1371.0000;0.0790;-1.0543;
1371.3000;0.0749;-1.0656;
1371.6000;0.0765;-1.0656;
1371.9000;0.0781;-1.0679;
1372.2000;0.0765;-1.0702;
1372.5000;0.0765;-1.0724;
1372.8000;0.0741;-1.0656;
1373.1000;0.0765;-1.0521;
1373.4000;0.0781;-1.0453;
1373.7000;0.0781;-1.0475;
1374.0000;0.0757;-1.0521;
1374.3000;0.0781;-1.0430;
1374.6000;0.0773;-1.0498;
1374.9000;0.0806;-1.0521;
1375.2000;0.0790;-1.0521;
1375.5000;0.0757;-1.0589;
1375.8000;0.0733;-1.0724;
1376.1000;0.0781;-1.0702;
1376.4000;0.0692;-1.0951;
1376.7000;0.0757;-1.0792;
1377.0000;0.0814;-1.0634;
1377.3000;0.0724;-1.0883;
1377.6000;0.0773;-1.0770;
1377.9000;0.0708;-1.0951;
1378.2000;0.0781;-1.0770;
1378.5000;0.0781;-1.0724;
1378.8000;0.0757;-1.0724;
1379.1000;0.0773;-1.0679;
1379.4000;0.0790;-1.0589;
1379.7000;0.0781;-1.0543;
1380.0000;0.0765;-1.0611;
1380.3000;0.0757;-1.0566;
1380.6000;0.0716;-1.0747;
1380.9000;0.0724;-1.0634;
1381.2000;0.0806;-1.0453;
1381.5000;0.0741;-1.0679;
1381.8000;0.0749;-1.0611;
1382.1000;0.0765;-1.0656;
1382.4000;0.0757;-1.0747;
1382.7000;0.0741;-1.0724;
1383.0000;0.0749;-1.0702;
1383.3000;0.0765;-1.0702;
1383.6000;0.0830;-1.0611;
1383.9000;0.0773;-1.0702;
1384.2000;0.0806;-1.0543;
1384.5000;0.0765;-1.0702;
1384.8000;0.0765;-1.0747;
1385.1000;0.0798;-1.0611;
1385.4000;0.0757;-1.0656;
1385.7000;0.0757;-1.0611;
1386.0000;0.0806;-1.0453;
1386.3000;0.0741;-1.0611;
1386.6000;0.0676;-1.0837;
1386.9000;0.0781;-1.0634;
1387.2000;0.0749;-1.0702;
1387.5000;0.0830;-1.0475;
1387.8000;0.0749;-1.0724;
1388.1000;0.0724;-1.0770;
1388.4000;0.0790;-1.0792;
1388.7000;0.0798;-1.0634;
1389.0000;0.0773;-1.0634;
1389.3000;0.0741;-1.0702;
1389.6000;0.0798;-1.0566;
1389.9000;0.0765;-1.0611;
1390.2000;0.0765;-1.0634;
1390.5000;0.0757;-1.0702;
1390.8000;0.0757;-1.0589;
1391.1000;0.0757;-1.0589;
1391.4000;0.0749;-1.0702;
1391.7000;0.0724;-1.0770;
1392.0000;0.0855;-1.0430;
1392.3000;0.0765;-1.0611;
1392.6000;0.0749;-1.0634;
1392.9000;0.0773;-1.0679;
1393.2000;0.0692;-1.0770;
1393.5000;0.0757;-1.0611;
1393.8000;0.0757;-1.0566;
1394.1000;0.0773;-1.0611;
1394.4000;0.0765;-1.0566;
1394.7000;0.0757;-1.0543;
1395.0000;0.0733;-1.0566;
1395.3000;0.0765;-1.0453;
1395.6000;0.0781;-1.0430;
1395.9000;0.0733;-1.0521;
1396.2000;0.0920;-1.0000;
1396.5000;0.0798;-1.0475;
1396.8000;0.0757;-1.0475;
1397.1000;0.0790;-1.0362;
1397.4000;0.0749;-1.0453;
1397.7000;0.0773;-1.0453;
1398.0000;0.0773;-1.0453;
1398.3000;0.0773;-1.0589;
1398.6000;0.0765;-1.0679;
1398.9000;0.0790;-1.0679;
1399.2000;0.0806;-1.0430;
1399.5000;0.0773;-1.0430;
1399.8000;0.0635;-1.0770;
