time/ms;Fluo/V;P700 deltaI/I x10³;
-199.8000;0.0757;-1.0815;
-199.5000;0.0765;-1.0837;
-199.2000;0.0773;-1.0724;
-198.9000;0.0708;-1.0951;
-198.6000;0.0790;-1.0724;
-198.3000;0.0806;-1.0679;
-198.0000;0.0765;-1.0589;
-197.7000;0.0781;-1.0521;
-197.4000;0.0790;-1.0453;
-197.1000;0.0765;-1.0498;
-196.8000;0.0781;-1.0453;
-196.5000;0.0790;-1.0453;
-196.2000;0.0781;-1.0521;
-195.9000;0.0790;-1.0543;
-195.6000;0.0781;-1.0566;
-195.3000;0.0781;-1.0611;
-195.0000;0.0757;-1.0656;
-194.7000;0.0773;-1.0498;
-194.4000;0.0757;-1.0521;
-194.1000;0.0749;-1.0498;
-193.8000;0.0765;-1.0453;
-193.5000;0.0765;-1.0634;
-193.2000;0.0790;-1.0611;
-192.9000;0.0790;-1.0634;
-192.6000;0.0749;-1.0747;
-192.3000;0.0757;-1.0792;
-192.0000;0.0781;-1.0905;
-191.7000;0.0790;-1.0951;
-191.4000;0.0765;-1.0928;
-191.1000;0.0773;-1.0883;
-190.8000;0.0757;-1.0883;
-190.5000;0.0773;-1.0837;
-190.2000;0.0773;-1.0815;
-189.9000;0.0765;-1.0792;
-189.6000;0.0879;-1.0521;
-189.3000;0.0790;-1.0747;
-189.0000;0.0790;-1.0679;
-188.7000;0.0798;-1.0702;
-188.4000;0.0708;-1.0996;
-188.1000;0.0741;-1.0996;
-187.8000;0.0806;-1.0837;
-187.5000;0.0765;-1.0973;
-187.2000;0.0822;-1.0656;
-186.9000;0.0830;-1.0611;
-186.6000;0.0863;-1.0453;
-186.3000;0.0806;-1.0543;
-186.0000;0.0773;-1.0747;
-185.7000;0.0790;-1.0724;
-185.4000;0.0773;-1.0724;
-185.1000;0.0790;-1.0770;
-184.8000;0.0781;-1.0837;
-184.5000;0.0790;-1.0747;
-184.2000;0.0814;-1.0611;
-183.9000;0.0773;-1.0679;
-183.6000;0.0814;-1.0589;
-183.3000;0.0806;-1.0566;
-183.0000;0.0806;-1.0566;
-182.7000;0.0871;-1.0408;
-182.4000;0.0773;-1.0702;
-182.1000;0.0781;-1.0679;
-181.8000;0.0773;-1.0679;
-181.5000;0.0716;-1.0770;
-181.2000;0.0790;-1.0589;
-180.9000;0.0765;-1.0634;
-180.6000;0.0790;-1.0724;
-180.3000;0.0757;-1.0770;
-180.0000;0.0814;-1.0702;
-179.7000;0.0773;-1.0724;
-179.4000;0.0822;-1.0543;
-179.1000;0.0814;-1.0611;
-178.8000;0.0773;-1.0770;
-178.5000;0.0741;-1.0951;
-178.2000;0.0798;-1.0883;
-177.9000;0.0790;-1.0905;
-177.6000;0.0814;-1.0815;
-177.3000;0.0781;-1.0837;
-177.0000;0.0749;-1.0883;
-176.7000;0.0773;-1.0837;
-176.4000;0.0773;-1.0905;
-176.1000;0.0765;-1.0905;
-175.8000;0.0806;-1.0837;
-175.5000;0.0741;-1.1064;
-175.2000;0.0773;-1.0928;
-174.9000;0.0773;-1.0928;
-174.6000;0.0676;-1.1267;
-174.3000;0.0814;-1.0951;
-174.0000;0.0830;-1.0905;
-173.7000;0.0749;-1.1064;
-173.4000;0.0790;-1.0905;
-173.1000;0.0790;-1.0928;
-172.8000;0.0773;-1.0883;
-172.5000;0.0781;-1.0747;
-172.2000;0.0790;-1.0679;
-171.9000;0.0781;-1.0656;
-171.6000;0.0765;-1.0747;
-171.3000;0.0773;-1.0724;
-171.0000;0.0773;-1.0792;
-170.7000;0.0790;-1.0860;
-170.4000;0.0814;-1.0792;
-170.1000;0.0781;-1.0837;
-169.8000;0.0781;-1.0837;
-169.5000;0.0773;-1.0770;
-169.2000;0.0773;-1.0724;
-168.9000;0.0790;-1.0679;
-168.6000;0.0773;-1.0656;
-168.3000;0.0781;-1.0656;
-168.0000;0.0830;-1.0475;
-167.7000;0.0765;-1.0634;
-167.4000;0.0790;-1.0543;
-167.1000;0.0781;-1.0566;
-166.8000;0.0757;-1.0566;
-166.5000;0.0814;-1.0453;
-166.2000;0.0773;-1.0656;
-165.9000;0.0765;-1.0656;
-165.6000;0.0773;-1.0724;
-165.3000;0.0798;-1.0747;
-165.0000;0.0773;-1.0815;
-164.7000;0.0790;-1.0747;
-164.4000;0.0773;-1.0747;
-164.1000;0.0790;-1.0770;
-163.8000;0.0765;-1.0837;
-163.5000;0.0781;-1.0860;
-163.2000;0.0765;-1.0792;
-162.9000;0.0773;-1.0770;
-162.6000;0.0765;-1.0747;
-162.3000;0.0781;-1.0702;
-162.0000;0.0733;-1.0905;
-161.7000;0.0790;-1.0770;
-161.4000;0.0814;-1.0702;
-161.1000;0.0765;-1.0702;
-160.8000;0.0765;-1.0702;
-160.5000;0.0757;-1.0770;
-160.2000;0.0814;-1.0679;
-159.9000;0.0749;-1.0792;
-159.6000;0.0830;-1.0611;
-159.3000;0.0781;-1.0815;
-159.0000;0.0773;-1.0837;
-158.7000;0.0781;-1.0883;
-158.4000;0.0716;-1.0928;
-158.1000;0.0773;-1.0815;
-157.8000;0.0765;-1.0815;
-157.5000;0.0798;-1.0679;
-157.2000;0.0773;-1.0634;
-156.9000;0.0790;-1.0566;
-156.6000;0.0765;-1.0656;
-156.3000;0.0765;-1.0634;
-156.0000;0.0765;-1.0724;
-155.7000;0.0741;-1.0770;
-155.4000;0.0790;-1.0611;
-155.1000;0.0781;-1.0611;
-154.8000;0.0765;-1.0634;
-154.5000;0.0765;-1.0611;
-154.2000;0.0733;-1.0702;
-153.9000;0.0773;-1.0498;
-153.6000;0.0765;-1.0543;
-153.3000;0.0781;-1.0634;
-153.0000;0.0814;-1.0521;
-152.7000;0.0790;-1.0656;
-152.4000;0.0822;-1.0634;
-152.1000;0.0781;-1.0747;
-151.8000;0.0790;-1.0770;
-151.5000;0.0814;-1.0656;
-151.2000;0.0798;-1.0724;
-150.9000;0.0781;-1.0724;
-150.6000;0.0765;-1.0747;
-150.3000;0.0814;-1.0656;
-150.0000;0.0790;-1.0656;
-149.7000;0.0806;-1.0634;
-149.4000;0.0798;-1.0656;
-149.1000;0.0781;-1.0792;
-148.8000;0.0806;-1.0747;
-148.5000;0.0814;-1.0724;
-148.2000;0.0781;-1.0815;
-147.9000;0.0798;-1.0724;
-147.6000;0.0904;-1.0589;
-147.3000;0.0790;-1.0792;
-147.0000;0.0765;-1.0724;
-146.7000;0.0765;-1.0702;
-146.4000;0.0757;-1.0589;
-146.1000;0.0806;-1.0521;
-145.8000;0.0781;-1.0634;
-145.5000;0.0773;-1.0634;
-145.2000;0.0790;-1.0589;
-144.9000;0.0790;-1.0543;
-144.6000;0.0781;-1.0611;
-144.3000;0.0773;-1.0498;
-144.0000;0.0814;-1.0340;
-143.7000;0.0773;-1.0408;
-143.4000;0.0749;-1.0656;
-143.1000;0.0773;-1.0611;
-142.8000;0.0781;-1.0566;
-142.5000;0.0757;-1.0611;
-142.2000;0.0806;-1.0453;
-141.9000;0.0781;-1.0566;
-141.6000;0.0765;-1.0634;
-141.3000;0.0798;-1.0656;
-141.0000;0.0708;-1.0792;
-140.7000;0.0773;-1.0702;
-140.4000;0.0790;-1.0724;
-140.1000;0.0700;-1.0996;
-139.8000;0.0781;-1.0905;
-139.5000;0.0781;-1.0928;
-139.2000;0.0781;-1.0951;
-138.9000;0.0781;-1.0928;
-138.6000;0.0847;-1.0679;
-138.3000;0.0749;-1.0951;
-138.0000;0.0765;-1.0837;
-137.7000;0.0887;-1.0521;
-137.4000;0.0790;-1.0747;
-137.1000;0.0773;-1.0837;
-136.8000;0.0757;-1.0860;
-136.5000;0.0773;-1.0770;
-136.2000;0.0741;-1.0883;
-135.9000;0.0765;-1.0860;
-135.6000;0.0806;-1.0837;
-135.3000;0.0781;-1.0905;
-135.0000;0.0765;-1.0860;
-134.7000;0.0749;-1.0860;
-134.4000;0.0741;-1.0883;
-134.1000;0.0757;-1.0770;
-133.8000;0.0781;-1.0724;
-133.5000;0.0781;-1.0611;
-133.2000;0.0798;-1.0543;
-132.9000;0.0733;-1.0679;
-132.6000;0.0773;-1.0498;
-132.3000;0.0749;-1.0498;
-132.0000;0.0773;-1.0566;
-131.7000;0.0781;-1.0475;
-131.4000;0.0757;-1.0634;
-131.1000;0.0790;-1.0611;
-130.8000;0.0798;-1.0656;
-130.5000;0.0716;-1.0860;
-130.2000;0.0716;-1.0724;
-129.9000;0.0749;-1.0656;
-129.6000;0.0790;-1.0634;
-129.3000;0.0741;-1.0815;
-129.0000;0.0781;-1.0702;
-128.7000;0.0716;-1.0860;
-128.4000;0.0781;-1.0656;
-128.1000;0.0790;-1.0589;
-127.8000;0.0822;-1.0589;
-127.5000;0.0773;-1.0724;
-127.2000;0.0781;-1.0747;
-126.9000;0.0765;-1.0747;
-126.6000;0.0700;-1.0996;
-126.3000;0.0708;-1.0928;
-126.0000;0.0781;-1.0724;
-125.7000;0.0773;-1.0702;
-125.4000;0.0765;-1.0724;
-125.1000;0.0765;-1.0792;
-124.8000;0.0790;-1.0702;
-124.5000;0.0749;-1.0679;
-124.2000;0.0847;-1.0408;
-123.9000;0.0749;-1.0656;
-123.6000;0.0781;-1.0589;
-123.3000;0.0814;-1.0521;
-123.0000;0.0798;-1.0498;
-122.7000;0.0773;-1.0543;
-122.4000;0.0773;-1.0566;
-122.1000;0.0798;-1.0543;
-121.8000;0.0765;-1.0521;
-121.5000;0.0749;-1.0634;
-121.2000;0.0773;-1.0634;
-120.9000;0.0830;-1.0566;
-120.6000;0.0806;-1.0611;
-120.3000;0.0790;-1.0702;
-120.0000;0.0781;-1.0792;
-119.7000;0.0773;-1.0837;
-119.4000;0.0765;-1.0883;
-119.1000;0.0765;-1.0996;
-118.8000;0.0790;-1.0883;
-118.5000;0.0790;-1.0860;
-118.2000;0.0781;-1.0815;
-117.9000;0.0790;-1.0815;
-117.6000;0.0773;-1.0792;
-117.3000;0.0773;-1.0770;
-117.0000;0.0757;-1.0860;
-116.7000;0.0773;-1.0792;
-116.4000;0.0790;-1.0792;
-116.1000;0.0741;-1.0905;
-115.8000;0.0798;-1.0747;
-115.5000;0.0790;-1.0679;
-115.2000;0.0773;-1.0589;
-114.9000;0.0773;-1.0634;
-114.6000;0.0676;-1.0951;
-114.3000;0.0773;-1.0679;
-114.0000;0.0749;-1.0702;
-113.7000;0.0790;-1.0589;
-113.4000;0.0781;-1.0634;
-113.1000;0.0741;-1.0770;
-112.8000;0.0781;-1.0656;
-112.5000;0.0847;-1.0475;
-112.2000;0.0781;-1.0566;
-111.9000;0.0716;-1.0815;
-111.6000;0.0822;-1.0521;
-111.3000;0.0773;-1.0679;
-111.0000;0.0863;-1.0453;
-110.7000;0.0790;-1.0589;
-110.4000;0.0781;-1.0611;
-110.1000;0.0667;-1.0837;
-109.8000;0.0790;-1.0634;
-109.5000;0.0757;-1.0656;
-109.2000;0.0765;-1.0656;
-108.9000;0.0855;-1.0566;
-108.6000;0.0781;-1.0634;
-108.3000;0.0814;-1.0498;
-108.0000;0.0790;-1.0521;
-107.7000;0.0798;-1.0385;
-107.4000;0.0781;-1.0340;
-107.1000;0.0733;-1.0543;
-106.8000;0.0798;-1.0385;
-106.5000;0.0798;-1.0385;
-106.2000;0.0765;-1.0385;
-105.9000;0.0790;-1.0385;
-105.6000;0.0822;-1.0294;
-105.3000;0.0790;-1.0362;
-105.0000;0.0822;-1.0317;
-104.7000;0.0806;-1.0362;
-104.4000;0.0806;-1.0294;
-104.1000;0.0790;-1.0317;
-103.8000;0.0773;-1.0408;
-103.5000;0.0790;-1.0340;
-103.2000;0.0773;-1.0430;
-102.9000;0.0806;-1.0385;
-102.6000;0.0806;-1.0317;
-102.3000;0.0781;-1.0453;
-102.0000;0.0773;-1.0543;
-101.7000;0.0700;-1.0702;
-101.4000;0.0798;-1.0453;
-101.1000;0.0798;-1.0475;
-100.8000;0.0773;-1.0543;
-100.5000;0.0781;-1.0589;
-100.2000;0.0838;-1.0430;
-99.9000;0.0781;-1.0498;
-99.6000;0.0765;-1.0498;
-99.3000;0.0749;-1.0543;
-99.0000;0.0790;-1.0521;
-98.7000;0.0765;-1.0611;
-98.4000;0.0667;-1.0815;
-98.1000;0.0798;-1.0317;
-97.8000;0.0863;-1.0091;
-97.5000;0.0822;-1.0227;
-97.2000;0.0781;-1.0317;
-96.9000;0.0879;-1.0023;
-96.6000;0.0790;-1.0317;
-96.3000;0.0757;-1.0475;
-96.0000;0.0708;-1.0634;
-95.7000;0.0790;-1.0453;
-95.4000;0.0781;-1.0453;
-95.1000;0.0781;-1.0430;
-94.8000;0.0781;-1.0453;
-94.5000;0.0790;-1.0430;
-94.2000;0.0798;-1.0317;
-93.9000;0.0781;-1.0362;
-93.6000;0.0741;-1.0362;
-93.3000;0.0806;-1.0181;
-93.0000;0.0781;-1.0294;
-92.7000;0.0773;-1.0294;
-92.4000;0.0790;-1.0272;
-92.1000;0.0773;-1.0317;
-91.8000;0.0781;-1.0294;
-91.5000;0.0765;-1.0430;
-91.2000;0.0765;-1.0408;
-90.9000;0.0781;-1.0408;
-90.6000;0.0798;-1.0408;
-90.3000;0.0765;-1.0453;
-90.0000;0.0741;-1.0430;
-89.7000;0.0781;-1.0294;
-89.4000;0.0773;-1.0362;
-89.1000;0.0790;-1.0408;
-88.8000;0.0781;-1.0453;
-88.5000;0.0920;-1.0181;
-88.2000;0.0757;-1.0611;
-87.9000;0.0822;-1.0453;
-87.6000;0.0798;-1.0475;
-87.3000;0.0814;-1.0453;
-87.0000;0.0790;-1.0453;
-86.7000;0.0798;-1.0430;
-86.4000;0.0879;-1.0317;
-86.1000;0.0676;-1.0815;
-85.8000;0.0773;-1.0521;
-85.5000;0.0757;-1.0589;
-85.2000;0.0798;-1.0430;
-84.9000;0.0790;-1.0362;
-84.6000;0.0798;-1.0408;
-84.3000;0.0781;-1.0385;
-84.0000;0.0806;-1.0340;
-83.7000;0.0781;-1.0385;
-83.4000;0.0765;-1.0475;
-83.1000;0.0773;-1.0385;
-82.8000;0.0781;-1.0340;
-82.5000;0.0790;-1.0294;
-82.2000;0.0765;-1.0453;
-81.9000;0.0773;-1.0340;
-81.6000;0.0765;-1.0430;
-81.3000;0.0798;-1.0385;
-81.0000;0.0781;-1.0408;
-80.7000;0.0790;-1.0362;
-80.4000;0.0781;-1.0385;
-80.1000;0.0781;-1.0408;
-79.8000;0.0773;-1.0475;
-79.5000;0.0765;-1.0453;
-79.2000;0.0765;-1.0453;
-78.9000;0.0798;-1.0317;
-78.6000;0.0790;-1.0317;
-78.3000;0.0781;-1.0317;
-78.0000;0.0765;-1.0430;
-77.7000;0.0790;-1.0475;
-77.4000;0.0806;-1.0430;
-77.1000;0.0798;-1.0475;
-76.8000;0.0757;-1.0566;
-76.5000;0.0822;-1.0475;
-76.2000;0.0798;-1.0521;
-75.9000;0.0790;-1.0589;
-75.6000;0.0765;-1.0679;
-75.3000;0.0773;-1.0589;
-75.0000;0.0814;-1.0475;
-74.7000;0.0790;-1.0521;
-74.4000;0.0684;-1.0815;
-74.1000;0.0798;-1.0566;
-73.8000;0.0798;-1.0566;
-73.5000;0.0716;-1.0634;
-73.2000;0.0790;-1.0453;
-72.9000;0.0790;-1.0475;
-72.6000;0.0757;-1.0475;
-72.3000;0.0798;-1.0430;
-72.0000;0.0773;-1.0362;
-71.7000;0.0790;-1.0317;
-71.4000;0.0814;-1.0249;
-71.1000;0.0781;-1.0408;
-70.8000;0.0781;-1.0408;
-70.5000;0.0773;-1.0498;
-70.2000;0.0741;-1.0679;
-69.9000;0.0773;-1.0498;
-69.6000;0.0790;-1.0498;
-69.3000;0.0806;-1.0408;
-69.0000;0.0781;-1.0408;
-68.7000;0.0814;-1.0340;
-68.4000;0.0790;-1.0362;
-68.1000;0.0814;-1.0340;
-67.8000;0.0781;-1.0385;
-67.5000;0.0773;-1.0453;
-67.2000;0.0822;-1.0272;
-66.9000;0.0773;-1.0453;
-66.6000;0.0855;-1.0091;
-66.3000;0.0790;-1.0249;
-66.0000;0.0773;-1.0385;
-65.7000;0.0790;-1.0408;
-65.4000;0.0773;-1.0340;
-65.1000;0.0781;-1.0317;
-64.8000;0.0806;-1.0249;
-64.5000;0.0692;-1.0543;
-64.2000;0.0790;-1.0294;
-63.9000;0.0798;-1.0249;
-63.6000;0.0790;-1.0272;
-63.3000;0.0798;-1.0227;
-63.0000;0.0781;-1.0362;
-62.7000;0.0781;-1.0475;
-62.4000;0.0765;-1.0408;
-62.1000;0.0781;-1.0385;
-61.8000;0.0765;-1.0498;
-61.5000;0.0741;-1.0543;
-61.2000;0.0790;-1.0385;
-60.9000;0.0757;-1.0498;
-60.6000;0.0781;-1.0408;
-60.3000;0.0773;-1.0385;
-60.0000;0.0798;-1.0340;
-59.7000;0.0790;-1.0294;
-59.4000;0.0790;-1.0249;
-59.1000;0.0773;-1.0294;
-58.8000;0.0830;-1.0113;
-58.5000;0.0773;-1.0272;
-58.2000;0.0757;-1.0317;
-57.9000;0.0773;-1.0294;
-57.6000;0.0773;-1.0294;
-57.3000;0.0798;-1.0272;
-57.0000;0.0814;-1.0249;
-56.7000;0.0798;-1.0362;
-56.4000;0.0798;-1.0453;
-56.1000;0.0773;-1.0498;
-55.8000;0.0773;-1.0498;
-55.5000;0.0773;-1.0453;
-55.2000;0.0790;-1.0430;
-54.9000;0.0781;-1.0498;
-54.6000;0.0749;-1.0475;
-54.3000;0.0757;-1.0475;
-54.0000;0.0773;-1.0430;
-53.7000;0.0781;-1.0430;
-53.4000;0.0790;-1.0430;
-53.1000;0.0781;-1.0475;
-52.8000;0.0798;-1.0453;
-52.5000;0.0806;-1.0498;
-52.2000;0.0781;-1.0498;
-51.9000;0.0790;-1.0498;
-51.6000;0.0790;-1.0498;
-51.3000;0.0749;-1.0589;
-51.0000;0.0773;-1.0543;
-50.7000;0.0781;-1.0543;
-50.4000;0.0952;-1.0068;
-50.1000;0.0806;-1.0430;
-49.8000;0.0773;-1.0543;
-49.5000;0.0781;-1.0521;
-49.2000;0.0798;-1.0453;
-48.9000;0.0781;-1.0408;
-48.6000;0.0765;-1.0340;
-48.3000;0.0790;-1.0340;
-48.0000;0.0863;-1.0204;
-47.7000;0.0781;-1.0408;
-47.4000;0.0773;-1.0385;
-47.1000;0.0806;-1.0340;
-46.8000;0.0781;-1.0385;
-46.5000;0.0806;-1.0272;
-46.2000;0.0781;-1.0340;
-45.9000;0.0781;-1.0340;
-45.6000;0.0830;-1.0249;
-45.3000;0.0790;-1.0362;
-45.0000;0.0765;-1.0317;
-44.7000;0.0781;-1.0362;
-44.4000;0.0765;-1.0408;
-44.1000;0.0781;-1.0340;
-43.8000;0.0790;-1.0430;
-43.5000;0.0773;-1.0566;
-43.2000;0.0643;-1.0815;
-42.9000;0.0781;-1.0475;
-42.6000;0.0798;-1.0498;
-42.3000;0.0863;-1.0408;
-42.0000;0.0781;-1.0498;
-41.7000;0.0806;-1.0408;
-41.4000;0.0773;-1.0543;
-41.1000;0.0781;-1.0521;
-40.8000;0.0781;-1.0453;
-40.5000;0.0773;-1.0453;
-40.2000;0.0692;-1.0656;
-39.9000;0.0765;-1.0498;
-39.6000;0.0790;-1.0408;
-39.3000;0.0765;-1.0475;
-39.0000;0.0757;-1.0340;
-38.7000;0.0773;-1.0340;
-38.4000;0.0790;-1.0340;
-38.1000;0.0781;-1.0272;
-37.8000;0.0781;-1.0204;
-37.5000;0.0781;-1.0227;
-37.2000;0.0798;-1.0136;
-36.9000;0.0781;-1.0181;
-36.6000;0.0749;-1.0204;
-36.3000;0.0781;-1.0091;
-36.0000;0.0781;-1.0159;
-35.7000;0.0765;-1.0204;
-35.4000;0.0781;-1.0159;
-35.1000;0.0773;-1.0272;
-34.8000;0.0806;-1.0227;
-34.5000;0.0765;-1.0385;
-34.2000;0.0912;-1.0159;
-33.9000;0.0773;-1.0453;
-33.6000;0.0741;-1.0453;
-33.3000;0.0806;-1.0294;
-33.0000;0.0790;-1.0362;
-32.7000;0.0790;-1.0317;
-32.4000;0.0790;-1.0272;
-32.1000;0.0790;-1.0227;
-31.8000;0.0814;-1.0181;
-31.5000;0.0773;-1.0272;
-31.2000;0.0879;-0.9932;
-30.9000;0.0798;-1.0159;
-30.6000;0.0790;-1.0136;
-30.3000;0.0635;-1.0498;
-30.0000;0.0781;-1.0159;
-29.7000;0.0781;-1.0181;
-29.4000;0.0798;-1.0136;
-29.1000;0.0798;-1.0159;
-28.8000;0.0765;-1.0249;
-28.5000;0.0765;-1.0227;
-28.2000;0.0790;-1.0159;
-27.9000;0.0781;-1.0249;
-27.6000;0.0773;-1.0294;
-27.3000;0.0708;-1.0521;
-27.0000;0.0724;-1.0521;
-26.7000;0.0781;-1.0340;
-26.4000;0.0838;-1.0204;
-26.1000;0.0773;-1.0430;
-25.8000;0.0716;-1.0543;
-25.5000;0.0757;-1.0385;
-25.2000;0.0871;-1.0113;
-24.9000;0.0773;-1.0385;
-24.6000;0.0806;-1.0340;
-24.3000;0.0716;-1.0475;
-24.0000;0.0790;-1.0317;
-23.7000;0.0773;-1.0249;
-23.4000;0.0716;-1.0408;
-23.1000;0.0798;-1.0340;
-22.8000;0.0806;-1.0227;
-22.5000;0.0781;-1.0340;
-22.2000;0.0781;-1.0362;
-21.9000;0.0790;-1.0408;
-21.6000;0.0781;-1.0385;
-21.3000;0.0790;-1.0317;
-21.0000;0.0765;-1.0385;
-20.7000;0.0757;-1.0385;
-20.4000;0.0749;-1.0317;
-20.1000;0.0781;-1.0249;
-19.8000;0.0773;-1.0317;
-19.5000;0.0765;-1.0385;
-19.2000;0.0757;-1.0475;
-18.9000;0.0765;-1.0521;
-18.6000;0.0749;-1.0566;
-18.3000;0.0773;-1.0453;
-18.0000;0.0781;-1.0385;
-17.7000;0.0798;-1.0362;
-17.4000;0.0806;-1.0317;
-17.1000;0.0773;-1.0475;
-16.8000;0.0773;-1.0521;
-16.5000;0.0798;-1.0475;
-16.2000;0.0798;-1.0521;
-15.9000;0.0912;-1.0136;
-15.6000;0.0798;-1.0430;
-15.3000;0.0822;-1.0430;
-15.0000;0.0765;-1.0543;
-14.7000;0.0781;-1.0498;
-14.4000;0.0790;-1.0543;
-14.1000;0.0814;-1.0566;
-13.8000;0.0773;-1.0566;
-13.5000;0.0806;-1.0453;
-13.2000;0.0733;-1.0521;
-12.9000;0.0790;-1.0340;
-12.6000;0.0765;-1.0430;
-12.3000;0.0757;-1.0408;
-12.0000;0.0781;-1.0453;
-11.7000;0.0741;-1.0589;
-11.4000;0.0806;-1.0453;
-11.1000;0.0863;-1.0294;
-10.8000;0.0773;-1.0543;
-10.5000;0.0773;-1.0430;
-10.2000;0.0781;-1.0340;
-9.9000;0.0773;-1.0294;
-9.6000;0.0757;-1.0340;
-9.3000;0.0863;-1.0159;
-9.0000;0.0847;-1.0091;
-8.7000;0.0773;-1.0272;
-8.4000;0.0781;-1.0227;
-8.1000;0.0798;-1.0113;
-7.8000;0.0773;-1.0204;
-7.5000;0.0781;-1.0181;
-7.2000;0.0773;-1.0181;
-6.9000;0.0790;-1.0159;
-6.6000;0.0790;-1.0136;
-6.3000;0.0806;-1.0023;
-6.0000;0.0749;-1.0159;
-5.7000;0.0692;-1.0272;
-5.4000;0.0773;-1.0113;
-5.1000;0.0781;-1.0181;
-4.8000;0.0741;-1.0272;
-4.5000;0.0757;-1.0317;
-4.2000;0.0765;-1.0362;
-3.9000;0.0781;-1.0385;
-3.6000;0.0790;-1.0317;
-3.3000;0.0773;-1.0340;
-3.0000;0.0822;-1.0204;
-2.7000;0.0781;-1.0408;
-2.4000;0.0716;-1.0543;
-2.1000;0.0749;-1.0475;
-1.8000;0.0757;-1.0498;
-1.5000;0.0741;-1.0521;
-1.2000;0.0790;-1.0475;
-0.9000;0.0651;-1.0702;
-0.6000;0.0773;-1.0385;
-0.3000;0.0757;-1.0385;
0.0000;0.0757;-1.0385;
0.3000;0.0838;-1.0340;
0.6000;0.0781;-1.0385;
0.9000;0.0822;-1.0249;
1.2000;0.0822;-1.0181;
1.5000;0.0765;-1.0294;
1.8000;0.0863;-1.0023;
2.1000;0.0847;-0.9932;
2.4000;0.0969;-0.9616;
2.7000;0.0904;-0.9729;
3.0000;0.0871;-0.9751;
3.3000;0.0879;-0.9525;
3.6000;0.0895;-0.9457;
3.9000;0.0904;-0.9299;
4.2000;0.0871;-0.9412;
4.5000;0.0871;-0.9457;
4.8000;0.0855;-0.9435;
5.1000;0.0879;-0.9367;
5.4000;0.0863;-0.9367;
5.7000;0.0871;-0.9367;
6.0000;0.0895;-0.9367;
6.3000;0.0904;-0.9344;
6.6000;0.0887;-0.9389;
6.9000;0.0879;-0.9435;
7.2000;0.0904;-0.9254;
7.5000;0.0920;-0.9186;
7.8000;0.0928;-0.9141;
8.1000;0.0887;-0.9231;
8.4000;0.0904;-0.9186;
8.7000;0.0904;-0.9254;
9.0000;0.0871;-0.9344;
9.3000;0.0887;-0.9231;
9.6000;0.0879;-0.9186;
9.9000;0.0863;-0.9186;
10.2000;0.0855;-0.9208;
10.5000;0.0887;-0.9027;
10.8000;0.0871;-0.8937;
11.1000;0.0904;-0.8846;
11.4000;0.0928;-0.8824;
11.7000;0.0863;-0.9005;
12.0000;0.0912;-0.8869;
12.3000;0.0904;-0.8960;
12.6000;0.0904;-0.8960;
12.9000;0.0952;-0.8846;
13.2000;0.0895;-0.9027;
13.5000;0.0895;-0.9005;
13.8000;0.0887;-0.9095;
14.1000;0.0920;-0.9050;
14.4000;0.0936;-0.8982;
14.7000;0.0920;-0.9027;
15.0000;0.0912;-0.9027;
15.3000;0.0904;-0.8982;
15.6000;0.0879;-0.9073;
15.9000;0.0887;-0.9095;
16.2000;0.0920;-0.8982;
16.5000;0.0863;-0.9118;
16.8000;0.0904;-0.9050;
17.1000;0.0912;-0.9073;
17.4000;0.0912;-0.9073;
17.7000;0.0904;-0.9095;
18.0000;0.0863;-0.9186;
18.3000;0.0895;-0.9254;
18.6000;0.0895;-0.9276;
18.9000;0.0912;-0.9231;
19.2000;0.0887;-0.9299;
19.5000;0.0936;-0.9050;
19.8000;0.0863;-0.9231;
20.1000;0.0920;-0.9163;
20.4000;0.0904;-0.9073;
20.7000;0.0952;-0.8937;
21.0000;0.0904;-0.9163;
21.3000;0.0920;-0.9027;
21.6000;0.0904;-0.9095;
21.9000;0.0928;-0.9050;
22.2000;0.0822;-0.9344;
22.5000;0.0887;-0.9186;
22.8000;0.0912;-0.9118;
23.1000;0.0912;-0.9163;
23.4000;0.0920;-0.9141;
23.7000;0.0879;-0.9299;
24.0000;0.0920;-0.9276;
24.3000;0.1001;-0.9050;
24.6000;0.0904;-0.9389;
24.9000;0.0895;-0.9412;
25.2000;0.0904;-0.9276;
25.5000;0.0912;-0.9208;
25.8000;0.0887;-0.9367;
26.1000;0.0936;-0.9276;
26.4000;0.0912;-0.9367;
26.7000;0.0920;-0.9389;
27.0000;0.0961;-0.9231;
27.3000;0.1042;-0.8960;
27.6000;0.0928;-0.9231;
27.9000;0.0944;-0.9254;
28.2000;0.0912;-0.9276;
28.5000;0.0928;-0.9208;
28.8000;0.0920;-0.9276;
29.1000;0.0904;-0.9344;
29.4000;0.0928;-0.9322;
29.7000;0.0920;-0.9412;
30.0000;0.0952;-0.9389;
30.3000;0.0904;-0.9389;
30.6000;0.0928;-0.9299;
30.9000;0.0920;-0.9322;
31.2000;0.0895;-0.9322;
31.5000;0.0920;-0.9344;
31.8000;0.0936;-0.9367;
32.1000;0.0895;-0.9480;
32.4000;0.0920;-0.9389;
32.7000;0.0936;-0.9231;
33.0000;0.0944;-0.9118;
33.3000;0.0936;-0.9208;
33.6000;0.0887;-0.9299;
33.9000;0.0887;-0.9231;
34.2000;0.0920;-0.9118;
34.5000;0.0895;-0.9231;
34.8000;0.0936;-0.9186;
35.1000;0.0895;-0.9208;
35.4000;0.0944;-0.9027;
35.7000;0.0895;-0.9163;
36.0000;0.0920;-0.9118;
36.3000;0.1042;-0.8801;
36.6000;0.0920;-0.9163;
36.9000;0.0912;-0.9141;
37.2000;0.0822;-0.9457;
37.5000;0.0912;-0.9231;
37.8000;0.0944;-0.9141;
38.1000;0.0928;-0.9073;
38.4000;0.0912;-0.9141;
38.7000;0.0912;-0.9141;
39.0000;0.0895;-0.9141;
39.3000;0.0969;-0.8960;
39.6000;0.0912;-0.9118;
39.9000;0.0904;-0.9254;
40.2000;0.0912;-0.9186;
40.5000;0.0969;-0.9095;
40.8000;0.0912;-0.9231;
41.1000;0.0936;-0.9163;
41.4000;0.0871;-0.9276;
41.7000;0.0936;-0.9208;
42.0000;0.0928;-0.9163;
42.3000;0.0912;-0.9231;
42.6000;0.0904;-0.9141;
42.9000;0.0920;-0.9095;
43.2000;0.0879;-0.9208;
43.5000;0.0912;-0.9118;
43.8000;0.0912;-0.9141;
44.1000;0.0904;-0.9118;
44.4000;0.0936;-0.9073;
44.7000;0.0944;-0.9073;
45.0000;0.0887;-0.9208;
45.3000;0.0904;-0.9231;
45.6000;0.0936;-0.9186;
45.9000;0.0887;-0.9299;
46.2000;0.0895;-0.9276;
46.5000;0.0928;-0.9208;
46.8000;0.0920;-0.9141;
47.1000;0.0993;-0.8914;
47.4000;0.0969;-0.8937;
47.7000;0.0920;-0.9027;
48.0000;0.0936;-0.9027;
48.3000;0.0936;-0.9005;
48.6000;0.0904;-0.9118;
48.9000;0.0904;-0.9141;
49.2000;0.0928;-0.9095;
49.5000;0.0928;-0.9231;
49.8000;0.0895;-0.9322;
50.1000;0.0895;-0.9344;
50.4000;0.0920;-0.9208;
50.7000;0.0920;-0.9208;
51.0000;0.0928;-0.9254;
51.3000;0.0912;-0.9254;
51.6000;0.0928;-0.9163;
51.9000;0.0944;-0.9118;
52.2000;0.0928;-0.9186;
52.5000;0.0928;-0.9231;
52.8000;0.0944;-0.9163;
53.1000;0.0985;-0.9118;
53.4000;0.0952;-0.9163;
53.7000;0.0936;-0.9141;
54.0000;0.0944;-0.9095;
54.3000;0.0895;-0.9163;
54.6000;0.0895;-0.9276;
54.9000;0.0920;-0.9344;
55.2000;0.0912;-0.9299;
55.5000;0.0952;-0.9208;
55.8000;0.0798;-0.9503;
56.1000;0.0912;-0.9231;
56.4000;0.0912;-0.9276;
56.7000;0.0920;-0.9299;
57.0000;0.0952;-0.9208;
57.3000;0.0920;-0.9208;
57.6000;0.0912;-0.9254;
57.9000;0.0920;-0.9299;
58.2000;0.0912;-0.9276;
58.5000;0.0961;-0.9073;
58.8000;0.0936;-0.9141;
59.1000;0.0928;-0.9163;
59.4000;0.0985;-0.9027;
59.7000;0.0993;-0.8982;
60.0000;0.0912;-0.9163;
60.3000;0.0920;-0.9163;
60.6000;0.0928;-0.9163;
60.9000;0.0985;-0.8982;
61.2000;0.0920;-0.9141;
61.5000;0.0920;-0.9005;
61.8000;0.0920;-0.8982;
62.1000;0.1042;-0.8711;
62.4000;0.0961;-0.8892;
62.7000;0.0887;-0.9208;
63.0000;0.0847;-0.9276;
63.3000;0.0936;-0.9163;
63.6000;0.0920;-0.9208;
63.9000;0.0936;-0.9050;
64.2000;0.0936;-0.9095;
64.5000;0.0961;-0.9050;
64.8000;0.0895;-0.9073;
65.1000;0.0961;-0.8914;
65.4000;0.0985;-0.8733;
65.7000;0.0814;-0.9231;
66.0000;0.0920;-0.8982;
66.3000;0.0936;-0.9005;
66.6000;0.0952;-0.8937;
66.9000;0.0936;-0.8960;
67.2000;0.0928;-0.8914;
67.5000;0.0920;-0.8869;
67.8000;0.0936;-0.8801;
68.1000;0.0936;-0.8846;
68.4000;0.0920;-0.8982;
68.7000;0.0928;-0.8960;
69.0000;0.0936;-0.8937;
69.3000;0.0928;-0.8937;
69.6000;0.0952;-0.8869;
69.9000;0.0936;-0.9005;
70.2000;0.0928;-0.9118;
70.5000;0.0936;-0.9141;
70.8000;0.0944;-0.9186;
71.1000;0.0928;-0.9231;
71.4000;0.0920;-0.9208;
71.7000;0.0904;-0.9186;
72.0000;0.0904;-0.9231;
72.3000;0.0936;-0.9118;
72.6000;0.0944;-0.9005;
72.9000;0.0936;-0.9027;
73.2000;0.0944;-0.9027;
73.5000;0.0912;-0.9118;
73.8000;0.0944;-0.9005;
74.1000;0.0904;-0.9005;
74.4000;0.0920;-0.9095;
74.7000;0.0920;-0.9073;
75.0000;0.0928;-0.8982;
75.3000;0.0952;-0.9095;
75.6000;0.0920;-0.9141;
75.9000;0.0912;-0.9186;
76.2000;0.0928;-0.9163;
76.5000;0.0944;-0.9231;
76.8000;0.0928;-0.9163;
77.1000;0.0912;-0.9254;
77.4000;0.0961;-0.9073;
77.7000;0.0961;-0.9095;
78.0000;0.0920;-0.9276;
78.3000;0.0944;-0.9299;
78.6000;0.0952;-0.9254;
78.9000;0.0944;-0.9208;
79.2000;0.0944;-0.9163;
79.5000;0.0928;-0.9073;
79.8000;0.0887;-0.9208;
80.1000;0.0920;-0.9163;
80.4000;0.0936;-0.9231;
80.7000;0.0904;-0.9322;
81.0000;0.0936;-0.9186;
81.3000;0.0928;-0.9254;
81.6000;0.0928;-0.9231;
81.9000;0.0969;-0.9208;
82.2000;0.0944;-0.9322;
82.5000;0.0936;-0.9412;
82.8000;0.0944;-0.9412;
83.1000;0.0920;-0.9548;
83.4000;0.0977;-0.9344;
83.7000;0.0912;-0.9570;
84.0000;0.1001;-0.9389;
84.3000;0.0912;-0.9661;
84.6000;0.0936;-0.9616;
84.9000;0.0928;-0.9570;
85.2000;0.0863;-0.9751;
85.5000;0.0871;-0.9706;
85.8000;0.0928;-0.9570;
86.1000;0.0920;-0.9548;
86.4000;0.0781;-0.9819;
86.7000;0.0806;-0.9661;
87.0000;0.0936;-0.9367;
87.3000;0.0936;-0.9344;
87.6000;0.0847;-0.9525;
87.9000;0.0920;-0.9389;
88.2000;0.0920;-0.9344;
88.5000;0.0985;-0.9276;
88.8000;0.0936;-0.9322;
89.1000;0.0944;-0.9254;
89.4000;0.0944;-0.9254;
89.7000;0.0985;-0.9141;
90.0000;0.0944;-0.9208;
90.3000;0.0928;-0.9322;
90.6000;0.0895;-0.9344;
90.9000;0.0920;-0.9231;
91.2000;0.0912;-0.9208;
91.5000;0.0944;-0.9027;
91.8000;0.0928;-0.9050;
92.1000;0.0790;-0.9412;
92.4000;0.0936;-0.9118;
92.7000;0.0912;-0.9231;
93.0000;0.0961;-0.9141;
93.3000;0.0936;-0.9299;
93.6000;0.0969;-0.9231;
93.9000;0.0944;-0.9322;
94.2000;0.0944;-0.9322;
94.5000;0.0952;-0.9322;
94.8000;0.0952;-0.9254;
95.1000;0.0912;-0.9367;
95.4000;0.0944;-0.9254;
95.7000;0.0944;-0.9254;
96.0000;0.0928;-0.9254;
96.3000;0.0928;-0.9254;
96.6000;0.0904;-0.9367;
96.9000;0.0920;-0.9457;
97.2000;0.0928;-0.9389;
97.5000;0.0944;-0.9322;
97.8000;0.0944;-0.9276;
98.1000;0.0928;-0.9254;
98.4000;0.0920;-0.9254;
98.7000;0.0912;-0.9276;
99.0000;0.0952;-0.9231;
99.3000;0.0952;-0.9208;
99.6000;0.0936;-0.9322;
99.9000;0.0936;-0.9344;
100.2000;0.0969;-0.9231;
100.5000;0.0928;-0.9299;
100.8000;0.0969;-0.9186;
101.1000;0.0912;-0.9276;
101.4000;0.0912;-0.9254;
101.7000;0.0952;-0.9231;
102.0000;0.0928;-0.9412;
102.3000;0.0936;-0.9412;
102.6000;0.0952;-0.9457;
102.9000;0.0936;-0.9570;
103.2000;0.0944;-0.9570;
103.5000;0.0944;-0.9525;
103.8000;0.0952;-0.9412;
104.1000;0.0936;-0.9412;
104.4000;0.0928;-0.9389;
104.7000;0.0895;-0.9457;
105.0000;0.1001;-0.9254;
105.3000;0.0936;-0.9457;
105.6000;0.0952;-0.9457;
105.9000;0.0944;-0.9412;
106.2000;0.0887;-0.9525;
106.5000;0.0928;-0.9480;
106.8000;0.0936;-0.9412;
107.1000;0.0944;-0.9412;
107.4000;0.0936;-0.9435;
107.7000;0.0944;-0.9457;
108.0000;0.0952;-0.9525;
108.3000;0.0944;-0.9503;
108.6000;0.0944;-0.9480;
108.9000;0.0920;-0.9548;
109.2000;0.0969;-0.9435;
109.5000;0.0944;-0.9503;
109.8000;0.0944;-0.9457;
110.1000;0.0969;-0.9435;
110.4000;0.1034;-0.9254;
110.7000;0.0920;-0.9503;
111.0000;0.0936;-0.9525;
111.3000;0.0936;-0.9525;
111.6000;0.0936;-0.9412;
111.9000;0.0887;-0.9480;
112.2000;0.1026;-0.9186;
112.5000;0.0977;-0.9367;
112.8000;0.0928;-0.9457;
113.1000;0.0952;-0.9322;
113.4000;0.0928;-0.9344;
113.7000;0.0961;-0.9322;
114.0000;0.0944;-0.9389;
114.3000;0.0969;-0.9344;
114.6000;0.0936;-0.9389;
114.9000;0.0977;-0.9299;
115.2000;0.1042;-0.9005;
115.5000;0.0952;-0.9276;
115.8000;0.0838;-0.9593;
116.1000;0.0936;-0.9367;
116.4000;0.0920;-0.9389;
116.7000;0.0952;-0.9276;
117.0000;0.1026;-0.9118;
117.3000;0.0969;-0.9208;
117.6000;0.0952;-0.9299;
117.9000;0.0920;-0.9389;
118.2000;0.0944;-0.9254;
118.5000;0.0855;-0.9457;
118.8000;0.0838;-0.9457;
119.1000;0.0912;-0.9254;
119.4000;0.0928;-0.9231;
119.7000;0.0936;-0.9254;
120.0000;0.0912;-0.9367;
120.3000;0.1009;-0.9163;
120.6000;0.0920;-0.9389;
120.9000;0.0936;-0.9367;
121.2000;0.0936;-0.9299;
121.5000;0.0806;-0.9638;
121.8000;0.0944;-0.9254;
122.1000;0.0936;-0.9254;
122.4000;0.0936;-0.9254;
122.7000;0.1001;-0.9050;
123.0000;0.0961;-0.9163;
123.3000;0.0944;-0.9163;
123.6000;0.0936;-0.9186;
123.9000;0.0944;-0.9141;
124.2000;0.0928;-0.9208;
124.5000;0.0952;-0.9231;
124.8000;0.0944;-0.9276;
125.1000;0.0952;-0.9231;
125.4000;0.0936;-0.9322;
125.7000;0.0952;-0.9276;
126.0000;0.0952;-0.9367;
126.3000;0.0944;-0.9412;
126.6000;0.0936;-0.9457;
126.9000;0.0969;-0.9412;
127.2000;0.0944;-0.9389;
127.5000;0.0961;-0.9344;
127.8000;0.0936;-0.9344;
128.1000;0.0961;-0.9254;
128.4000;0.0961;-0.9276;
128.7000;0.0944;-0.9254;
129.0000;0.0944;-0.9208;
129.3000;0.0928;-0.9344;
129.6000;0.1009;-0.9141;
129.9000;0.0928;-0.9344;
130.2000;0.0920;-0.9344;
130.5000;0.0944;-0.9322;
130.8000;0.0944;-0.9367;
131.1000;0.0936;-0.9344;
131.4000;0.0961;-0.9322;
131.7000;0.0952;-0.9322;
132.0000;0.0944;-0.9480;
132.3000;0.0993;-0.9322;
132.6000;0.0985;-0.9231;
132.9000;0.0912;-0.9435;
133.2000;0.0944;-0.9389;
133.5000;0.0952;-0.9254;
133.8000;0.0961;-0.9254;
134.1000;0.0936;-0.9254;
134.4000;0.0871;-0.9412;
134.7000;0.0936;-0.9344;
135.0000;0.0855;-0.9525;
135.3000;0.0961;-0.9254;
135.6000;0.1009;-0.9118;
135.9000;0.0912;-0.9276;
136.2000;0.0928;-0.9186;
136.5000;0.0952;-0.9186;
136.8000;0.0863;-0.9435;
137.1000;0.1034;-0.9050;
137.4000;0.0952;-0.9231;
137.7000;0.0936;-0.9254;
138.0000;0.1001;-0.9050;
138.3000;0.0952;-0.9163;
138.6000;0.0928;-0.9186;
138.9000;0.0936;-0.9231;
139.2000;0.0944;-0.9254;
139.5000;0.0944;-0.9163;
139.8000;0.0944;-0.9186;
140.1000;0.0928;-0.9231;
140.4000;0.0912;-0.9276;
140.7000;0.0830;-0.9525;
141.0000;0.0961;-0.9231;
141.3000;0.0920;-0.9299;
141.6000;0.0936;-0.9254;
141.9000;0.0952;-0.9231;
142.2000;0.0961;-0.9095;
142.5000;0.0904;-0.9118;
142.8000;0.0977;-0.8982;
143.1000;0.0928;-0.9118;
143.4000;0.0936;-0.9141;
143.7000;0.0952;-0.9095;
144.0000;0.0936;-0.9208;
144.3000;0.0977;-0.9073;
144.6000;0.0977;-0.9118;
144.9000;0.0944;-0.9276;
145.2000;0.0936;-0.9254;
145.5000;0.0952;-0.9276;
145.8000;0.0952;-0.9299;
146.1000;0.0952;-0.9322;
146.4000;0.0928;-0.9344;
146.7000;0.0936;-0.9276;
147.0000;0.0928;-0.9299;
147.3000;0.0936;-0.9367;
147.6000;0.0920;-0.9435;
147.9000;0.0936;-0.9367;
148.2000;0.0944;-0.9412;
148.5000;0.0961;-0.9457;
148.8000;0.0952;-0.9525;
149.1000;0.0944;-0.9616;
149.4000;0.0928;-0.9684;
149.7000;0.0920;-0.9661;
150.0000;0.0961;-0.9593;
150.3000;0.0928;-0.9616;
150.6000;0.0977;-0.9457;
150.9000;0.0969;-0.9344;
151.2000;0.0936;-0.9412;
151.5000;0.0977;-0.9299;
151.8000;0.0944;-0.9322;
152.1000;0.0887;-0.9435;
152.4000;0.1001;-0.9163;
152.7000;0.0944;-0.9367;
153.0000;0.0887;-0.9480;
153.3000;0.0944;-0.9367;
153.6000;0.0952;-0.9344;
153.9000;0.0952;-0.9299;
154.2000;0.0936;-0.9276;
154.5000;0.0961;-0.9254;
154.8000;0.0904;-0.9435;
155.1000;0.0838;-0.9661;
155.4000;0.0863;-0.9616;
155.7000;0.0863;-0.9638;
156.0000;0.0928;-0.9480;
156.3000;0.0969;-0.9412;
156.6000;0.0879;-0.9503;
156.9000;0.0920;-0.9480;
157.2000;0.0952;-0.9299;
157.5000;0.0969;-0.9299;
157.8000;0.0944;-0.9299;
158.1000;0.0936;-0.9299;
158.4000;0.0936;-0.9322;
158.7000;0.0969;-0.9254;
159.0000;0.1034;-0.9118;
159.3000;0.0985;-0.9186;
159.6000;0.0928;-0.9344;
159.9000;0.0985;-0.9073;
160.2000;0.1018;-0.8937;
160.5000;0.0944;-0.9118;
160.8000;0.0920;-0.9186;
161.1000;0.0928;-0.9186;
161.4000;0.0920;-0.9141;
161.7000;0.0936;-0.9141;
162.0000;0.1099;-0.8846;
162.3000;0.0936;-0.9141;
162.6000;0.0944;-0.9141;
162.9000;0.0936;-0.9118;
163.2000;0.0847;-0.9412;
163.5000;0.0944;-0.9118;
163.8000;0.0920;-0.9163;
164.1000;0.0944;-0.9050;
164.4000;0.0977;-0.9027;
164.7000;0.0920;-0.9163;
165.0000;0.0871;-0.9344;
165.3000;0.0936;-0.9186;
165.6000;0.0871;-0.9389;
165.9000;0.0920;-0.9344;
166.2000;0.0944;-0.9389;
166.5000;0.0928;-0.9412;
166.8000;0.0952;-0.9344;
167.1000;0.0936;-0.9457;
167.4000;0.0936;-0.9412;
167.7000;0.0936;-0.9457;
168.0000;0.0944;-0.9367;
168.3000;0.0936;-0.9344;
168.6000;0.0944;-0.9276;
168.9000;0.0936;-0.9231;
169.2000;0.0961;-0.9163;
169.5000;0.0936;-0.9095;
169.8000;0.0920;-0.9231;
170.1000;0.0944;-0.9141;
170.4000;0.0936;-0.9208;
170.7000;0.0936;-0.9163;
171.0000;0.0944;-0.9163;
171.3000;0.0936;-0.9254;
171.6000;0.0936;-0.9344;
171.9000;0.0952;-0.9344;
172.2000;0.0936;-0.9344;
172.5000;0.0936;-0.9367;
172.8000;0.0936;-0.9344;
173.1000;0.0879;-0.9525;
173.4000;0.0928;-0.9344;
173.7000;0.0961;-0.9276;
174.0000;0.0912;-0.9389;
174.3000;0.0944;-0.9367;
174.6000;0.0920;-0.9344;
174.9000;0.0952;-0.9344;
175.2000;0.0904;-0.9548;
175.5000;0.0936;-0.9435;
175.8000;0.0895;-0.9525;
176.1000;0.0936;-0.9299;
176.4000;0.0920;-0.9322;
176.7000;0.0936;-0.9299;
177.0000;0.0920;-0.9389;
177.3000;0.1009;-0.9208;
177.6000;0.0952;-0.9367;
177.9000;0.0871;-0.9525;
178.2000;0.0952;-0.9299;
178.5000;0.0928;-0.9389;
178.8000;0.0928;-0.9389;
179.1000;0.0944;-0.9412;
179.4000;0.0863;-0.9503;
179.7000;0.0838;-0.9616;
180.0000;0.0977;-0.9299;
180.3000;0.0952;-0.9322;
180.6000;0.0936;-0.9367;
180.9000;0.0928;-0.9435;
181.2000;0.0944;-0.9412;
181.5000;0.0936;-0.9344;
181.8000;0.0936;-0.9322;
182.1000;0.0952;-0.9322;
182.4000;0.0912;-0.9412;
182.7000;0.0944;-0.9208;
183.0000;0.0944;-0.9163;
183.3000;0.0928;-0.9208;
183.6000;0.0928;-0.9208;
183.9000;0.0952;-0.9186;
184.2000;0.0969;-0.9027;
184.5000;0.0944;-0.9118;
184.8000;0.0944;-0.9095;
185.1000;0.0936;-0.9163;
185.4000;0.0936;-0.9208;
185.7000;0.0944;-0.9186;
186.0000;0.0944;-0.9231;
186.3000;0.0928;-0.9276;
186.6000;0.0928;-0.9231;
186.9000;0.0912;-0.9231;
187.2000;0.0936;-0.9141;
187.5000;0.0961;-0.9163;
187.8000;0.0952;-0.9118;
188.1000;0.0952;-0.9118;
188.4000;0.0952;-0.9186;
188.7000;0.0920;-0.9208;
189.0000;0.0920;-0.9254;
189.3000;0.0936;-0.9186;
189.6000;0.0928;-0.9322;
189.9000;0.0936;-0.9186;
190.2000;0.0944;-0.9231;
190.5000;0.0904;-0.9299;
190.8000;0.0936;-0.9141;
191.1000;0.0944;-0.9163;
191.4000;0.0912;-0.9231;
191.7000;0.0928;-0.9231;
192.0000;0.0920;-0.9322;
192.3000;0.0920;-0.9367;
192.6000;0.0961;-0.9299;
192.9000;0.0936;-0.9276;
193.2000;0.0969;-0.9163;
193.5000;0.0936;-0.9186;
193.8000;0.0952;-0.9208;
194.1000;0.0936;-0.9231;
194.4000;0.0944;-0.9186;
194.7000;0.0944;-0.9163;
195.0000;0.0920;-0.9186;
195.3000;0.0920;-0.9186;
195.6000;0.0928;-0.9163;
195.9000;0.0944;-0.9141;
196.2000;0.0920;-0.9186;
196.5000;0.0928;-0.9208;
196.8000;0.0944;-0.9141;
197.1000;0.0977;-0.9095;
197.4000;0.0944;-0.9163;
197.7000;0.0952;-0.9254;
198.0000;0.0993;-0.9095;
198.3000;0.0969;-0.9095;
198.6000;0.0944;-0.9163;
198.9000;0.0944;-0.9208;
199.2000;0.0961;-0.9095;
199.5000;0.0912;-0.9208;
199.8000;0.0944;-0.9231;
200.1000;0.0895;-0.9322;
200.4000;0.0928;-0.9276;
200.7000;0.1221;-0.8530;
201.0000;0.0944;-0.9231;
201.3000;0.0936;-0.9208;
201.6000;0.0969;-0.9141;
201.9000;0.0961;-0.9141;
202.2000;0.0952;-0.9186;
202.5000;0.0944;-0.9208;
202.8000;0.0920;-0.9299;
203.1000;0.0920;-0.9095;
203.4000;0.0936;-0.9095;
203.7000;0.0952;-0.9050;
204.0000;0.0936;-0.9141;
204.3000;0.0944;-0.9118;
204.6000;0.0928;-0.9186;
204.9000;0.0985;-0.9027;
205.2000;0.0977;-0.9141;
205.5000;0.0912;-0.9322;
205.8000;0.0952;-0.9299;
206.1000;0.1026;-0.9163;
206.4000;0.0920;-0.9435;
206.7000;0.0936;-0.9457;
207.0000;0.0920;-0.9435;
207.3000;0.0952;-0.9367;
207.6000;0.0936;-0.9367;
207.9000;0.1009;-0.9186;
208.2000;0.0912;-0.9367;
208.5000;0.0920;-0.9344;
208.8000;0.0847;-0.9548;
209.1000;0.0928;-0.9299;
209.4000;0.0928;-0.9186;
209.7000;0.0944;-0.9050;
210.0000;0.0928;-0.9095;
210.3000;0.1009;-0.8982;
210.6000;0.0928;-0.9095;
210.9000;0.1083;-0.8688;
211.2000;0.0928;-0.9186;
211.5000;0.0920;-0.9163;
211.8000;0.0936;-0.9141;
212.1000;0.0952;-0.9050;
212.4000;0.0985;-0.8982;
212.7000;0.0936;-0.9141;
213.0000;0.0952;-0.9005;
213.3000;0.0920;-0.9095;
213.6000;0.0969;-0.9118;
213.9000;0.0928;-0.9254;
214.2000;0.1009;-0.9005;
214.5000;0.0936;-0.9095;
214.8000;0.0944;-0.9095;
215.1000;0.0961;-0.9005;
215.4000;0.0952;-0.9073;
215.7000;0.0952;-0.9118;
216.0000;0.0912;-0.9254;
216.3000;0.0928;-0.9254;
216.6000;0.0928;-0.9231;
216.9000;0.0928;-0.9254;
217.2000;0.0952;-0.9208;
217.5000;0.0928;-0.9299;
217.8000;0.0961;-0.9231;
218.1000;0.0928;-0.9276;
218.4000;0.0912;-0.9344;
218.7000;0.0944;-0.9231;
219.0000;0.0944;-0.9276;
219.3000;0.0952;-0.9208;
219.6000;0.0879;-0.9412;
219.9000;0.0985;-0.9073;
220.2000;0.0936;-0.9163;
220.5000;0.0936;-0.9141;
220.8000;0.0936;-0.9073;
221.1000;0.0961;-0.9005;
221.4000;0.0952;-0.9050;
221.7000;0.0895;-0.9231;
222.0000;0.0920;-0.9186;
222.3000;0.0920;-0.9141;
222.6000;0.0944;-0.9118;
222.9000;0.0952;-0.9141;
223.2000;0.0904;-0.9141;
223.5000;0.0928;-0.9095;
223.8000;0.0961;-0.9027;
224.1000;0.0928;-0.9141;
224.4000;0.0952;-0.9163;
224.7000;0.0855;-0.9389;
225.0000;0.0952;-0.9141;
225.3000;0.0944;-0.9141;
225.6000;0.0952;-0.9141;
225.9000;0.0879;-0.9299;
226.2000;0.0944;-0.9163;
226.5000;0.0961;-0.9073;
226.8000;0.1009;-0.8960;
227.1000;0.1148;-0.8688;
227.4000;0.0936;-0.9231;
227.7000;0.0944;-0.9186;
228.0000;0.0936;-0.9186;
228.3000;0.0912;-0.9208;
228.6000;0.0912;-0.9163;
228.9000;0.0944;-0.9095;
229.2000;0.0806;-0.9412;
229.5000;0.0920;-0.9163;
229.8000;0.0936;-0.9231;
230.1000;0.0912;-0.9276;
230.4000;0.0944;-0.9186;
230.7000;0.0936;-0.9186;
231.0000;0.0977;-0.9141;
231.3000;0.1018;-0.8982;
231.6000;0.0912;-0.9141;
231.9000;0.0952;-0.9141;
232.2000;0.0887;-0.9276;
232.5000;0.0952;-0.9073;
232.8000;0.0863;-0.9186;
233.1000;0.0928;-0.9163;
233.4000;0.0944;-0.9095;
233.7000;0.0887;-0.9299;
234.0000;0.0912;-0.9254;
234.3000;0.0944;-0.9208;
234.6000;0.0944;-0.9141;
234.9000;0.0944;-0.9254;
235.2000;0.0952;-0.9141;
235.5000;0.0977;-0.9050;
235.8000;0.0936;-0.9163;
236.1000;0.0936;-0.9231;
236.4000;0.0855;-0.9389;
236.7000;0.0952;-0.9186;
237.0000;0.0920;-0.9231;
237.3000;0.0969;-0.9141;
237.6000;0.0969;-0.9095;
237.9000;0.0920;-0.9231;
238.2000;0.0961;-0.9095;
238.5000;0.0944;-0.9163;
238.8000;0.0928;-0.9118;
239.1000;0.0952;-0.9073;
239.4000;0.0944;-0.9118;
239.7000;0.0895;-0.9299;
240.0000;0.0920;-0.9276;
240.3000;0.0936;-0.9254;
240.6000;0.0928;-0.9231;
240.9000;0.0928;-0.9322;
241.2000;0.0936;-0.9276;
241.5000;0.0928;-0.9344;
241.8000;0.0936;-0.9344;
242.1000;0.0944;-0.9322;
242.4000;0.0944;-0.9254;
242.7000;0.1009;-0.9050;
243.0000;0.0928;-0.9208;
243.3000;0.0961;-0.9186;
243.6000;0.0961;-0.9254;
243.9000;0.0961;-0.9208;
244.2000;0.0944;-0.9208;
244.5000;0.0969;-0.9163;
244.8000;0.0944;-0.9118;
245.1000;0.0912;-0.9254;
245.4000;0.0936;-0.9095;
245.7000;0.0952;-0.9005;
246.0000;0.0928;-0.8960;
246.3000;0.0944;-0.8937;
246.6000;0.0912;-0.9027;
246.9000;0.0985;-0.8824;
247.2000;0.0920;-0.8982;
247.5000;0.0912;-0.9027;
247.8000;0.0920;-0.9027;
248.1000;0.0847;-0.9231;
248.4000;0.0936;-0.9005;
248.7000;0.0961;-0.8937;
249.0000;0.0928;-0.9005;
249.3000;0.0961;-0.8914;
249.6000;0.0936;-0.8937;
249.9000;0.0944;-0.8892;
250.2000;0.0904;-0.8914;
250.5000;0.0944;-0.8869;
250.8000;0.0961;-0.8914;
251.1000;0.0952;-0.8960;
251.4000;0.0936;-0.9118;
251.7000;0.0944;-0.9118;
252.0000;0.0961;-0.9118;
252.3000;0.0977;-0.9118;
252.6000;0.0961;-0.9118;
252.9000;0.0961;-0.9163;
253.2000;0.0952;-0.9050;
253.5000;0.0928;-0.9095;
253.8000;0.1018;-0.8892;
254.1000;0.0904;-0.9163;
254.4000;0.0944;-0.9118;
254.7000;0.0920;-0.9163;
255.0000;0.0847;-0.9457;
255.3000;0.0952;-0.9186;
255.6000;0.0936;-0.9208;
255.9000;0.0961;-0.9186;
256.2000;0.0920;-0.9276;
256.5000;0.0912;-0.9322;
256.8000;0.1050;-0.8960;
257.1000;0.0952;-0.9276;
257.4000;0.0952;-0.9344;
257.7000;0.0936;-0.9367;
258.0000;0.0944;-0.9322;
258.3000;0.0912;-0.9344;
258.6000;0.0928;-0.9299;
258.9000;0.0928;-0.9389;
259.2000;0.0936;-0.9435;
259.5000;0.0993;-0.9186;
259.8000;0.0952;-0.9231;
260.1000;0.0961;-0.9186;
260.4000;0.0944;-0.9163;
260.7000;0.0928;-0.9163;
261.0000;0.0944;-0.9118;
261.3000;0.0928;-0.9254;
261.6000;0.0887;-0.9322;
261.9000;0.0961;-0.9118;
262.2000;0.0936;-0.9254;
262.5000;0.0928;-0.9276;
262.8000;0.0887;-0.9322;
263.1000;0.0920;-0.9163;
263.4000;0.0912;-0.9186;
263.7000;0.0920;-0.9254;
264.0000;0.0961;-0.9095;
264.3000;0.0969;-0.9027;
264.6000;0.0936;-0.9073;
264.9000;0.0920;-0.9118;
265.2000;0.0928;-0.9186;
265.5000;0.0961;-0.9208;
265.8000;0.0920;-0.9344;
266.1000;0.0928;-0.9367;
266.4000;0.0928;-0.9389;
266.7000;0.0928;-0.9344;
267.0000;0.0944;-0.9322;
267.3000;0.0936;-0.9322;
267.6000;0.0928;-0.9322;
267.9000;0.0912;-0.9389;
268.2000;0.0928;-0.9299;
268.5000;0.0928;-0.9186;
268.8000;0.0936;-0.9141;
269.1000;0.0961;-0.9005;
269.4000;0.0895;-0.9186;
269.7000;0.0920;-0.9208;
270.0000;0.0952;-0.9118;
270.3000;0.0928;-0.9163;
270.6000;0.1115;-0.8688;
270.9000;0.0936;-0.9208;
271.2000;0.0895;-0.9322;
271.5000;0.0912;-0.9389;
271.8000;0.0944;-0.9322;
272.1000;0.0936;-0.9389;
272.4000;0.0806;-0.9706;
272.7000;0.0936;-0.9389;
273.0000;0.0928;-0.9344;
273.3000;0.0765;-0.9593;
273.6000;0.0863;-0.9412;
273.9000;0.0920;-0.9254;
274.2000;0.0944;-0.9208;
274.5000;0.0920;-0.9367;
274.8000;0.0928;-0.9367;
275.1000;0.0936;-0.9322;
275.4000;0.0928;-0.9344;
275.7000;0.0936;-0.9254;
276.0000;0.0904;-0.9322;
276.3000;0.0920;-0.9276;
276.6000;0.0904;-0.9231;
276.9000;0.0928;-0.9186;
277.2000;0.0944;-0.9186;
277.5000;0.0904;-0.9276;
277.8000;0.0912;-0.9322;
278.1000;0.0952;-0.9322;
278.4000;0.0944;-0.9367;
278.7000;0.0912;-0.9435;
279.0000;0.0952;-0.9276;
279.3000;0.0936;-0.9254;
279.6000;0.0944;-0.9186;
279.9000;0.0928;-0.9254;
280.2000;0.0952;-0.9208;
280.5000;0.0928;-0.9367;
280.8000;0.0977;-0.9254;
281.1000;0.0944;-0.9457;
281.4000;0.0936;-0.9457;
281.7000;0.0969;-0.9412;
282.0000;0.0977;-0.9254;
282.3000;0.0936;-0.9208;
282.6000;0.0904;-0.9276;
282.9000;0.0936;-0.9299;
283.2000;0.0920;-0.9344;
283.5000;0.0944;-0.9208;
283.8000;0.0944;-0.9186;
284.1000;0.0936;-0.9186;
284.4000;0.0961;-0.9027;
284.7000;0.0830;-0.9389;
285.0000;0.0920;-0.9163;
285.3000;0.0912;-0.9276;
285.6000;0.0928;-0.9344;
285.9000;0.0944;-0.9208;
286.2000;0.0944;-0.9208;
286.5000;0.0920;-0.9276;
286.8000;0.0928;-0.9299;
287.1000;0.0961;-0.9276;
287.4000;0.0928;-0.9254;
287.7000;0.0928;-0.9231;
288.0000;0.0944;-0.9231;
288.3000;0.0928;-0.9322;
288.6000;0.0944;-0.9367;
288.9000;0.0928;-0.9322;
289.2000;0.0920;-0.9457;
289.5000;0.0936;-0.9412;
289.8000;0.0912;-0.9457;
290.1000;0.0944;-0.9457;
290.4000;0.0904;-0.9570;
290.7000;0.0944;-0.9457;
291.0000;0.0912;-0.9480;
291.3000;0.0952;-0.9367;
291.6000;0.0944;-0.9435;
291.9000;0.0863;-0.9729;
292.2000;0.0904;-0.9593;
292.5000;0.0920;-0.9480;
292.8000;0.0912;-0.9457;
293.1000;0.0928;-0.9503;
293.4000;0.0944;-0.9548;
293.7000;0.0887;-0.9638;
294.0000;0.0961;-0.9412;
294.3000;0.0936;-0.9389;
294.6000;0.0944;-0.9254;
294.9000;0.1009;-0.9118;
295.2000;0.0977;-0.9163;
295.5000;0.0944;-0.9344;
295.8000;0.0733;-0.9842;
296.1000;0.0920;-0.9412;
296.4000;0.0936;-0.9389;
296.7000;0.0928;-0.9389;
297.0000;0.0920;-0.9435;
297.3000;0.0961;-0.9367;
297.6000;0.0871;-0.9525;
297.9000;0.0944;-0.9367;
298.2000;0.0961;-0.9367;
298.5000;0.0814;-0.9774;
298.8000;0.0936;-0.9367;
299.1000;0.0928;-0.9367;
299.4000;0.0936;-0.9276;
299.7000;0.0952;-0.9231;
300.0000;0.0879;-0.9525;
300.3000;0.0920;-0.9480;
300.6000;0.0928;-0.9480;
300.9000;0.0928;-0.9457;
301.2000;0.0952;-0.9435;
301.5000;0.0952;-0.9435;
301.8000;0.0912;-0.9570;
302.1000;0.0944;-0.9457;
302.4000;0.0961;-0.9367;
302.7000;0.0952;-0.9322;
303.0000;0.0928;-0.9322;
303.3000;0.0912;-0.9389;
303.6000;0.0952;-0.9344;
303.9000;0.0944;-0.9412;
304.2000;0.0969;-0.9412;
304.5000;0.0928;-0.9457;
304.8000;0.0952;-0.9435;
305.1000;0.0928;-0.9548;
305.4000;0.0944;-0.9503;
305.7000;0.0920;-0.9638;
306.0000;0.0961;-0.9503;
306.3000;0.0936;-0.9525;
306.6000;0.0822;-0.9729;
306.9000;0.0912;-0.9480;
307.2000;0.0952;-0.9457;
307.5000;0.0928;-0.9570;
307.8000;0.0952;-0.9503;
308.1000;0.0936;-0.9593;
308.4000;0.0936;-0.9570;
308.7000;0.0879;-0.9661;
309.0000;0.0952;-0.9344;
309.3000;0.0977;-0.9322;
309.6000;0.0904;-0.9344;
309.9000;0.0871;-0.9525;
310.2000;0.0961;-0.9276;
310.5000;0.0855;-0.9389;
310.8000;0.0944;-0.9208;
311.1000;0.0928;-0.9254;
311.4000;0.0961;-0.9141;
311.7000;0.0936;-0.9163;
312.0000;0.0920;-0.9186;
312.3000;0.0944;-0.9163;
312.6000;0.0936;-0.9163;
312.9000;0.0912;-0.9208;
313.2000;0.0952;-0.9186;
313.5000;0.0928;-0.9299;
313.8000;0.0944;-0.9231;
314.1000;0.0928;-0.9231;
314.4000;0.0936;-0.9163;
314.7000;0.0936;-0.9141;
315.0000;0.0936;-0.9163;
315.3000;0.0920;-0.9276;
315.6000;0.0920;-0.9344;
315.9000;0.0944;-0.9344;
316.2000;0.0936;-0.9367;
316.5000;0.0830;-0.9638;
316.8000;0.0928;-0.9389;
317.1000;0.0952;-0.9457;
317.4000;0.0944;-0.9457;
317.7000;0.0936;-0.9457;
318.0000;0.0936;-0.9457;
318.3000;0.0944;-0.9435;
318.6000;0.0952;-0.9389;
318.9000;0.0936;-0.9480;
319.2000;0.0936;-0.9525;
319.5000;0.0928;-0.9412;
319.8000;0.0944;-0.9344;
320.1000;0.0961;-0.9299;
320.4000;0.0952;-0.9254;
320.7000;0.1050;-0.8914;
321.0000;0.0928;-0.9208;
321.3000;0.0928;-0.9276;
321.6000;0.0904;-0.9412;
321.9000;0.0936;-0.9299;
322.2000;0.0928;-0.9276;
322.5000;0.0936;-0.9276;
322.8000;0.0928;-0.9344;
323.1000;0.0969;-0.9276;
323.4000;0.0936;-0.9435;
323.7000;0.0920;-0.9593;
324.0000;0.1018;-0.9299;
324.3000;0.0952;-0.9503;
324.6000;0.0871;-0.9684;
324.9000;0.0928;-0.9706;
325.2000;0.0887;-0.9729;
325.5000;0.0912;-0.9548;
325.8000;0.0928;-0.9503;
326.1000;0.0904;-0.9548;
326.4000;0.0936;-0.9503;
326.7000;0.0936;-0.9457;
327.0000;0.0936;-0.9367;
327.3000;0.0961;-0.9231;
327.6000;0.0952;-0.9276;
327.9000;0.0952;-0.9208;
328.2000;0.0912;-0.9299;
328.5000;0.0928;-0.9208;
328.8000;0.0928;-0.9208;
329.1000;0.0944;-0.9186;
329.4000;0.0936;-0.9276;
329.7000;0.0912;-0.9322;
330.0000;0.0944;-0.9276;
330.3000;0.0944;-0.9276;
330.6000;0.0944;-0.9322;
330.9000;0.0895;-0.9457;
331.2000;0.0952;-0.9254;
331.5000;0.0928;-0.9299;
331.8000;0.0977;-0.9186;
332.1000;0.0952;-0.9254;
332.4000;0.0855;-0.9480;
332.7000;0.0993;-0.9163;
333.0000;0.0928;-0.9299;
333.3000;0.0944;-0.9322;
333.6000;0.0952;-0.9389;
333.9000;0.0977;-0.9254;
334.2000;0.0944;-0.9276;
334.5000;0.0969;-0.9208;
334.8000;0.0985;-0.9231;
335.1000;0.0944;-0.9344;
335.4000;0.0920;-0.9457;
335.7000;0.0969;-0.9322;
336.0000;0.0928;-0.9525;
336.3000;0.0928;-0.9548;
336.6000;0.0944;-0.9412;
336.9000;0.0936;-0.9322;
337.2000;0.0936;-0.9367;
337.5000;0.0928;-0.9299;
337.8000;0.0920;-0.9344;
338.1000;0.0936;-0.9389;
338.4000;0.0952;-0.9503;
338.7000;0.0912;-0.9457;
339.0000;0.0920;-0.9412;
339.3000;0.0944;-0.9389;
339.6000;0.0977;-0.9276;
339.9000;0.0920;-0.9367;
340.2000;0.0920;-0.9299;
340.5000;0.0944;-0.9208;
340.8000;0.0944;-0.9208;
341.1000;0.0920;-0.9412;
341.4000;0.0944;-0.9344;
341.7000;0.0904;-0.9367;
342.0000;0.0936;-0.9367;
342.3000;0.0977;-0.9389;
342.6000;0.0928;-0.9570;
342.9000;0.0993;-0.9480;
343.2000;0.0944;-0.9548;
343.5000;0.0952;-0.9525;
343.8000;0.0952;-0.9503;
344.1000;0.0936;-0.9548;
344.4000;0.0928;-0.9503;
344.7000;0.0969;-0.9367;
345.0000;0.0944;-0.9367;
345.3000;0.0993;-0.9231;
345.6000;0.0847;-0.9570;
345.9000;0.0952;-0.9344;
346.2000;0.0904;-0.9435;
346.5000;0.0928;-0.9412;
346.8000;0.0928;-0.9457;
347.1000;0.0928;-0.9480;
347.4000;0.0928;-0.9503;
347.7000;0.0936;-0.9548;
348.0000;0.0936;-0.9503;
348.3000;0.0928;-0.9525;
348.6000;0.0961;-0.9548;
348.9000;0.0904;-0.9706;
349.2000;0.0944;-0.9616;
349.5000;0.0952;-0.9570;
349.8000;0.0928;-0.9751;
350.1000;0.0912;-0.9774;
350.4000;0.0961;-0.9593;
350.7000;0.0952;-0.9480;
351.0000;0.0977;-0.9367;
351.3000;0.0928;-0.9570;
351.6000;0.0912;-0.9525;
351.9000;0.0928;-0.9389;
352.2000;0.0944;-0.9435;
352.5000;0.0936;-0.9412;
352.8000;0.0928;-0.9435;
353.1000;0.0969;-0.9389;
353.4000;0.0952;-0.9548;
353.7000;0.0912;-0.9593;
354.0000;0.0936;-0.9548;
354.3000;0.0928;-0.9548;
354.6000;0.0977;-0.9457;
354.9000;0.0969;-0.9525;
355.2000;0.0944;-0.9661;
355.5000;0.0969;-0.9593;
355.8000;0.0920;-0.9638;
356.1000;0.0952;-0.9570;
356.4000;0.0912;-0.9638;
356.7000;0.0920;-0.9616;
357.0000;0.0936;-0.9525;
357.3000;0.0855;-0.9797;
357.6000;0.0928;-0.9570;
357.9000;0.0928;-0.9570;
358.2000;0.0920;-0.9548;
358.5000;0.0961;-0.9457;
358.8000;0.0928;-0.9435;
359.1000;0.0936;-0.9435;
359.4000;0.0969;-0.9480;
359.7000;0.0961;-0.9480;
360.0000;0.0961;-0.9412;
360.3000;0.0920;-0.9525;
360.6000;0.0936;-0.9457;
360.9000;0.0944;-0.9412;
361.2000;0.0920;-0.9525;
361.5000;0.0920;-0.9412;
361.8000;0.0936;-0.9367;
362.1000;0.0920;-0.9435;
362.4000;0.0944;-0.9389;
362.7000;0.1026;-0.9231;
363.0000;0.0944;-0.9503;
363.3000;0.0928;-0.9548;
363.6000;0.0887;-0.9638;
363.9000;0.0904;-0.9638;
364.2000;0.0847;-0.9819;
364.5000;0.0961;-0.9435;
364.8000;0.0920;-0.9570;
365.1000;0.0952;-0.9503;
365.4000;0.0985;-0.9412;
365.7000;0.0961;-0.9480;
366.0000;0.0977;-0.9412;
366.3000;0.0961;-0.9389;
366.6000;0.0985;-0.9322;
366.9000;0.0863;-0.9638;
367.2000;0.0936;-0.9457;
367.5000;0.0993;-0.9276;
367.8000;0.0952;-0.9322;
368.1000;0.0928;-0.9389;
368.4000;0.0920;-0.9435;
368.7000;0.0952;-0.9344;
369.0000;0.0944;-0.9344;
369.3000;0.0847;-0.9525;
369.6000;0.0944;-0.9276;
369.9000;0.0944;-0.9254;
370.2000;0.0912;-0.9208;
370.5000;0.0928;-0.9254;
370.8000;0.0936;-0.9299;
371.1000;0.0936;-0.9322;
371.4000;0.0928;-0.9299;
371.7000;0.0904;-0.9299;
372.0000;0.0944;-0.9208;
372.3000;0.0912;-0.9344;
372.6000;0.0936;-0.9299;
372.9000;0.0952;-0.9276;
373.2000;0.0920;-0.9344;
373.5000;0.0944;-0.9322;
373.8000;0.0936;-0.9276;
374.1000;0.0961;-0.9254;
374.4000;0.0936;-0.9299;
374.7000;0.0952;-0.9322;
375.0000;0.0944;-0.9254;
375.3000;0.0944;-0.9299;
375.6000;0.0936;-0.9344;
375.9000;0.0944;-0.9389;
376.2000;0.0936;-0.9367;
376.5000;0.0920;-0.9389;
376.8000;0.0952;-0.9389;
377.1000;0.0952;-0.9367;
377.4000;0.0944;-0.9435;
377.7000;0.0961;-0.9503;
378.0000;0.0944;-0.9435;
378.3000;0.0928;-0.9367;
378.6000;0.0912;-0.9344;
378.9000;0.0952;-0.9186;
379.2000;0.0920;-0.9186;
379.5000;0.0936;-0.9163;
379.8000;0.0830;-0.9435;
380.1000;0.0969;-0.9231;
380.4000;0.0936;-0.9322;
380.7000;0.0936;-0.9367;
381.0000;0.0798;-0.9684;
381.3000;0.0952;-0.9231;
381.6000;0.0928;-0.9276;
381.9000;0.0895;-0.9299;
382.2000;0.0928;-0.9276;
382.5000;0.0912;-0.9231;
382.8000;0.0936;-0.9208;
383.1000;0.0904;-0.9344;
383.4000;0.0904;-0.9412;
383.7000;0.0814;-0.9661;
384.0000;0.0952;-0.9276;
384.3000;0.0936;-0.9389;
384.6000;0.0920;-0.9389;
384.9000;0.0952;-0.9322;
385.2000;0.0936;-0.9299;
385.5000;0.0961;-0.9118;
385.8000;0.0936;-0.9186;
386.1000;0.0993;-0.9095;
386.4000;0.1001;-0.9050;
386.7000;0.0944;-0.9231;
387.0000;0.0952;-0.9231;
387.3000;0.0920;-0.9389;
387.6000;0.0952;-0.9344;
387.9000;0.0936;-0.9344;
388.2000;0.0904;-0.9480;
388.5000;0.0969;-0.9299;
388.8000;0.0855;-0.9548;
389.1000;0.0961;-0.9276;
389.4000;0.0863;-0.9503;
389.7000;0.0920;-0.9299;
390.0000;0.0928;-0.9322;
390.3000;0.0952;-0.9299;
390.6000;0.0936;-0.9299;
390.9000;0.0928;-0.9389;
391.2000;0.0879;-0.9548;
391.5000;0.0944;-0.9412;
391.8000;0.0936;-0.9480;
392.1000;0.0912;-0.9525;
392.4000;0.0847;-0.9638;
392.7000;0.0936;-0.9367;
393.0000;0.0944;-0.9344;
393.3000;0.0961;-0.9276;
393.6000;0.0944;-0.9322;
393.9000;0.0952;-0.9231;
394.2000;0.0977;-0.9276;
394.5000;0.0977;-0.9141;
394.8000;0.0944;-0.9141;
395.1000;0.0969;-0.9005;
395.4000;0.0952;-0.9095;
395.7000;0.0895;-0.9186;
396.0000;0.0936;-0.9118;
396.3000;0.0912;-0.9163;
396.6000;0.0944;-0.9073;
396.9000;0.0936;-0.9186;
397.2000;0.0944;-0.9299;
397.5000;0.0928;-0.9367;
397.8000;0.0944;-0.9254;
398.1000;0.0928;-0.9299;
398.4000;0.0952;-0.9231;
398.7000;0.0936;-0.9254;
399.0000;0.0912;-0.9299;
399.3000;0.0920;-0.9322;
399.6000;0.0969;-0.9141;
399.9000;0.0928;-0.9322;
400.2000;0.0952;-0.9389;
400.5000;0.0904;-0.9457;
400.8000;0.0969;-0.9299;
401.1000;0.0904;-0.9412;
401.4000;0.0936;-0.9322;
401.7000;0.0961;-0.9389;
402.0000;0.1026;-0.9208;
402.3000;0.0928;-0.9480;
402.6000;0.0920;-0.9457;
402.9000;0.0936;-0.9389;
403.2000;0.0904;-0.9457;
403.5000;0.0936;-0.9412;
403.8000;0.0952;-0.9412;
404.1000;0.0904;-0.9503;
404.4000;0.0936;-0.9412;
404.7000;0.0944;-0.9389;
405.0000;0.0944;-0.9367;
405.3000;0.0936;-0.9322;
405.6000;0.0920;-0.9367;
405.9000;0.0936;-0.9412;
406.2000;0.0977;-0.9412;
406.5000;0.0961;-0.9435;
406.8000;0.0806;-0.9616;
407.1000;0.0928;-0.9344;
407.4000;0.0969;-0.9299;
407.7000;0.0952;-0.9276;
408.0000;0.0928;-0.9299;
408.3000;0.0952;-0.9186;
408.6000;0.0936;-0.9344;
408.9000;0.1009;-0.9186;
409.2000;0.0961;-0.9231;
409.5000;0.0928;-0.9389;
409.8000;0.0944;-0.9276;
410.1000;0.0944;-0.9254;
410.4000;0.0952;-0.9254;
410.7000;0.0952;-0.9367;
411.0000;0.0928;-0.9412;
411.3000;0.0904;-0.9435;
411.6000;0.0936;-0.9344;
411.9000;0.0928;-0.9322;
412.2000;0.0952;-0.9254;
412.5000;0.0928;-0.9254;
412.8000;0.0920;-0.9163;
413.1000;0.0977;-0.9005;
413.4000;0.0952;-0.9005;
413.7000;0.0936;-0.9027;
414.0000;0.0912;-0.9005;
414.3000;0.1026;-0.8801;
414.6000;0.0936;-0.9027;
414.9000;0.0912;-0.9027;
415.2000;0.0961;-0.8960;
415.5000;0.0969;-0.8937;
415.8000;0.0944;-0.9095;
416.1000;0.0920;-0.9299;
416.4000;0.0952;-0.9118;
416.7000;0.0936;-0.9186;
417.0000;0.0969;-0.9141;
417.3000;0.0952;-0.9118;
417.6000;0.0944;-0.9163;
417.9000;0.0936;-0.9208;
418.2000;0.0936;-0.9231;
418.5000;0.1009;-0.9050;
418.8000;0.0944;-0.9208;
419.1000;0.0928;-0.9163;
419.4000;0.0977;-0.9118;
419.7000;0.0936;-0.9186;
420.0000;0.0830;-0.9367;
420.3000;0.0936;-0.9163;
420.6000;0.0944;-0.9163;
420.9000;0.0977;-0.9050;
421.2000;0.0936;-0.9276;
421.5000;0.0944;-0.9367;
421.8000;0.0936;-0.9435;
422.1000;0.0920;-0.9525;
422.4000;0.0936;-0.9480;
422.7000;0.0936;-0.9480;
423.0000;0.0920;-0.9412;
423.3000;0.0912;-0.9367;
423.6000;0.0928;-0.9322;
423.9000;0.0928;-0.9412;
424.2000;0.0936;-0.9435;
424.5000;0.0952;-0.9389;
424.8000;0.0920;-0.9435;
425.1000;0.0952;-0.9299;
425.4000;0.0912;-0.9389;
425.7000;0.0985;-0.9050;
426.0000;0.0936;-0.9163;
426.3000;0.0928;-0.9208;
426.6000;0.0936;-0.9141;
426.9000;0.0912;-0.9186;
427.2000;0.0928;-0.9118;
427.5000;0.0920;-0.9186;
427.8000;0.0773;-0.9570;
428.1000;0.0952;-0.9141;
428.4000;0.0952;-0.9186;
428.7000;0.0936;-0.9208;
429.0000;0.0952;-0.9163;
429.3000;0.0961;-0.9163;
429.6000;0.0952;-0.9231;
429.9000;0.0961;-0.9163;
430.2000;0.0969;-0.9095;
430.5000;0.0952;-0.9163;
430.8000;0.1018;-0.9050;
431.1000;0.0969;-0.9254;
431.4000;0.0936;-0.9344;
431.7000;0.0928;-0.9344;
432.0000;0.0928;-0.9344;
432.3000;0.0969;-0.9322;
432.6000;0.0895;-0.9435;
432.9000;0.0920;-0.9367;
433.2000;0.0928;-0.9276;
433.5000;0.0936;-0.9231;
433.8000;0.0936;-0.9299;
434.1000;0.0985;-0.9254;
434.4000;0.0936;-0.9344;
434.7000;0.0920;-0.9344;
435.0000;0.0920;-0.9367;
435.3000;0.0961;-0.9322;
435.6000;0.0928;-0.9435;
435.9000;0.0961;-0.9276;
436.2000;0.0920;-0.9367;
436.5000;0.0912;-0.9389;
436.8000;0.0895;-0.9457;
437.1000;0.0904;-0.9457;
437.4000;0.0920;-0.9367;
437.7000;0.0936;-0.9276;
438.0000;0.0920;-0.9276;
438.3000;0.0969;-0.9186;
438.6000;0.0928;-0.9322;
438.9000;0.0822;-0.9638;
439.2000;0.0993;-0.9186;
439.5000;0.0928;-0.9367;
439.8000;0.0952;-0.9389;
440.1000;0.0977;-0.9344;
440.4000;0.0847;-0.9661;
440.7000;0.0741;-0.9978;
441.0000;0.0952;-0.9412;
441.3000;0.0928;-0.9480;
441.6000;0.0863;-0.9548;
441.9000;0.0936;-0.9457;
442.2000;0.0863;-0.9616;
442.5000;0.0928;-0.9457;
442.8000;0.0936;-0.9480;
443.1000;0.0871;-0.9638;
443.4000;0.0928;-0.9525;
443.7000;0.1026;-0.9254;
444.0000;0.0961;-0.9435;
444.3000;0.0936;-0.9480;
444.6000;0.0920;-0.9480;
444.9000;0.0961;-0.9299;
445.2000;0.0961;-0.9254;
445.5000;0.0912;-0.9299;
445.8000;0.0961;-0.9095;
446.1000;0.0928;-0.9163;
446.4000;0.0961;-0.9027;
446.7000;0.0928;-0.9118;
447.0000;0.0928;-0.9186;
447.3000;0.0952;-0.9208;
447.6000;0.0944;-0.9322;
447.9000;0.0912;-0.9389;
448.2000;0.0912;-0.9457;
448.5000;0.0936;-0.9389;
448.8000;0.0887;-0.9503;
449.1000;0.0895;-0.9525;
449.4000;0.0871;-0.9503;
449.7000;0.0936;-0.9276;
450.0000;0.0920;-0.9344;
450.3000;0.0961;-0.9322;
450.6000;0.0969;-0.9254;
450.9000;0.0969;-0.9208;
451.2000;0.0928;-0.9254;
451.5000;0.0912;-0.9367;
451.8000;0.0961;-0.9254;
452.1000;0.0961;-0.9276;
452.4000;0.0936;-0.9367;
452.7000;0.0920;-0.9435;
453.0000;0.0944;-0.9344;
453.3000;0.0928;-0.9503;
453.6000;0.0928;-0.9525;
453.9000;0.0944;-0.9525;
454.2000;0.0920;-0.9616;
454.5000;0.0920;-0.9503;
454.8000;0.0944;-0.9457;
455.1000;0.0952;-0.9367;
455.4000;0.0936;-0.9367;
455.7000;0.0936;-0.9389;
456.0000;0.0936;-0.9367;
456.3000;0.0944;-0.9344;
456.6000;0.0936;-0.9412;
456.9000;0.0904;-0.9548;
457.2000;0.0952;-0.9344;
457.5000;0.0936;-0.9322;
457.8000;0.0871;-0.9503;
458.1000;0.0814;-0.9525;
458.4000;0.0944;-0.9276;
458.7000;0.0928;-0.9186;
459.0000;0.0944;-0.9163;
459.3000;0.0847;-0.9389;
459.6000;0.0928;-0.9276;
459.9000;0.0952;-0.9095;
460.2000;0.0952;-0.9163;
460.5000;0.0952;-0.9163;
460.8000;0.0944;-0.9254;
461.1000;0.0944;-0.9276;
461.4000;0.0977;-0.9118;
461.7000;0.1018;-0.8982;
462.0000;0.0928;-0.9231;
462.3000;0.0920;-0.9276;
462.6000;0.0912;-0.9254;
462.9000;0.0928;-0.9208;
463.2000;0.0912;-0.9276;
463.5000;0.0928;-0.9322;
463.8000;0.0928;-0.9367;
464.1000;0.0952;-0.9389;
464.4000;0.0952;-0.9457;
464.7000;0.0993;-0.9322;
465.0000;0.0928;-0.9412;
465.3000;0.0961;-0.9367;
465.6000;0.0855;-0.9593;
465.9000;0.0920;-0.9480;
466.2000;0.0928;-0.9525;
466.5000;0.0928;-0.9525;
466.8000;0.0936;-0.9412;
467.1000;0.0920;-0.9503;
467.4000;0.0912;-0.9548;
467.7000;0.0952;-0.9367;
468.0000;0.0928;-0.9480;
468.3000;0.0920;-0.9389;
468.6000;0.0944;-0.9344;
468.9000;0.0928;-0.9367;
469.2000;0.0928;-0.9344;
469.5000;0.0936;-0.9254;
469.8000;0.0879;-0.9616;
470.1000;0.0895;-0.9503;
470.4000;0.0904;-0.9480;
470.7000;0.0936;-0.9367;
471.0000;0.0928;-0.9412;
471.3000;0.0936;-0.9367;
471.6000;0.0920;-0.9435;
471.9000;0.0920;-0.9389;
472.2000;0.0920;-0.9389;
472.5000;0.0928;-0.9344;
472.8000;0.0961;-0.9344;
473.1000;0.0920;-0.9480;
473.4000;0.0952;-0.9480;
473.7000;0.0912;-0.9503;
474.0000;0.0936;-0.9435;
474.3000;0.0895;-0.9412;
474.6000;0.0928;-0.9344;
474.9000;0.0928;-0.9367;
475.2000;0.0936;-0.9254;
475.5000;0.0920;-0.9344;
475.8000;0.0928;-0.9344;
476.1000;0.0928;-0.9367;
476.4000;0.0961;-0.9299;
476.7000;0.0944;-0.9322;
477.0000;0.0912;-0.9344;
477.3000;0.0912;-0.9344;
477.6000;0.0904;-0.9367;
477.9000;0.0993;-0.9073;
478.2000;0.0952;-0.9027;
478.5000;0.0928;-0.9050;
478.8000;0.0928;-0.9141;
479.1000;0.0936;-0.9050;
479.4000;0.0781;-0.9480;
479.7000;0.0961;-0.9005;
480.0000;0.0944;-0.9073;
480.3000;0.0993;-0.8937;
480.6000;0.0977;-0.8960;
480.9000;0.0936;-0.9073;
481.2000;0.1034;-0.8869;
481.5000;0.0920;-0.9118;
481.8000;0.1009;-0.8892;
482.1000;0.0920;-0.9027;
482.4000;0.0920;-0.9027;
482.7000;0.0961;-0.8937;
483.0000;0.0952;-0.9073;
483.3000;0.0961;-0.9118;
483.6000;0.0936;-0.9276;
483.9000;0.1018;-0.9141;
484.2000;0.0879;-0.9435;
484.5000;0.0928;-0.9389;
484.8000;0.0928;-0.9322;
485.1000;0.1034;-0.9163;
485.4000;0.0952;-0.9389;
485.7000;0.0936;-0.9435;
486.0000;0.0977;-0.9208;
486.3000;0.0806;-0.9616;
486.6000;0.0961;-0.9118;
486.9000;0.0961;-0.9141;
487.2000;0.0944;-0.9254;
487.5000;0.0928;-0.9276;
487.8000;0.0928;-0.9231;
488.1000;0.0912;-0.9208;
488.4000;0.0879;-0.9344;
488.7000;0.0936;-0.9276;
489.0000;0.0928;-0.9322;
489.3000;0.0928;-0.9322;
489.6000;0.0912;-0.9367;
489.9000;0.0936;-0.9389;
490.2000;0.0920;-0.9412;
490.5000;0.0961;-0.9389;
490.8000;0.0904;-0.9503;
491.1000;0.0879;-0.9480;
491.4000;0.0928;-0.9344;
491.7000;0.0912;-0.9367;
492.0000;0.0944;-0.9231;
492.3000;0.0904;-0.9367;
492.6000;0.0904;-0.9412;
492.9000;0.0944;-0.9367;
493.2000;0.0936;-0.9367;
493.5000;0.0961;-0.9299;
493.8000;0.0952;-0.9344;
494.1000;0.0952;-0.9299;
494.4000;0.0952;-0.9276;
494.7000;0.0912;-0.9299;
495.0000;0.0928;-0.9299;
495.3000;0.0920;-0.9299;
495.6000;0.0912;-0.9299;
495.9000;0.0920;-0.9299;
496.2000;0.0928;-0.9254;
496.5000;0.0961;-0.9141;
496.8000;0.0895;-0.9344;
497.1000;0.0944;-0.9231;
497.4000;0.0912;-0.9299;
497.7000;0.0936;-0.9344;
498.0000;0.0944;-0.9254;
498.3000;0.0936;-0.9163;
498.6000;0.0936;-0.9163;
498.9000;0.1034;-0.8756;
499.2000;0.0944;-0.9073;
499.5000;0.0969;-0.9118;
499.8000;0.0952;-0.9231;
500.1000;0.0912;-0.9322;
500.4000;0.0920;-0.9254;
500.7000;0.0944;-0.9141;
501.0000;0.0961;-0.9208;
501.3000;0.0944;-0.9254;
501.6000;0.0904;-0.9231;
501.9000;0.0952;-0.9186;
502.2000;0.0912;-0.9344;
502.5000;0.0952;-0.9231;
502.8000;0.0920;-0.9299;
503.1000;0.0920;-0.9367;
503.4000;0.0993;-0.9118;
503.7000;0.0855;-0.9503;
504.0000;0.0977;-0.9254;
504.3000;0.0920;-0.9389;
504.6000;0.0936;-0.9412;
504.9000;0.0904;-0.9593;
505.2000;0.0904;-0.9661;
505.5000;0.0904;-0.9616;
505.8000;0.0961;-0.9435;
506.1000;0.0912;-0.9503;
506.4000;0.0928;-0.9503;
506.7000;0.0969;-0.9457;
507.0000;0.0944;-0.9412;
507.3000;0.0871;-0.9593;
507.6000;0.0952;-0.9412;
507.9000;0.0928;-0.9412;
508.2000;0.0928;-0.9435;
508.5000;0.0895;-0.9593;
508.8000;0.0928;-0.9503;
509.1000;0.0928;-0.9389;
509.4000;0.0944;-0.9299;
509.7000;0.0936;-0.9231;
510.0000;0.0855;-0.9367;
510.3000;0.0969;-0.9118;
510.6000;0.0936;-0.9254;
510.9000;0.0936;-0.9322;
511.2000;0.1009;-0.9141;
511.5000;0.0912;-0.9299;
511.8000;0.0928;-0.9299;
512.1000;0.0961;-0.9299;
512.4000;0.0928;-0.9322;
512.7000;0.0920;-0.9344;
513.0000;0.0830;-0.9548;
513.3000;0.0928;-0.9254;
513.6000;0.0928;-0.9276;
513.9000;0.0985;-0.9141;
514.2000;0.0920;-0.9186;
514.5000;0.0920;-0.9276;
514.8000;0.0961;-0.9208;
515.1000;0.0928;-0.9231;
515.4000;0.0952;-0.9141;
515.7000;0.0944;-0.9276;
516.0000;0.0944;-0.9254;
516.3000;0.0952;-0.9208;
516.6000;0.0952;-0.9254;
516.9000;0.0920;-0.9276;
517.2000;0.0961;-0.9208;
517.5000;0.0961;-0.9163;
517.8000;0.0887;-0.9344;
518.1000;0.0928;-0.9299;
518.4000;0.0936;-0.9254;
518.7000;0.0928;-0.9141;
519.0000;0.0944;-0.9095;
519.3000;0.0838;-0.9480;
519.6000;0.0969;-0.9073;
519.9000;0.0993;-0.9027;
520.2000;0.0936;-0.9141;
520.5000;0.1042;-0.9027;
520.8000;0.0993;-0.9208;
521.1000;0.0952;-0.9208;
521.4000;0.1009;-0.9073;
521.7000;0.0961;-0.9254;
522.0000;0.0936;-0.9322;
522.3000;0.0961;-0.9231;
522.6000;0.0904;-0.9322;
522.9000;0.0961;-0.9163;
523.2000;0.0944;-0.9254;
523.5000;0.0928;-0.9322;
523.8000;0.0952;-0.9412;
524.1000;0.0969;-0.9367;
524.4000;0.0936;-0.9457;
524.7000;0.0944;-0.9344;
525.0000;0.0944;-0.9299;
525.3000;0.0952;-0.9299;
525.6000;0.0790;-0.9593;
525.9000;0.0936;-0.9276;
526.2000;0.0944;-0.9208;
526.5000;0.0912;-0.9344;
526.8000;0.0936;-0.9186;
527.1000;0.0912;-0.9299;
527.4000;0.0936;-0.9208;
527.7000;0.0920;-0.9322;
528.0000;0.1001;-0.9163;
528.3000;0.0912;-0.9367;
528.6000;0.0928;-0.9367;
528.9000;0.0961;-0.9276;
529.2000;0.0920;-0.9367;
529.5000;0.0928;-0.9412;
529.8000;0.0952;-0.9412;
530.1000;0.0912;-0.9412;
530.4000;0.0920;-0.9389;
530.7000;0.0912;-0.9457;
531.0000;0.0952;-0.9322;
531.3000;0.0920;-0.9367;
531.6000;0.1034;-0.9141;
531.9000;0.0920;-0.9412;
532.2000;0.0887;-0.9457;
532.5000;0.0993;-0.9163;
532.8000;0.0936;-0.9367;
533.1000;0.0863;-0.9548;
533.4000;0.0936;-0.9435;
533.7000;0.0936;-0.9503;
534.0000;0.0961;-0.9435;
534.3000;0.0895;-0.9593;
534.6000;0.0920;-0.9525;
534.9000;0.0952;-0.9389;
535.2000;0.0936;-0.9299;
535.5000;0.0969;-0.9163;
535.8000;0.0944;-0.9299;
536.1000;0.0790;-0.9729;
536.4000;0.0944;-0.9367;
536.7000;0.0928;-0.9412;
537.0000;0.0838;-0.9593;
537.3000;0.0920;-0.9435;
537.6000;0.0936;-0.9525;
537.9000;0.0928;-0.9548;
538.2000;0.0944;-0.9412;
538.5000;0.0928;-0.9480;
538.8000;0.0936;-0.9480;
539.1000;0.0952;-0.9480;
539.4000;0.0928;-0.9593;
539.7000;0.0936;-0.9593;
540.0000;0.0952;-0.9593;
540.3000;0.0961;-0.9480;
540.6000;0.0944;-0.9548;
540.9000;0.0985;-0.9322;
541.2000;0.0952;-0.9389;
541.5000;0.0928;-0.9412;
541.8000;0.0936;-0.9389;
542.1000;0.0904;-0.9525;
542.4000;0.0936;-0.9525;
542.7000;0.0961;-0.9570;
543.0000;0.0936;-0.9616;
543.3000;0.0936;-0.9638;
543.6000;0.0936;-0.9638;
543.9000;0.0936;-0.9593;
544.2000;0.0944;-0.9457;
544.5000;0.0936;-0.9457;
544.8000;0.0936;-0.9457;
545.1000;0.0952;-0.9435;
545.4000;0.0944;-0.9480;
545.7000;0.0944;-0.9435;
546.0000;0.0952;-0.9435;
546.3000;0.0961;-0.9344;
546.6000;0.0944;-0.9412;
546.9000;0.0928;-0.9367;
547.2000;0.0936;-0.9299;
547.5000;0.0887;-0.9412;
547.8000;0.0936;-0.9322;
548.1000;0.0936;-0.9322;
548.4000;0.0952;-0.9186;
548.7000;0.0920;-0.9186;
549.0000;0.0936;-0.9208;
549.3000;0.0944;-0.9208;
549.6000;0.0928;-0.9322;
549.9000;0.0936;-0.9276;
550.2000;0.0936;-0.9276;
550.5000;0.0871;-0.9525;
550.8000;0.1034;-0.9141;
551.1000;0.0928;-0.9412;
551.4000;0.0952;-0.9299;
551.7000;0.0912;-0.9389;
552.0000;0.0977;-0.9186;
552.3000;0.0912;-0.9299;
552.6000;0.0920;-0.9344;
552.9000;0.0920;-0.9367;
553.2000;0.0830;-0.9570;
553.5000;0.0952;-0.9322;
553.8000;0.0912;-0.9367;
554.1000;0.0936;-0.9254;
554.4000;0.0895;-0.9231;
554.7000;0.0936;-0.9231;
555.0000;0.0838;-0.9503;
555.3000;0.0928;-0.9276;
555.6000;0.0798;-0.9616;
555.9000;0.0952;-0.9344;
556.2000;0.0936;-0.9367;
556.5000;0.0944;-0.9322;
556.8000;0.0936;-0.9344;
557.1000;0.0936;-0.9322;
557.4000;0.0904;-0.9367;
557.7000;0.0928;-0.9231;
558.0000;0.0928;-0.9276;
558.3000;0.0961;-0.9254;
558.6000;0.0944;-0.9254;
558.9000;0.0961;-0.9186;
559.2000;0.0928;-0.9276;
559.5000;0.0936;-0.9276;
559.8000;0.0928;-0.9254;
560.1000;0.0928;-0.9231;
560.4000;0.0944;-0.9186;
560.7000;0.0952;-0.9186;
561.0000;0.0985;-0.9118;
561.3000;0.0952;-0.9208;
561.6000;0.0969;-0.9163;
561.9000;0.0969;-0.9073;
562.2000;0.0928;-0.9186;
562.5000;0.0928;-0.9163;
562.8000;0.1018;-0.8869;
563.1000;0.0936;-0.9141;
563.4000;0.0912;-0.9254;
563.7000;0.0936;-0.9163;
564.0000;0.0912;-0.9186;
564.3000;0.0936;-0.9254;
564.6000;0.0879;-0.9457;
564.9000;0.0887;-0.9503;
565.2000;0.0928;-0.9480;
565.5000;0.0952;-0.9412;
565.8000;0.1026;-0.9299;
566.1000;0.0936;-0.9548;
566.4000;0.0944;-0.9525;
566.7000;0.0952;-0.9457;
567.0000;0.0936;-0.9480;
567.3000;0.0944;-0.9322;
567.6000;0.0936;-0.9299;
567.9000;0.0928;-0.9367;
568.2000;0.0936;-0.9367;
568.5000;0.0863;-0.9525;
568.8000;0.0920;-0.9457;
569.1000;0.0920;-0.9389;
569.4000;0.0944;-0.9367;
569.7000;0.0920;-0.9389;
570.0000;0.0879;-0.9548;
570.3000;0.1042;-0.9095;
570.6000;0.0961;-0.9276;
570.9000;0.1001;-0.9073;
571.2000;0.0952;-0.9299;
571.5000;0.0944;-0.9276;
571.8000;0.0928;-0.9344;
572.1000;0.0928;-0.9299;
572.4000;0.0928;-0.9322;
572.7000;0.1001;-0.9254;
573.0000;0.0920;-0.9367;
573.3000;0.0928;-0.9254;
573.6000;0.1001;-0.8937;
573.9000;0.1083;-0.8801;
574.2000;0.0936;-0.9163;
574.5000;0.0944;-0.9073;
574.8000;0.0920;-0.9163;
575.1000;0.0969;-0.9073;
575.4000;0.0985;-0.8960;
575.7000;0.1050;-0.8688;
576.0000;0.0952;-0.8914;
576.3000;0.0855;-0.9231;
576.6000;0.0936;-0.8982;
576.9000;0.1058;-0.8779;
577.2000;0.0977;-0.9005;
577.5000;0.0952;-0.9141;
577.8000;0.0920;-0.9208;
578.1000;0.1009;-0.9050;
578.4000;0.0912;-0.9299;
578.7000;0.0928;-0.9231;
579.0000;0.0830;-0.9593;
579.3000;0.1091;-0.8937;
579.6000;0.0895;-0.9457;
579.9000;0.0944;-0.9254;
580.2000;0.0904;-0.9344;
580.5000;0.0928;-0.9322;
580.8000;0.0952;-0.9231;
581.1000;0.0928;-0.9231;
581.4000;0.0920;-0.9254;
581.7000;0.0912;-0.9322;
582.0000;0.0920;-0.9231;
582.3000;0.0936;-0.9141;
582.6000;0.0952;-0.9073;
582.9000;0.0944;-0.9027;
583.2000;0.0928;-0.9027;
583.5000;0.0928;-0.9050;
583.8000;0.1018;-0.8801;
584.1000;0.0912;-0.9095;
584.4000;0.0936;-0.9186;
584.7000;0.0895;-0.9276;
585.0000;0.0944;-0.9186;
585.3000;0.0920;-0.9208;
585.6000;0.0961;-0.9141;
585.9000;0.0961;-0.9163;
586.2000;0.0952;-0.9254;
586.5000;0.0928;-0.9254;
586.8000;0.0952;-0.9163;
587.1000;0.0920;-0.9322;
587.4000;0.0912;-0.9457;
587.7000;0.0944;-0.9254;
588.0000;0.0904;-0.9276;
588.3000;0.0936;-0.9163;
588.6000;0.0936;-0.9073;
588.9000;0.0936;-0.9027;
589.2000;0.0904;-0.9095;
589.5000;0.0936;-0.9005;
589.8000;0.0936;-0.9050;
590.1000;0.1001;-0.8869;
590.4000;0.0961;-0.9073;
590.7000;0.0944;-0.9141;
591.0000;0.0928;-0.9208;
591.3000;0.0977;-0.9095;
591.6000;0.0879;-0.9322;
591.9000;0.0993;-0.8960;
592.2000;0.0928;-0.9118;
592.5000;0.0936;-0.9005;
592.8000;0.0871;-0.9231;
593.1000;0.0928;-0.9095;
593.4000;0.0952;-0.8960;
593.7000;0.0952;-0.8960;
594.0000;0.0928;-0.9005;
594.3000;0.0961;-0.8937;
594.6000;0.0952;-0.8914;
594.9000;0.0936;-0.8960;
595.2000;0.0936;-0.9073;
595.5000;0.0936;-0.9050;
595.8000;0.0961;-0.8914;
596.1000;0.0936;-0.8982;
596.4000;0.0936;-0.9027;
596.7000;0.0887;-0.9141;
597.0000;0.1083;-0.8733;
597.3000;0.0961;-0.9027;
597.6000;0.0944;-0.9095;
597.9000;0.0936;-0.9141;
598.2000;0.0895;-0.9254;
598.5000;0.0912;-0.9231;
598.8000;0.0944;-0.9163;
599.1000;0.0936;-0.9208;
599.4000;0.0928;-0.9231;
599.7000;0.1026;-0.9050;
600.0000;0.0952;-0.9299;
600.3000;0.0920;-0.9367;
600.6000;0.0895;-0.9412;
600.9000;0.0863;-0.9616;
601.2000;0.0928;-0.9457;
601.5000;0.0920;-0.9503;
601.8000;0.0895;-0.9616;
602.1000;0.0887;-0.9684;
602.4000;0.0920;-0.9638;
602.7000;0.0928;-0.9616;
603.0000;0.0879;-0.9706;
603.3000;0.0895;-0.9751;
603.6000;0.0887;-0.9819;
603.9000;0.0895;-0.9774;
604.2000;0.0871;-0.9887;
604.5000;0.0879;-1.0023;
604.8000;0.0879;-1.0068;
605.1000;0.0814;-1.0317;
605.4000;0.0863;-1.0227;
605.7000;0.0920;-1.0091;
606.0000;0.0822;-1.0362;
606.3000;0.0895;-1.0272;
606.6000;0.0863;-1.0362;
606.9000;0.0855;-1.0385;
607.2000;0.0887;-1.0272;
607.5000;0.0879;-1.0249;
607.8000;0.0887;-1.0272;
608.1000;0.0855;-1.0453;
608.4000;0.0871;-1.0430;
608.7000;0.0863;-1.0385;
609.0000;0.0830;-1.0498;
609.3000;0.0863;-1.0566;
609.6000;0.0838;-1.0521;
609.9000;0.0879;-1.0475;
610.2000;0.0920;-1.0385;
610.5000;0.0863;-1.0521;
610.8000;0.0879;-1.0430;
611.1000;0.0847;-1.0521;
611.4000;0.0855;-1.0589;
611.7000;0.0847;-1.0611;
612.0000;0.0855;-1.0543;
612.3000;0.0871;-1.0453;
612.6000;0.0912;-1.0317;
612.9000;0.0871;-1.0362;
613.2000;0.0830;-1.0408;
613.5000;0.0838;-1.0408;
613.8000;0.0928;-1.0159;
614.1000;0.0871;-1.0294;
614.4000;0.0765;-1.0543;
614.7000;0.0847;-1.0294;
615.0000;0.0757;-1.0475;
615.3000;0.0944;-0.9955;
615.6000;0.0830;-1.0249;
615.9000;0.0830;-1.0227;
616.2000;0.0830;-1.0249;
616.5000;0.0871;-1.0136;
616.8000;0.0855;-1.0204;
617.1000;0.0838;-1.0294;
617.4000;0.0855;-1.0249;
617.7000;0.0871;-1.0204;
618.0000;0.0855;-1.0227;
618.3000;0.0847;-1.0294;
618.6000;0.0855;-1.0294;
618.9000;0.0847;-1.0340;
619.2000;0.0838;-1.0340;
619.5000;0.0830;-1.0294;
619.8000;0.0806;-1.0385;
620.1000;0.0814;-1.0453;
620.4000;0.0830;-1.0475;
620.7000;0.0822;-1.0521;
621.0000;0.0838;-1.0453;
621.3000;0.0798;-1.0566;
621.6000;0.0855;-1.0475;
621.9000;0.0822;-1.0475;
622.2000;0.0798;-1.0385;
622.5000;0.0847;-1.0227;
622.8000;0.0838;-1.0227;
623.1000;0.0741;-1.0498;
623.4000;0.0838;-1.0272;
623.7000;0.0863;-1.0249;
624.0000;0.0814;-1.0430;
624.3000;0.0757;-1.0634;
624.6000;0.0838;-1.0362;
624.9000;0.0863;-1.0385;
625.2000;0.0895;-1.0249;
625.5000;0.0847;-1.0272;
625.8000;0.0838;-1.0249;
626.1000;0.0936;-1.0023;
626.4000;0.0855;-1.0249;
626.7000;0.0847;-1.0294;
627.0000;0.0879;-1.0204;
627.3000;0.0830;-1.0317;
627.6000;0.0863;-1.0317;
627.9000;0.0855;-1.0317;
628.2000;0.0773;-1.0521;
628.5000;0.0830;-1.0453;
628.8000;0.0838;-1.0408;
629.1000;0.0855;-1.0453;
629.4000;0.0822;-1.0566;
629.7000;0.0838;-1.0566;
630.0000;0.0806;-1.0679;
630.3000;0.0830;-1.0498;
630.6000;0.0847;-1.0340;
630.9000;0.0830;-1.0475;
631.2000;0.0773;-1.0611;
631.5000;0.0757;-1.0589;
631.8000;0.0863;-1.0408;
632.1000;0.0822;-1.0453;
632.4000;0.0838;-1.0408;
632.7000;0.0790;-1.0475;
633.0000;0.0822;-1.0362;
633.3000;0.0790;-1.0498;
633.6000;0.0798;-1.0453;
633.9000;0.0806;-1.0408;
634.2000;0.0847;-1.0294;
634.5000;0.0830;-1.0340;
634.8000;0.0838;-1.0272;
635.1000;0.0830;-1.0317;
635.4000;0.0863;-1.0227;
635.7000;0.0847;-1.0294;
636.0000;0.0855;-1.0227;
636.3000;0.0741;-1.0498;
636.6000;0.0855;-1.0113;
636.9000;0.0814;-1.0317;
637.2000;0.0847;-1.0159;
637.5000;0.0814;-1.0294;
637.8000;0.0822;-1.0340;
638.1000;0.0781;-1.0498;
638.4000;0.0781;-1.0498;
638.7000;0.0822;-1.0408;
639.0000;0.0830;-1.0340;
639.3000;0.0912;-1.0113;
639.6000;0.0773;-1.0430;
639.9000;0.0814;-1.0362;
640.2000;0.0790;-1.0385;
640.5000;0.0757;-1.0521;
640.8000;0.0830;-1.0317;
641.1000;0.0830;-1.0362;
641.4000;0.0847;-1.0362;
641.7000;0.0822;-1.0430;
642.0000;0.0838;-1.0385;
642.3000;0.0798;-1.0543;
642.6000;0.0822;-1.0498;
642.9000;0.0814;-1.0340;
643.2000;0.0822;-1.0340;
643.5000;0.0830;-1.0272;
643.8000;0.0822;-1.0294;
644.1000;0.0790;-1.0317;
644.4000;0.0822;-1.0181;
644.7000;0.0814;-1.0249;
645.0000;0.0838;-1.0294;
645.3000;0.0773;-1.0408;
645.6000;0.0790;-1.0408;
645.9000;0.0708;-1.0770;
646.2000;0.0798;-1.0566;
646.5000;0.0790;-1.0521;
646.8000;0.0814;-1.0521;
647.1000;0.0806;-1.0543;
647.4000;0.0814;-1.0566;
647.7000;0.0798;-1.0611;
648.0000;0.0798;-1.0521;
648.3000;0.0814;-1.0385;
648.6000;0.0806;-1.0362;
648.9000;0.0773;-1.0385;
649.2000;0.0773;-1.0340;
649.5000;0.0781;-1.0294;
649.8000;0.0806;-1.0159;
650.1000;0.0781;-1.0249;
650.4000;0.0806;-1.0294;
650.7000;0.0798;-1.0317;
651.0000;0.0814;-1.0340;
651.3000;0.0822;-1.0340;
651.6000;0.0814;-1.0340;
651.9000;0.0822;-1.0385;
652.2000;0.0814;-1.0294;
652.5000;0.0806;-1.0385;
652.8000;0.0781;-1.0634;
653.1000;0.0790;-1.0566;
653.4000;0.0806;-1.0498;
653.7000;0.0847;-1.0430;
654.0000;0.0806;-1.0566;
654.3000;0.0798;-1.0521;
654.6000;0.0798;-1.0453;
654.9000;0.0822;-1.0340;
655.2000;0.0708;-1.0634;
655.5000;0.0798;-1.0385;
655.8000;0.0830;-1.0249;
656.1000;0.0790;-1.0385;
656.4000;0.0790;-1.0362;
656.7000;0.0814;-1.0362;
657.0000;0.0806;-1.0385;
657.3000;0.0806;-1.0362;
657.6000;0.0790;-1.0475;
657.9000;0.0806;-1.0521;
658.2000;0.0814;-1.0543;
658.5000;0.0798;-1.0589;
658.8000;0.0781;-1.0611;
659.1000;0.0773;-1.0543;
659.4000;0.0798;-1.0521;
659.7000;0.0806;-1.0521;
660.0000;0.0887;-1.0294;
660.3000;0.0814;-1.0408;
660.6000;0.0814;-1.0385;
660.9000;0.0806;-1.0340;
661.2000;0.0814;-1.0294;
661.5000;0.0806;-1.0227;
661.8000;0.0798;-1.0181;
662.1000;0.0790;-1.0181;
662.4000;0.0790;-1.0204;
662.7000;0.0798;-1.0294;
663.0000;0.0790;-1.0340;
663.3000;0.0822;-1.0272;
663.6000;0.0757;-1.0385;
663.9000;0.0790;-1.0385;
664.2000;0.0790;-1.0430;
664.5000;0.0765;-1.0475;
664.8000;0.0806;-1.0475;
665.1000;0.0806;-1.0566;
665.4000;0.0798;-1.0566;
665.7000;0.0814;-1.0566;
666.0000;0.0830;-1.0611;
666.3000;0.0806;-1.0611;
666.6000;0.0822;-1.0611;
666.9000;0.0806;-1.0611;
667.2000;0.0814;-1.0566;
667.5000;0.0806;-1.0611;
667.8000;0.0790;-1.0747;
668.1000;0.0773;-1.0747;
668.4000;0.0871;-1.0521;
668.7000;0.0790;-1.0656;
669.0000;0.0806;-1.0611;
669.3000;0.0765;-1.0634;
669.6000;0.0741;-1.0724;
669.9000;0.0790;-1.0566;
670.2000;0.0814;-1.0589;
670.5000;0.0847;-1.0475;
670.8000;0.0806;-1.0498;
671.1000;0.0822;-1.0362;
671.4000;0.0830;-1.0136;
671.7000;0.0798;-1.0204;
672.0000;0.0798;-1.0249;
672.3000;0.0773;-1.0362;
672.6000;0.0806;-1.0340;
672.9000;0.0822;-1.0272;
673.2000;0.0887;-1.0113;
673.5000;0.0798;-1.0317;
673.8000;0.0798;-1.0294;
674.1000;0.0806;-1.0385;
674.4000;0.0790;-1.0430;
674.7000;0.0830;-1.0362;
675.0000;0.0781;-1.0475;
675.3000;0.0781;-1.0453;
675.6000;0.0806;-1.0453;
675.9000;0.0790;-1.0498;
676.2000;0.0749;-1.0566;
676.5000;0.0822;-1.0453;
676.8000;0.0798;-1.0453;
677.1000;0.0798;-1.0543;
677.4000;0.0847;-1.0453;
677.7000;0.0806;-1.0589;
678.0000;0.0871;-1.0453;
678.3000;0.0790;-1.0679;
678.6000;0.0790;-1.0566;
678.9000;0.0798;-1.0543;
679.2000;0.0790;-1.0589;
679.5000;0.0781;-1.0634;
679.8000;0.0798;-1.0543;
680.1000;0.0814;-1.0453;
680.4000;0.0798;-1.0543;
680.7000;0.0830;-1.0408;
681.0000;0.0798;-1.0543;
681.3000;0.0814;-1.0475;
681.6000;0.0781;-1.0566;
681.9000;0.0806;-1.0566;
682.2000;0.0830;-1.0521;
682.5000;0.0838;-1.0475;
682.8000;0.0798;-1.0634;
683.1000;0.0798;-1.0656;
683.4000;0.0798;-1.0634;
683.7000;0.0700;-1.0860;
684.0000;0.0798;-1.0566;
684.3000;0.0790;-1.0543;
684.6000;0.0733;-1.0724;
684.9000;0.0708;-1.0724;
685.2000;0.0773;-1.0589;
685.5000;0.0798;-1.0498;
685.8000;0.0798;-1.0453;
686.1000;0.0822;-1.0385;
686.4000;0.0749;-1.0521;
686.7000;0.0879;-1.0204;
687.0000;0.0733;-1.0566;
687.3000;0.0781;-1.0521;
687.6000;0.0806;-1.0589;
687.9000;0.0790;-1.0521;
688.2000;0.0798;-1.0498;
688.5000;0.0798;-1.0475;
688.8000;0.0790;-1.0498;
689.1000;0.0765;-1.0543;
689.4000;0.0781;-1.0589;
689.7000;0.0790;-1.0611;
690.0000;0.0684;-1.0837;
690.3000;0.0781;-1.0589;
690.6000;0.0798;-1.0566;
690.9000;0.0806;-1.0566;
691.2000;0.0790;-1.0634;
691.5000;0.0822;-1.0589;
691.8000;0.0790;-1.0634;
692.1000;0.0863;-1.0521;
692.4000;0.0798;-1.0724;
692.7000;0.0790;-1.0747;
693.0000;0.0733;-1.0792;
693.3000;0.0708;-1.0837;
693.6000;0.0830;-1.0498;
693.9000;0.0781;-1.0634;
694.2000;0.0773;-1.0702;
694.5000;0.0855;-1.0475;
694.8000;0.0798;-1.0589;
695.1000;0.0822;-1.0521;
695.4000;0.0790;-1.0589;
695.7000;0.0773;-1.0611;
696.0000;0.0773;-1.0521;
696.3000;0.0790;-1.0430;
696.6000;0.0765;-1.0498;
696.9000;0.0781;-1.0408;
697.2000;0.0790;-1.0385;
697.5000;0.0757;-1.0498;
697.8000;0.0871;-1.0181;
698.1000;0.0806;-1.0340;
698.4000;0.0781;-1.0317;
698.7000;0.0798;-1.0294;
699.0000;0.0871;-0.9978;
699.3000;0.0781;-1.0362;
699.6000;0.0790;-1.0408;
699.9000;0.0790;-1.0498;
700.2000;0.0790;-1.0521;
700.5000;0.0798;-1.0543;
700.8000;0.0790;-1.0566;
701.1000;0.0830;-1.0385;
701.4000;0.0814;-1.0498;
701.7000;0.0733;-1.0566;
702.0000;0.0781;-1.0453;
702.3000;0.0781;-1.0453;
702.6000;0.0806;-1.0453;
702.9000;0.0936;-1.0091;
703.2000;0.0806;-1.0475;
703.5000;0.0757;-1.0634;
703.8000;0.0790;-1.0566;
704.1000;0.0790;-1.0656;
704.4000;0.0781;-1.0679;
704.7000;0.0757;-1.0611;
705.0000;0.0765;-1.0589;
705.3000;0.0781;-1.0634;
705.6000;0.0765;-1.0679;
705.9000;0.0790;-1.0589;
706.2000;0.0781;-1.0475;
706.5000;0.0798;-1.0453;
706.8000;0.0757;-1.0543;
707.1000;0.0798;-1.0385;
707.4000;0.0749;-1.0430;
707.7000;0.0798;-1.0385;
708.0000;0.0700;-1.0611;
708.3000;0.0790;-1.0498;
708.6000;0.0912;-1.0227;
708.9000;0.0773;-1.0634;
709.2000;0.0814;-1.0521;
709.5000;0.0806;-1.0521;
709.8000;0.0806;-1.0498;
710.1000;0.0781;-1.0589;
710.4000;0.0773;-1.0702;
710.7000;0.0822;-1.0521;
711.0000;0.0773;-1.0724;
711.3000;0.0773;-1.0770;
711.6000;0.0757;-1.0860;
711.9000;0.0741;-1.0905;
712.2000;0.0765;-1.0724;
712.5000;0.0790;-1.0679;
712.8000;0.0781;-1.0611;
713.1000;0.0781;-1.0634;
713.4000;0.0757;-1.0656;
713.7000;0.0781;-1.0589;
714.0000;0.0790;-1.0543;
714.3000;0.0724;-1.0702;
714.6000;0.0749;-1.0521;
714.9000;0.0765;-1.0430;
715.2000;0.0765;-1.0498;
715.5000;0.0790;-1.0521;
715.8000;0.0814;-1.0543;
716.1000;0.0765;-1.0702;
716.4000;0.0814;-1.0566;
716.7000;0.0773;-1.0656;
717.0000;0.0806;-1.0589;
717.3000;0.0716;-1.0928;
717.6000;0.0765;-1.0770;
717.9000;0.0790;-1.0611;
718.2000;0.0855;-1.0385;
718.5000;0.0798;-1.0475;
718.8000;0.0773;-1.0475;
719.1000;0.1018;-0.9887;
719.4000;0.0790;-1.0362;
719.7000;0.0822;-1.0340;
720.0000;0.0773;-1.0566;
720.3000;0.0749;-1.0589;
720.6000;0.0790;-1.0453;
720.9000;0.0814;-1.0430;
721.2000;0.0773;-1.0498;
721.5000;0.0741;-1.0543;
721.8000;0.0798;-1.0521;
722.1000;0.0790;-1.0362;
722.4000;0.0765;-1.0453;
722.7000;0.0733;-1.0408;
723.0000;0.0667;-1.0679;
723.3000;0.0757;-1.0498;
723.6000;0.0830;-1.0362;
723.9000;0.0643;-1.0747;
724.2000;0.0806;-1.0430;
724.5000;0.0781;-1.0498;
724.8000;0.0773;-1.0589;
725.1000;0.0781;-1.0589;
725.4000;0.0814;-1.0543;
725.7000;0.0749;-1.0702;
726.0000;0.0765;-1.0656;
726.3000;0.0871;-1.0385;
726.6000;0.0757;-1.0679;
726.9000;0.0757;-1.0702;
727.2000;0.0781;-1.0656;
727.5000;0.0790;-1.0611;
727.8000;0.0741;-1.0770;
728.1000;0.0822;-1.0634;
728.4000;0.0765;-1.0702;
728.7000;0.0765;-1.0634;
729.0000;0.0790;-1.0566;
729.3000;0.0773;-1.0566;
729.6000;0.0724;-1.0679;
729.9000;0.0781;-1.0521;
730.2000;0.0781;-1.0430;
730.5000;0.0781;-1.0475;
730.8000;0.0798;-1.0430;
731.1000;0.0749;-1.0521;
731.4000;0.0781;-1.0453;
731.7000;0.0627;-1.0792;
732.0000;0.0798;-1.0340;
732.3000;0.0765;-1.0430;
732.6000;0.0790;-1.0362;
732.9000;0.0757;-1.0430;
733.2000;0.0781;-1.0498;
733.5000;0.0773;-1.0566;
733.8000;0.0773;-1.0498;
734.1000;0.0741;-1.0589;
734.4000;0.0781;-1.0498;
734.7000;0.0806;-1.0475;
735.0000;0.0773;-1.0543;
735.3000;0.0790;-1.0566;
735.6000;0.0781;-1.0543;
735.9000;0.0773;-1.0589;
736.2000;0.0790;-1.0589;
736.5000;0.0773;-1.0679;
736.8000;0.0741;-1.0747;
737.1000;0.0765;-1.0702;
737.4000;0.0773;-1.0702;
737.7000;0.0757;-1.0656;
738.0000;0.0798;-1.0543;
738.3000;0.0773;-1.0611;
738.6000;0.0749;-1.0656;
738.9000;0.0773;-1.0656;
739.2000;0.0757;-1.0702;
739.5000;0.0847;-1.0453;
739.8000;0.0765;-1.0634;
740.1000;0.0773;-1.0679;
740.4000;0.0749;-1.0656;
740.7000;0.0781;-1.0611;
741.0000;0.0749;-1.0679;
741.3000;0.0781;-1.0589;
741.6000;0.0781;-1.0566;
741.9000;0.0765;-1.0634;
742.2000;0.0733;-1.0634;
742.5000;0.0781;-1.0589;
742.8000;0.0749;-1.0724;
743.1000;0.0749;-1.0702;
743.4000;0.0798;-1.0543;
743.7000;0.0887;-1.0317;
744.0000;0.0798;-1.0475;
744.3000;0.0773;-1.0656;
744.6000;0.0741;-1.0747;
744.9000;0.0781;-1.0656;
745.2000;0.0822;-1.0566;
745.5000;0.0781;-1.0611;
745.8000;0.0749;-1.0543;
746.1000;0.0781;-1.0430;
746.4000;0.0790;-1.0453;
746.7000;0.0684;-1.0770;
747.0000;0.0773;-1.0566;
747.3000;0.0773;-1.0521;
747.6000;0.0814;-1.0498;
747.9000;0.0749;-1.0724;
748.2000;0.0855;-1.0566;
748.5000;0.0912;-1.0385;
748.8000;0.0765;-1.0656;
749.1000;0.0716;-1.0837;
749.4000;0.0773;-1.0702;
749.7000;0.0773;-1.0724;
750.0000;0.0757;-1.0815;
750.3000;0.0781;-1.0656;
750.6000;0.0790;-1.0747;
750.9000;0.0724;-1.0928;
751.2000;0.0781;-1.0770;
751.5000;0.0700;-1.0951;
751.8000;0.0855;-1.0566;
752.1000;0.0781;-1.0792;
752.4000;0.0871;-1.0589;
752.7000;0.0847;-1.0634;
753.0000;0.0773;-1.0770;
753.3000;0.0790;-1.0702;
753.6000;0.0781;-1.0679;
753.9000;0.0781;-1.0724;
754.2000;0.0790;-1.0634;
754.5000;0.0790;-1.0611;
754.8000;0.0830;-1.0498;
755.1000;0.0798;-1.0543;
755.4000;0.0781;-1.0543;
755.7000;0.0781;-1.0566;
756.0000;0.0830;-1.0498;
756.3000;0.0781;-1.0634;
756.6000;0.0790;-1.0656;
756.9000;0.0757;-1.0702;
757.2000;0.0773;-1.0656;
757.5000;0.0814;-1.0566;
757.8000;0.0773;-1.0566;
758.1000;0.0781;-1.0543;
758.4000;0.0781;-1.0543;
758.7000;0.0814;-1.0453;
759.0000;0.0798;-1.0475;
759.3000;0.0749;-1.0566;
759.6000;0.0790;-1.0385;
759.9000;0.0773;-1.0498;
760.2000;0.0781;-1.0589;
760.5000;0.0757;-1.0566;
760.8000;0.0765;-1.0498;
761.1000;0.0863;-1.0272;
761.4000;0.0773;-1.0566;
761.7000;0.0790;-1.0634;
762.0000;0.0773;-1.0589;
762.3000;0.0790;-1.0498;
762.6000;0.0790;-1.0475;
762.9000;0.0765;-1.0498;
763.2000;0.0765;-1.0566;
763.5000;0.0676;-1.0747;
763.8000;0.0757;-1.0566;
764.1000;0.0773;-1.0521;
764.4000;0.0765;-1.0589;
764.7000;0.0749;-1.0724;
765.0000;0.0781;-1.0679;
765.3000;0.0790;-1.0634;
765.6000;0.0790;-1.0543;
765.9000;0.0765;-1.0543;
766.2000;0.0741;-1.0566;
766.5000;0.0781;-1.0408;
766.8000;0.0765;-1.0408;
767.1000;0.0781;-1.0453;
767.4000;0.0749;-1.0453;
767.7000;0.0773;-1.0430;
768.0000;0.0871;-1.0272;
768.3000;0.0798;-1.0453;
768.6000;0.0855;-1.0317;
768.9000;0.0773;-1.0589;
769.2000;0.0830;-1.0340;
769.5000;0.0757;-1.0498;
769.8000;0.0651;-1.0792;
770.1000;0.0781;-1.0543;
770.4000;0.0765;-1.0566;
770.7000;0.0733;-1.0656;
771.0000;0.0749;-1.0589;
771.3000;0.0765;-1.0566;
771.6000;0.0765;-1.0589;
771.9000;0.0798;-1.0611;
772.2000;0.0741;-1.0860;
772.5000;0.0781;-1.0792;
772.8000;0.0887;-1.0611;
773.1000;0.0749;-1.0883;
773.4000;0.0765;-1.0792;
773.7000;0.0814;-1.0589;
774.0000;0.0798;-1.0498;
774.3000;0.0773;-1.0543;
774.6000;0.0700;-1.0770;
774.9000;0.0765;-1.0543;
775.2000;0.0781;-1.0475;
775.5000;0.0765;-1.0566;
775.8000;0.0773;-1.0634;
776.1000;0.0773;-1.0566;
776.4000;0.0781;-1.0521;
776.7000;0.0781;-1.0453;
777.0000;0.0798;-1.0430;
777.3000;0.0765;-1.0430;
777.6000;0.0847;-1.0159;
777.9000;0.0643;-1.0747;
778.2000;0.0773;-1.0521;
778.5000;0.0733;-1.0589;
778.8000;0.0765;-1.0453;
779.1000;0.0749;-1.0589;
779.4000;0.0781;-1.0521;
779.7000;0.0798;-1.0453;
780.0000;0.0741;-1.0521;
780.3000;0.0773;-1.0430;
780.6000;0.0773;-1.0453;
780.9000;0.0757;-1.0634;
781.2000;0.0781;-1.0656;
781.5000;0.0757;-1.0702;
781.8000;0.0757;-1.0702;
782.1000;0.0749;-1.0634;
782.4000;0.0765;-1.0566;
782.7000;0.0724;-1.0702;
783.0000;0.0716;-1.0792;
783.3000;0.0790;-1.0656;
783.6000;0.0781;-1.0566;
783.9000;0.0806;-1.0521;
784.2000;0.0798;-1.0543;
784.5000;0.0781;-1.0521;
784.8000;0.0798;-1.0453;
785.1000;0.0798;-1.0408;
785.4000;0.0806;-1.0408;
785.7000;0.0798;-1.0475;
786.0000;0.0773;-1.0475;
786.3000;0.0773;-1.0498;
786.6000;0.0765;-1.0589;
786.9000;0.0765;-1.0679;
787.2000;0.0749;-1.0724;
787.5000;0.0773;-1.0702;
787.8000;0.0790;-1.0770;
788.1000;0.0700;-1.1018;
788.4000;0.0798;-1.0792;
788.7000;0.0781;-1.0883;
789.0000;0.0765;-1.0883;
789.3000;0.0765;-1.0792;
789.6000;0.0757;-1.0905;
789.9000;0.0757;-1.0815;
790.2000;0.0765;-1.0815;
790.5000;0.0806;-1.0679;
790.8000;0.0790;-1.0611;
791.1000;0.0773;-1.0634;
791.4000;0.0765;-1.0611;
791.7000;0.0773;-1.0611;
792.0000;0.0773;-1.0498;
792.3000;0.0781;-1.0521;
792.6000;0.0790;-1.0498;
792.9000;0.0781;-1.0475;
793.2000;0.0765;-1.0566;
793.5000;0.0871;-1.0340;
793.8000;0.0765;-1.0634;
794.1000;0.0741;-1.0747;
794.4000;0.0781;-1.0724;
794.7000;0.0879;-1.0430;
795.0000;0.0847;-1.0521;
795.3000;0.0790;-1.0611;
795.6000;0.0773;-1.0724;
795.9000;0.0773;-1.0792;
796.2000;0.0765;-1.0770;
796.5000;0.0757;-1.0747;
796.8000;0.0741;-1.0837;
797.1000;0.0765;-1.0883;
797.4000;0.0765;-1.0905;
797.7000;0.0790;-1.0747;
798.0000;0.0790;-1.0679;
798.3000;0.0757;-1.0724;
798.6000;0.0855;-1.0634;
798.9000;0.0765;-1.0905;
799.2000;0.0765;-1.0837;
799.5000;0.0773;-1.0815;
799.8000;0.0667;-1.1041;
800.1000;0.0790;-1.0724;
800.4000;0.0798;-1.0679;
800.7000;0.0765;-1.0679;
801.0000;0.0773;-1.0656;
801.3000;0.0781;-1.0679;
801.6000;0.0781;-1.0656;
801.9000;0.0773;-1.0702;
802.2000;0.0765;-1.0679;
802.5000;0.0757;-1.0770;
802.8000;0.0700;-1.0815;
803.1000;0.0790;-1.0543;
803.4000;0.0790;-1.0566;
803.7000;0.0733;-1.0747;
804.0000;0.0790;-1.0702;
804.3000;0.0765;-1.0747;
804.6000;0.0773;-1.0656;
804.9000;0.0757;-1.0702;
805.2000;0.0773;-1.0679;
805.5000;0.0765;-1.0679;
805.8000;0.0749;-1.0656;
806.1000;0.0773;-1.0792;
806.4000;0.0781;-1.0770;
806.7000;0.0798;-1.0589;
807.0000;0.0749;-1.0679;
807.3000;0.0773;-1.0679;
807.6000;0.0733;-1.0702;
807.9000;0.0692;-1.0815;
808.2000;0.0765;-1.0656;
808.5000;0.0733;-1.0702;
808.8000;0.0741;-1.0589;
809.1000;0.0765;-1.0634;
809.4000;0.0781;-1.0566;
809.7000;0.0765;-1.0656;
810.0000;0.0765;-1.0679;
810.3000;0.0749;-1.0815;
810.6000;0.0781;-1.0792;
810.9000;0.0773;-1.0747;
811.2000;0.0830;-1.0634;
811.5000;0.0814;-1.0679;
811.8000;0.0773;-1.0837;
812.1000;0.0757;-1.0905;
812.4000;0.0781;-1.0928;
812.7000;0.0749;-1.0996;
813.0000;0.0765;-1.0905;
813.3000;0.0733;-1.0996;
813.6000;0.0765;-1.0860;
813.9000;0.0773;-1.0792;
814.2000;0.0904;-1.0453;
814.5000;0.0773;-1.0611;
814.8000;0.0790;-1.0498;
815.1000;0.0814;-1.0430;
815.4000;0.0749;-1.0566;
815.7000;0.0806;-1.0430;
816.0000;0.0676;-1.0837;
816.3000;0.0765;-1.0521;
816.6000;0.0765;-1.0543;
816.9000;0.0749;-1.0611;
817.2000;0.0781;-1.0702;
817.5000;0.0790;-1.0747;
817.8000;0.0643;-1.1086;
818.1000;0.0749;-1.0770;
818.4000;0.0773;-1.0724;
818.7000;0.0716;-1.0860;
819.0000;0.0741;-1.0815;
819.3000;0.0773;-1.0656;
819.6000;0.0749;-1.0679;
819.9000;0.0781;-1.0611;
820.2000;0.0773;-1.0543;
820.5000;0.0708;-1.0634;
820.8000;0.0773;-1.0498;
821.1000;0.0765;-1.0543;
821.4000;0.0765;-1.0543;
821.7000;0.0773;-1.0475;
822.0000;0.0781;-1.0566;
822.3000;0.0781;-1.0589;
822.6000;0.0781;-1.0679;
822.9000;0.0781;-1.0815;
823.2000;0.0773;-1.0837;
823.5000;0.0773;-1.0905;
823.8000;0.0716;-1.1064;
824.1000;0.0806;-1.0815;
824.4000;0.0806;-1.0724;
824.7000;0.0659;-1.1086;
825.0000;0.0822;-1.0679;
825.3000;0.0757;-1.0815;
825.6000;0.0773;-1.0770;
825.9000;0.0798;-1.0815;
826.2000;0.0781;-1.0770;
826.5000;0.0765;-1.0837;
826.8000;0.0781;-1.0770;
827.1000;0.0741;-1.0951;
827.4000;0.0781;-1.0996;
827.7000;0.0765;-1.1018;
828.0000;0.0773;-1.0996;
828.3000;0.0765;-1.1041;
828.6000;0.0749;-1.0973;
828.9000;0.0871;-1.0566;
829.2000;0.0765;-1.0770;
829.5000;0.0757;-1.0724;
829.8000;0.0765;-1.0724;
830.1000;0.0790;-1.0589;
830.4000;0.0765;-1.0611;
830.7000;0.0765;-1.0634;
831.0000;0.0773;-1.0543;
831.3000;0.0781;-1.0498;
831.6000;0.0667;-1.0792;
831.9000;0.0798;-1.0498;
832.2000;0.0790;-1.0498;
832.5000;0.0773;-1.0589;
832.8000;0.0773;-1.0611;
833.1000;0.0733;-1.0702;
833.4000;0.0781;-1.0521;
833.7000;0.0814;-1.0453;
834.0000;0.0773;-1.0611;
834.3000;0.0741;-1.0724;
834.6000;0.0790;-1.0634;
834.9000;0.0765;-1.0724;
835.2000;0.0765;-1.0724;
835.5000;0.0757;-1.0702;
835.8000;0.0773;-1.0611;
836.1000;0.0814;-1.0543;
836.4000;0.0749;-1.0702;
836.7000;0.0773;-1.0634;
837.0000;0.0724;-1.0747;
837.3000;0.0724;-1.0792;
837.6000;0.0798;-1.0634;
837.9000;0.0765;-1.0679;
838.2000;0.0708;-1.0837;
838.5000;0.0773;-1.0679;
838.8000;0.0773;-1.0679;
839.1000;0.0757;-1.0702;
839.4000;0.0757;-1.0679;
839.7000;0.0708;-1.0837;
840.0000;0.0773;-1.0634;
840.3000;0.0757;-1.0634;
840.6000;0.0733;-1.0679;
840.9000;0.0773;-1.0566;
841.2000;0.0847;-1.0408;
841.5000;0.0781;-1.0634;
841.8000;0.0806;-1.0566;
842.1000;0.0773;-1.0679;
842.4000;0.0765;-1.0679;
842.7000;0.0749;-1.0589;
843.0000;0.0773;-1.0543;
843.3000;0.0765;-1.0543;
843.6000;0.0757;-1.0589;
843.9000;0.0724;-1.0724;
844.2000;0.0773;-1.0634;
844.5000;0.0781;-1.0724;
844.8000;0.0757;-1.0837;
845.1000;0.0781;-1.0747;
845.4000;0.0765;-1.0770;
845.7000;0.0741;-1.0837;
846.0000;0.0741;-1.0837;
846.3000;0.0765;-1.0860;
846.6000;0.0765;-1.0837;
846.9000;0.0798;-1.0770;
847.2000;0.0757;-1.0860;
847.5000;0.0773;-1.0770;
847.8000;0.0814;-1.0656;
848.1000;0.0757;-1.0815;
848.4000;0.0773;-1.0792;
848.7000;0.0798;-1.0634;
849.0000;0.0838;-1.0611;
849.3000;0.0781;-1.0724;
849.6000;0.0822;-1.0702;
849.9000;0.0741;-1.0905;
850.2000;0.0798;-1.0815;
850.5000;0.0773;-1.0815;
850.8000;0.0781;-1.0792;
851.1000;0.0781;-1.0883;
851.4000;0.0790;-1.0860;
851.7000;0.0806;-1.0792;
852.0000;0.0781;-1.0860;
852.3000;0.0773;-1.0815;
852.6000;0.0773;-1.0792;
852.9000;0.0798;-1.0837;
853.2000;0.0773;-1.0837;
853.5000;0.0765;-1.0815;
853.8000;0.0773;-1.0702;
854.1000;0.0765;-1.0747;
854.4000;0.0781;-1.0770;
854.7000;0.0757;-1.0747;
855.0000;0.0773;-1.0679;
855.3000;0.0765;-1.0747;
855.6000;0.0757;-1.0770;
855.9000;0.0733;-1.0905;
856.2000;0.0749;-1.0928;
856.5000;0.0773;-1.0815;
856.8000;0.0790;-1.0747;
857.1000;0.0773;-1.0770;
857.4000;0.0806;-1.0724;
857.7000;0.0790;-1.0634;
858.0000;0.0773;-1.0747;
858.3000;0.0765;-1.0702;
858.6000;0.0708;-1.0928;
858.9000;0.0765;-1.0837;
859.2000;0.0757;-1.0837;
859.5000;0.0765;-1.0724;
859.8000;0.0798;-1.0634;
860.1000;0.0757;-1.0724;
860.4000;0.0765;-1.0747;
860.7000;0.0749;-1.0747;
861.0000;0.0814;-1.0543;
861.3000;0.0765;-1.0702;
861.6000;0.0757;-1.0634;
861.9000;0.0830;-1.0521;
862.2000;0.0716;-1.0860;
862.5000;0.0781;-1.0724;
862.8000;0.0773;-1.0702;
863.1000;0.0847;-1.0408;
863.4000;0.0765;-1.0498;
863.7000;0.0781;-1.0498;
864.0000;0.0781;-1.0521;
864.3000;0.0757;-1.0475;
864.6000;0.0781;-1.0453;
864.9000;0.0806;-1.0521;
865.2000;0.0773;-1.0702;
865.5000;0.0781;-1.0589;
865.8000;0.0773;-1.0521;
866.1000;0.0773;-1.0362;
866.4000;0.0781;-1.0430;
866.7000;0.0790;-1.0408;
867.0000;0.0765;-1.0385;
867.3000;0.0781;-1.0362;
867.6000;0.0798;-1.0408;
867.9000;0.0773;-1.0475;
868.2000;0.0781;-1.0498;
868.5000;0.0765;-1.0475;
868.8000;0.0757;-1.0521;
869.1000;0.0773;-1.0498;
869.4000;0.0781;-1.0430;
869.7000;0.0773;-1.0408;
870.0000;0.0765;-1.0453;
870.3000;0.0749;-1.0430;
870.6000;0.0781;-1.0294;
870.9000;0.0781;-1.0362;
871.2000;0.0773;-1.0385;
871.5000;0.0773;-1.0362;
871.8000;0.0863;-1.0159;
872.1000;0.0757;-1.0453;
872.4000;0.0765;-1.0408;
872.7000;0.0781;-1.0453;
873.0000;0.0790;-1.0453;
873.3000;0.0765;-1.0498;
873.6000;0.0708;-1.0611;
873.9000;0.0765;-1.0475;
874.2000;0.0749;-1.0498;
874.5000;0.0757;-1.0498;
874.8000;0.0790;-1.0385;
875.1000;0.0765;-1.0362;
875.4000;0.0757;-1.0430;
875.7000;0.0806;-1.0340;
876.0000;0.0773;-1.0566;
876.3000;0.0773;-1.0521;
876.6000;0.0773;-1.0543;
876.9000;0.0757;-1.0589;
877.2000;0.0781;-1.0453;
877.5000;0.0790;-1.0430;
877.8000;0.0773;-1.0362;
878.1000;0.0790;-1.0317;
878.4000;0.0798;-1.0340;
878.7000;0.0741;-1.0453;
879.0000;0.0708;-1.0543;
879.3000;0.0765;-1.0521;
879.6000;0.0781;-1.0498;
879.9000;0.0627;-1.0883;
880.2000;0.0773;-1.0543;
880.5000;0.0757;-1.0566;
880.8000;0.0765;-1.0543;
881.1000;0.0806;-1.0475;
881.4000;0.0741;-1.0566;
881.7000;0.0790;-1.0498;
882.0000;0.0773;-1.0475;
882.3000;0.0773;-1.0521;
882.6000;0.0781;-1.0385;
882.9000;0.0895;-1.0091;
883.2000;0.0781;-1.0317;
883.5000;0.0765;-1.0317;
883.8000;0.0781;-1.0249;
884.1000;0.0757;-1.0294;
884.4000;0.0781;-1.0272;
884.7000;0.0773;-1.0249;
885.0000;0.0741;-1.0385;
885.3000;0.0765;-1.0249;
885.6000;0.0757;-1.0249;
885.9000;0.0871;-0.9955;
886.2000;0.0757;-1.0317;
886.5000;0.0757;-1.0362;
886.8000;0.0733;-1.0543;
887.1000;0.0790;-1.0385;
887.4000;0.0765;-1.0385;
887.7000;0.0765;-1.0362;
888.0000;0.0822;-1.0227;
888.3000;0.0781;-1.0385;
888.6000;0.0741;-1.0521;
888.9000;0.0749;-1.0408;
889.2000;0.0781;-1.0385;
889.5000;0.0733;-1.0634;
889.8000;0.0765;-1.0430;
890.1000;0.0765;-1.0498;
890.4000;0.0773;-1.0566;
890.7000;0.0708;-1.0792;
891.0000;0.0790;-1.0543;
891.3000;0.0765;-1.0498;
891.6000;0.0790;-1.0498;
891.9000;0.0781;-1.0566;
892.2000;0.0773;-1.0634;
892.5000;0.0757;-1.0656;
892.8000;0.0773;-1.0656;
893.1000;0.0765;-1.0702;
893.4000;0.0798;-1.0611;
893.7000;0.0749;-1.0611;
894.0000;0.0765;-1.0589;
894.3000;0.0765;-1.0566;
894.6000;0.0773;-1.0611;
894.9000;0.0830;-1.0453;
895.2000;0.0765;-1.0566;
895.5000;0.0757;-1.0566;
895.8000;0.0627;-1.0905;
896.1000;0.0781;-1.0475;
896.4000;0.0749;-1.0589;
896.7000;0.0773;-1.0589;
897.0000;0.0781;-1.0566;
897.3000;0.0773;-1.0543;
897.6000;0.0765;-1.0543;
897.9000;0.0757;-1.0543;
898.2000;0.0765;-1.0475;
898.5000;0.0749;-1.0543;
898.8000;0.0773;-1.0498;
899.1000;0.0773;-1.0475;
899.4000;0.0765;-1.0453;
899.7000;0.0773;-1.0543;
900.0000;0.0667;-1.0815;
900.3000;0.0733;-1.0679;
900.6000;0.0773;-1.0543;
900.9000;0.0790;-1.0611;
901.2000;0.0773;-1.0679;
901.5000;0.0781;-1.0634;
901.8000;0.0781;-1.0634;
902.1000;0.0781;-1.0589;
902.4000;0.0773;-1.0566;
902.7000;0.0741;-1.0611;
903.0000;0.0781;-1.0566;
903.3000;0.0773;-1.0566;
903.6000;0.0781;-1.0656;
903.9000;0.0757;-1.0679;
904.2000;0.0667;-1.0973;
904.5000;0.0765;-1.0724;
904.8000;0.0773;-1.0634;
905.1000;0.0847;-1.0385;
905.4000;0.0773;-1.0430;
905.7000;0.0773;-1.0475;
906.0000;0.0749;-1.0521;
906.3000;0.0765;-1.0430;
906.6000;0.0602;-1.0679;
906.9000;0.0806;-1.0272;
907.2000;0.0781;-1.0294;
907.5000;0.0806;-1.0227;
907.8000;0.0806;-1.0340;
908.1000;0.0790;-1.0385;
908.4000;0.0790;-1.0408;
908.7000;0.0781;-1.0453;
909.0000;0.0781;-1.0611;
909.3000;0.0757;-1.0634;
909.6000;0.0708;-1.0770;
909.9000;0.0741;-1.0702;
910.2000;0.0765;-1.0634;
910.5000;0.0773;-1.0589;
910.8000;0.0749;-1.0589;
911.1000;0.0757;-1.0475;
911.4000;0.0773;-1.0430;
911.7000;0.0887;-1.0113;
912.0000;0.0757;-1.0430;
912.3000;0.0773;-1.0340;
912.6000;0.0757;-1.0362;
912.9000;0.0790;-1.0317;
913.2000;0.0724;-1.0589;
913.5000;0.0765;-1.0521;
913.8000;0.0773;-1.0566;
914.1000;0.0781;-1.0634;
914.4000;0.0838;-1.0498;
914.7000;0.0749;-1.0634;
915.0000;0.0773;-1.0521;
915.3000;0.0765;-1.0543;
915.6000;0.0741;-1.0656;
915.9000;0.0749;-1.0521;
916.2000;0.0757;-1.0408;
916.5000;0.0757;-1.0430;
916.8000;0.0887;-1.0000;
917.1000;0.0765;-1.0340;
917.4000;0.0773;-1.0385;
917.7000;0.0765;-1.0362;
918.0000;0.0806;-1.0272;
918.3000;0.0765;-1.0385;
918.6000;0.0749;-1.0340;
918.9000;0.0676;-1.0566;
919.2000;0.0757;-1.0385;
919.5000;0.0790;-1.0294;
919.8000;0.0765;-1.0362;
920.1000;0.0749;-1.0362;
920.4000;0.0773;-1.0272;
920.7000;0.0749;-1.0362;
921.0000;0.0757;-1.0340;
921.3000;0.0798;-1.0362;
921.6000;0.0814;-1.0249;
921.9000;0.0814;-1.0272;
922.2000;0.0749;-1.0498;
922.5000;0.0871;-1.0159;
922.8000;0.0749;-1.0430;
923.1000;0.0790;-1.0272;
923.4000;0.0749;-1.0317;
923.7000;0.0765;-1.0385;
924.0000;0.0781;-1.0430;
924.3000;0.0781;-1.0430;
924.6000;0.0781;-1.0498;
924.9000;0.0773;-1.0566;
925.2000;0.0798;-1.0475;
925.5000;0.0765;-1.0543;
925.8000;0.0749;-1.0475;
926.1000;0.0814;-1.0385;
926.4000;0.0781;-1.0340;
926.7000;0.0773;-1.0317;
927.0000;0.0765;-1.0317;
927.3000;0.0830;-1.0181;
927.6000;0.0773;-1.0294;
927.9000;0.0790;-1.0294;
928.2000;0.0822;-1.0204;
928.5000;0.0708;-1.0475;
928.8000;0.0773;-1.0317;
929.1000;0.0806;-1.0159;
929.4000;0.0757;-1.0272;
929.7000;0.0757;-1.0272;
930.0000;0.0765;-1.0204;
930.3000;0.0773;-1.0272;
930.6000;0.0757;-1.0385;
930.9000;0.0773;-1.0408;
931.2000;0.0790;-1.0430;
931.5000;0.0773;-1.0362;
931.8000;0.0733;-1.0521;
932.1000;0.0749;-1.0408;
932.4000;0.0773;-1.0272;
932.7000;0.0847;-1.0000;
933.0000;0.0773;-1.0136;
933.3000;0.0781;-1.0204;
933.6000;0.0757;-1.0227;
933.9000;0.0822;-1.0023;
934.2000;0.0733;-1.0204;
934.5000;0.0773;-1.0181;
934.8000;0.0749;-1.0181;
935.1000;0.0619;-1.0566;
935.4000;0.0733;-1.0340;
935.7000;0.0781;-1.0181;
936.0000;0.0781;-1.0227;
936.3000;0.0765;-1.0317;
936.6000;0.0765;-1.0294;
936.9000;0.0798;-1.0159;
937.2000;0.0781;-1.0091;
937.5000;0.0773;-1.0046;
937.8000;0.0749;-1.0159;
938.1000;0.0798;-1.0068;
938.4000;0.0700;-1.0249;
938.7000;0.0790;-0.9955;
939.0000;0.0790;-0.9955;
939.3000;0.0781;-0.9978;
939.6000;0.0798;-0.9978;
939.9000;0.0790;-1.0046;
940.2000;0.0773;-1.0181;
940.5000;0.0765;-1.0159;
940.8000;0.0838;-1.0000;
941.1000;0.0781;-1.0091;
941.4000;0.0773;-1.0136;
941.7000;0.0838;-0.9932;
942.0000;0.0781;-1.0068;
942.3000;0.0773;-1.0046;
942.6000;0.0790;-1.0113;
942.9000;0.0781;-1.0136;
943.2000;0.0781;-1.0136;
943.5000;0.0749;-1.0272;
943.8000;0.0724;-1.0294;
944.1000;0.0749;-1.0362;
944.4000;0.0790;-1.0204;
944.7000;0.0773;-1.0294;
945.0000;0.0773;-1.0272;
945.3000;0.0733;-1.0340;
945.6000;0.0741;-1.0294;
945.9000;0.0765;-1.0159;
946.2000;0.0757;-1.0091;
946.5000;0.0773;-1.0091;
946.8000;0.0806;-1.0136;
947.1000;0.0749;-1.0204;
947.4000;0.0798;-1.0091;
947.7000;0.0765;-1.0249;
948.0000;0.0790;-1.0136;
948.3000;0.0773;-1.0181;
948.6000;0.0741;-1.0272;
948.9000;0.0781;-1.0227;
949.2000;0.0781;-1.0227;
949.5000;0.0781;-1.0249;
949.8000;0.0757;-1.0362;
950.1000;0.0773;-1.0294;
950.4000;0.0781;-1.0204;
950.7000;0.0724;-1.0340;
951.0000;0.0716;-1.0408;
951.3000;0.0741;-1.0385;
951.6000;0.0733;-1.0498;
951.9000;0.0806;-1.0249;
952.2000;0.0741;-1.0408;
952.5000;0.0781;-1.0362;
952.8000;0.0757;-1.0362;
953.1000;0.0765;-1.0340;
953.4000;0.0814;-1.0227;
953.7000;0.0749;-1.0385;
954.0000;0.0814;-1.0249;
954.3000;0.0749;-1.0227;
954.6000;0.0781;-1.0159;
954.9000;0.0741;-1.0249;
955.2000;0.0773;-1.0159;
955.5000;0.0863;-0.9865;
955.8000;0.0619;-1.0543;
956.1000;0.0781;-1.0249;
956.4000;0.0790;-1.0249;
956.7000;0.0757;-1.0340;
957.0000;0.0855;-1.0181;
957.3000;0.0798;-1.0385;
957.6000;0.0765;-1.0408;
957.9000;0.0757;-1.0272;
958.2000;0.0863;-1.0000;
958.5000;0.0757;-1.0227;
958.8000;0.0757;-1.0362;
959.1000;0.0781;-1.0362;
959.4000;0.0765;-1.0385;
959.7000;0.0781;-1.0317;
960.0000;0.0790;-1.0340;
960.3000;0.0749;-1.0362;
960.6000;0.0790;-1.0317;
960.9000;0.0757;-1.0408;
961.2000;0.0773;-1.0249;
961.5000;0.0790;-1.0249;
961.8000;0.0773;-1.0317;
962.1000;0.0757;-1.0362;
962.4000;0.0765;-1.0362;
962.7000;0.0765;-1.0294;
963.0000;0.0757;-1.0408;
963.3000;0.0765;-1.0340;
963.6000;0.0773;-1.0294;
963.9000;0.0814;-1.0249;
964.2000;0.0790;-1.0272;
964.5000;0.0741;-1.0294;
964.8000;0.0814;-1.0068;
965.1000;0.0757;-1.0227;
965.4000;0.0757;-1.0317;
965.7000;0.0773;-1.0362;
966.0000;0.0871;-1.0023;
966.3000;0.0757;-1.0204;
966.6000;0.0700;-1.0272;
966.9000;0.0814;-0.9932;
967.2000;0.0781;-0.9955;
967.5000;0.0781;-1.0023;
967.8000;0.0781;-1.0091;
968.1000;0.0781;-1.0159;
968.4000;0.0790;-1.0159;
968.7000;0.0773;-1.0272;
969.0000;0.0724;-1.0362;
969.3000;0.0757;-1.0227;
969.6000;0.0765;-1.0159;
969.9000;0.0773;-1.0113;
970.2000;0.0765;-1.0204;
970.5000;0.0749;-1.0181;
970.8000;0.0749;-1.0181;
971.1000;0.0773;-1.0068;
971.4000;0.0781;-1.0136;
971.7000;0.0733;-1.0317;
972.0000;0.0749;-1.0408;
972.3000;0.0773;-1.0408;
972.6000;0.0765;-1.0408;
972.9000;0.0773;-1.0475;
973.2000;0.0765;-1.0453;
973.5000;0.0806;-1.0317;
973.8000;0.0781;-1.0340;
974.1000;0.0667;-1.0611;
974.4000;0.0757;-1.0430;
974.7000;0.0781;-1.0453;
975.0000;0.0773;-1.0430;
975.3000;0.0757;-1.0566;
975.6000;0.0749;-1.0475;
975.9000;0.0773;-1.0362;
976.2000;0.0749;-1.0498;
976.5000;0.0814;-1.0385;
976.8000;0.0757;-1.0498;
977.1000;0.0757;-1.0498;
977.4000;0.0773;-1.0498;
977.7000;0.0773;-1.0543;
978.0000;0.0757;-1.0521;
978.3000;0.0765;-1.0385;
978.6000;0.0741;-1.0453;
978.9000;0.0806;-1.0340;
979.2000;0.0781;-1.0362;
979.5000;0.0773;-1.0362;
979.8000;0.0765;-1.0430;
980.1000;0.0871;-1.0249;
980.4000;0.0757;-1.0543;
980.7000;0.0757;-1.0611;
981.0000;0.0627;-1.0951;
981.3000;0.0765;-1.0543;
981.6000;0.0952;-1.0091;
981.9000;0.0773;-1.0453;
982.2000;0.0773;-1.0362;
982.5000;0.0798;-1.0181;
982.8000;0.0765;-1.0340;
983.1000;0.0741;-1.0385;
983.4000;0.0781;-1.0294;
983.7000;0.0684;-1.0521;
984.0000;0.0757;-1.0385;
984.3000;0.0733;-1.0498;
984.6000;0.0757;-1.0475;
984.9000;0.0781;-1.0475;
985.2000;0.0757;-1.0475;
985.5000;0.0830;-1.0362;
985.8000;0.0741;-1.0611;
986.1000;0.0765;-1.0543;
986.4000;0.0757;-1.0589;
986.7000;0.0765;-1.0566;
987.0000;0.0724;-1.0543;
987.3000;0.0781;-1.0317;
987.6000;0.0773;-1.0294;
987.9000;0.0741;-1.0408;
988.2000;0.0773;-1.0317;
988.5000;0.0781;-1.0340;
988.8000;0.0798;-1.0362;
989.1000;0.0773;-1.0408;
989.4000;0.0733;-1.0430;
989.7000;0.0757;-1.0362;
990.0000;0.0781;-1.0408;
990.3000;0.0741;-1.0475;
990.6000;0.0781;-1.0430;
990.9000;0.0667;-1.0611;
991.2000;0.0806;-1.0408;
991.5000;0.0765;-1.0408;
991.8000;0.0773;-1.0430;
992.1000;0.0773;-1.0453;
992.4000;0.0790;-1.0430;
992.7000;0.0790;-1.0521;
993.0000;0.0708;-1.0792;
993.3000;0.0765;-1.0679;
993.6000;0.0790;-1.0589;
993.9000;0.0716;-1.0679;
994.2000;0.0781;-1.0408;
994.5000;0.0765;-1.0385;
994.8000;0.0781;-1.0294;
995.1000;0.0790;-1.0227;
995.4000;0.0781;-1.0272;
995.7000;0.0773;-1.0294;
996.0000;0.0822;-1.0159;
996.3000;0.0790;-1.0317;
996.6000;0.0773;-1.0340;
996.9000;0.0806;-1.0204;
997.2000;0.0765;-1.0317;
997.5000;0.0781;-1.0204;
997.8000;0.0806;-1.0159;
998.1000;0.0790;-1.0272;
998.4000;0.0757;-1.0272;
998.7000;0.0765;-1.0136;
999.0000;0.0773;-1.0227;
999.3000;0.0741;-1.0227;
999.6000;0.0757;-1.0227;
999.9000;0.0741;-1.0340;
1000.2000;0.0765;-1.0249;
1000.5000;0.0765;-1.0136;
1000.8000;0.0676;-1.0317;
1001.1000;0.0741;-1.0159;
1001.4000;0.0773;-1.0204;
1001.7000;0.0749;-1.0317;
1002.0000;0.0757;-1.0385;
1002.3000;0.0781;-1.0408;
1002.6000;0.0798;-1.0340;
1002.9000;0.0790;-1.0340;
1003.2000;0.0765;-1.0340;
1003.5000;0.0700;-1.0521;
1003.8000;0.0749;-1.0453;
1004.1000;0.0765;-1.0385;
1004.4000;0.0773;-1.0408;
1004.7000;0.0765;-1.0430;
1005.0000;0.0781;-1.0430;
1005.3000;0.0773;-1.0453;
1005.6000;0.0863;-1.0227;
1005.9000;0.0749;-1.0543;
1006.2000;0.0773;-1.0498;
1006.5000;0.0814;-1.0475;
1006.8000;0.0879;-1.0408;
1007.1000;0.0765;-1.0679;
1007.4000;0.0773;-1.0634;
1007.7000;0.0790;-1.0521;
1008.0000;0.0798;-1.0385;
1008.3000;0.0765;-1.0521;
1008.6000;0.0798;-1.0430;
1008.9000;0.0781;-1.0408;
1009.2000;0.0781;-1.0408;
1009.5000;0.0765;-1.0430;
1009.8000;0.0741;-1.0430;
1010.1000;0.0781;-1.0294;
1010.4000;0.0773;-1.0317;
1010.7000;0.0757;-1.0408;
1011.0000;0.0798;-1.0317;
1011.3000;0.0765;-1.0385;
1011.6000;0.0781;-1.0408;
1011.9000;0.0863;-1.0204;
1012.2000;0.0781;-1.0430;
1012.5000;0.0781;-1.0453;
1012.8000;0.0757;-1.0521;
1013.1000;0.0806;-1.0430;
1013.4000;0.0781;-1.0453;
1013.7000;0.0765;-1.0521;
1014.0000;0.0798;-1.0430;
1014.3000;0.0790;-1.0453;
1014.6000;0.0765;-1.0498;
1014.9000;0.0773;-1.0521;
1015.2000;0.0757;-1.0611;
1015.5000;0.0757;-1.0543;
1015.8000;0.0749;-1.0611;
1016.1000;0.0741;-1.0611;
1016.4000;0.0773;-1.0543;
1016.7000;0.0830;-1.0430;
1017.0000;0.0838;-1.0294;
1017.3000;0.0781;-1.0453;
1017.6000;0.0855;-1.0272;
1017.9000;0.0619;-1.0883;
1018.2000;0.0781;-1.0521;
1018.5000;0.0757;-1.0543;
1018.8000;0.0765;-1.0521;
1019.1000;0.0765;-1.0566;
1019.4000;0.0765;-1.0475;
1019.7000;0.0765;-1.0430;
1020.0000;0.0741;-1.0385;
1020.3000;0.0757;-1.0294;
1020.6000;0.0757;-1.0317;
1020.9000;0.0757;-1.0385;
1021.2000;0.0757;-1.0317;
1021.5000;0.0749;-1.0294;
1021.8000;0.0798;-1.0204;
1022.1000;0.0757;-1.0340;
1022.4000;0.0765;-1.0317;
1022.7000;0.0765;-1.0340;
1023.0000;0.0887;-1.0023;
1023.3000;0.0757;-1.0362;
1023.6000;0.0806;-1.0294;
1023.9000;0.0765;-1.0408;
1024.2000;0.0765;-1.0385;
1024.5000;0.0765;-1.0475;
1024.8000;0.0847;-1.0362;
1025.1000;0.0757;-1.0498;
1025.4000;0.0781;-1.0430;
1025.7000;0.0781;-1.0498;
1026.0000;0.0781;-1.0521;
1026.3000;0.0765;-1.0475;
1026.6000;0.0781;-1.0408;
1026.9000;0.0724;-1.0543;
1027.2000;0.0708;-1.0611;
1027.5000;0.0773;-1.0408;
1027.8000;0.0765;-1.0362;
1028.1000;0.0798;-1.0317;
1028.4000;0.0765;-1.0362;
1028.7000;0.0765;-1.0317;
1029.0000;0.0757;-1.0294;
1029.3000;0.0765;-1.0159;
1029.6000;0.0765;-1.0113;
1029.9000;0.0724;-1.0181;
1030.2000;0.0765;-1.0113;
1030.5000;0.0781;-1.0046;
1030.8000;0.0814;-1.0091;
1031.1000;0.0757;-1.0159;
1031.4000;0.0790;-1.0159;
1031.7000;0.0741;-1.0385;
1032.0000;0.0773;-1.0249;
1032.3000;0.0757;-1.0317;
1032.6000;0.0749;-1.0453;
1032.9000;0.0847;-1.0249;
1033.2000;0.0773;-1.0408;
1033.5000;0.0765;-1.0385;
1033.8000;0.0708;-1.0498;
1034.1000;0.0781;-1.0408;
1034.4000;0.0773;-1.0408;
1034.7000;0.0733;-1.0475;
1035.0000;0.0790;-1.0408;
1035.3000;0.0765;-1.0498;
1035.6000;0.0765;-1.0498;
1035.9000;0.0757;-1.0498;
1036.2000;0.0781;-1.0408;
1036.5000;0.0798;-1.0408;
1036.8000;0.0749;-1.0521;
1037.1000;0.0773;-1.0475;
1037.4000;0.0765;-1.0634;
1037.7000;0.0765;-1.0611;
1038.0000;0.0781;-1.0543;
1038.3000;0.0773;-1.0611;
1038.6000;0.0773;-1.0543;
1038.9000;0.0781;-1.0543;
1039.2000;0.0790;-1.0521;
1039.5000;0.0765;-1.0543;
1039.8000;0.0765;-1.0521;
1040.1000;0.0806;-1.0453;
1040.4000;0.0757;-1.0589;
1040.7000;0.0749;-1.0543;
1041.0000;0.0863;-1.0249;
1041.3000;0.0749;-1.0475;
1041.6000;0.0781;-1.0453;
1041.9000;0.0798;-1.0498;
1042.2000;0.0781;-1.0475;
1042.5000;0.0773;-1.0385;
1042.8000;0.0781;-1.0385;
1043.1000;0.0830;-1.0340;
1043.4000;0.0781;-1.0566;
1043.7000;0.0781;-1.0521;
1044.0000;0.0781;-1.0566;
1044.3000;0.0692;-1.0770;
1044.6000;0.0765;-1.0589;
1044.9000;0.0733;-1.0679;
1045.2000;0.0757;-1.0656;
1045.5000;0.0757;-1.0679;
1045.8000;0.0781;-1.0543;
1046.1000;0.0773;-1.0589;
1046.4000;0.0773;-1.0589;
1046.7000;0.0773;-1.0543;
1047.0000;0.0855;-1.0317;
1047.3000;0.0781;-1.0498;
1047.6000;0.0716;-1.0611;
1047.9000;0.0741;-1.0521;
1048.2000;0.0773;-1.0408;
1048.5000;0.0757;-1.0362;
1048.8000;0.0781;-1.0317;
1049.1000;0.0904;-1.0068;
1049.4000;0.0757;-1.0453;
1049.7000;0.0765;-1.0475;
1050.0000;0.0773;-1.0475;
1050.3000;0.0757;-1.0453;
1050.6000;0.0822;-1.0272;
1050.9000;0.0781;-1.0340;
1051.2000;0.0708;-1.0498;
1051.5000;0.0741;-1.0385;
1051.8000;0.0757;-1.0317;
1052.1000;0.0700;-1.0498;
1052.4000;0.0627;-1.0702;
1052.7000;0.0790;-1.0340;
1053.0000;0.0676;-1.0589;
1053.3000;0.0781;-1.0430;
1053.6000;0.0855;-1.0294;
1053.9000;0.0781;-1.0498;
1054.2000;0.0765;-1.0589;
1054.5000;0.0773;-1.0656;
1054.8000;0.0733;-1.0724;
1055.1000;0.0749;-1.0724;
1055.4000;0.0741;-1.0634;
1055.7000;0.0773;-1.0498;
1056.0000;0.0798;-1.0498;
1056.3000;0.0773;-1.0453;
1056.6000;0.0765;-1.0453;
1056.9000;0.0773;-1.0340;
1057.2000;0.0773;-1.0408;
1057.5000;0.0773;-1.0340;
1057.8000;0.0822;-1.0204;
1058.1000;0.0765;-1.0340;
1058.4000;0.0749;-1.0362;
1058.7000;0.0781;-1.0294;
1059.0000;0.0790;-1.0204;
1059.3000;0.0757;-1.0317;
1059.6000;0.0830;-1.0136;
1059.9000;0.0765;-1.0181;
1060.2000;0.0757;-1.0159;
1060.5000;0.0781;-1.0159;
1060.8000;0.0741;-1.0340;
1061.1000;0.0773;-1.0204;
1061.4000;0.0749;-1.0272;
1061.7000;0.0781;-1.0272;
1062.0000;0.0773;-1.0294;
1062.3000;0.0781;-1.0249;
1062.6000;0.0790;-1.0249;
1062.9000;0.0814;-1.0136;
1063.2000;0.0773;-1.0249;
1063.5000;0.0806;-1.0068;
1063.8000;0.0773;-1.0000;
1064.1000;0.0733;-1.0204;
1064.4000;0.0749;-1.0091;
1064.7000;0.0781;-1.0091;
1065.0000;0.0773;-1.0023;
1065.3000;0.0757;-1.0091;
1065.6000;0.0838;-0.9910;
1065.9000;0.0773;-1.0249;
1066.2000;0.0814;-1.0091;
1066.5000;0.0781;-1.0204;
1066.8000;0.0708;-1.0430;
1067.1000;0.0773;-1.0204;
1067.4000;0.0781;-1.0204;
1067.7000;0.0781;-1.0136;
1068.0000;0.0749;-1.0227;
1068.3000;0.0781;-1.0181;
1068.6000;0.0773;-1.0272;
1068.9000;0.0790;-1.0249;
1069.2000;0.0757;-1.0294;
1069.5000;0.0741;-1.0362;
1069.8000;0.0741;-1.0294;
1070.1000;0.0765;-1.0181;
1070.4000;0.0716;-1.0317;
1070.7000;0.0790;-1.0227;
1071.0000;0.0765;-1.0249;
1071.3000;0.0781;-1.0181;
1071.6000;0.0798;-1.0159;
1071.9000;0.0806;-1.0204;
1072.2000;0.0716;-1.0453;
1072.5000;0.0692;-1.0521;
1072.8000;0.0781;-1.0249;
1073.1000;0.0830;-1.0046;
1073.4000;0.0798;-1.0249;
1073.7000;0.0773;-1.0272;
1074.0000;0.0708;-1.0408;
1074.3000;0.0781;-1.0362;
1074.6000;0.0806;-1.0340;
1074.9000;0.0741;-1.0498;
1075.2000;0.0781;-1.0317;
1075.5000;0.0773;-1.0340;
1075.8000;0.0773;-1.0294;
1076.1000;0.0733;-1.0408;
1076.4000;0.0798;-1.0317;
1076.7000;0.0765;-1.0294;
1077.0000;0.0765;-1.0340;
1077.3000;0.0757;-1.0430;
1077.6000;0.0798;-1.0317;
1077.9000;0.0765;-1.0317;
1078.2000;0.0741;-1.0362;
1078.5000;0.0733;-1.0385;
1078.8000;0.0757;-1.0385;
1079.1000;0.0733;-1.0430;
1079.4000;0.0765;-1.0340;
1079.7000;0.0733;-1.0430;
1080.0000;0.0790;-1.0249;
1080.3000;0.0749;-1.0362;
1080.6000;0.0765;-1.0362;
1080.9000;0.0863;-1.0136;
1081.2000;0.0773;-1.0430;
1081.5000;0.0781;-1.0543;
1081.8000;0.0741;-1.0521;
1082.1000;0.0773;-1.0408;
1082.4000;0.0814;-1.0340;
1082.7000;0.0781;-1.0272;
1083.0000;0.0855;-1.0091;
1083.3000;0.0790;-1.0294;
1083.6000;0.0790;-1.0272;
1083.9000;0.0757;-1.0340;
1084.2000;0.0790;-1.0294;
1084.5000;0.0733;-1.0408;
1084.8000;0.0733;-1.0453;
1085.1000;0.0790;-1.0272;
1085.4000;0.0773;-1.0294;
1085.7000;0.0781;-1.0249;
1086.0000;0.0765;-1.0385;
1086.3000;0.0781;-1.0272;
1086.6000;0.0749;-1.0340;
1086.9000;0.0765;-1.0272;
1087.2000;0.0749;-1.0317;
1087.5000;0.0773;-1.0294;
1087.8000;0.0814;-1.0181;
1088.1000;0.0830;-1.0159;
1088.4000;0.0749;-1.0340;
1088.7000;0.0765;-1.0272;
1089.0000;0.0781;-1.0272;
1089.3000;0.0798;-1.0249;
1089.6000;0.0822;-1.0249;
1089.9000;0.0757;-1.0385;
1090.2000;0.0757;-1.0385;
1090.5000;0.0724;-1.0521;
1090.8000;0.0798;-1.0362;
1091.1000;0.0781;-1.0589;
1091.4000;0.0773;-1.0634;
1091.7000;0.0765;-1.0656;
1092.0000;0.0757;-1.0611;
1092.3000;0.0822;-1.0385;
1092.6000;0.0757;-1.0566;
1092.9000;0.0773;-1.0453;
1093.2000;0.0790;-1.0430;
1093.5000;0.0806;-1.0385;
1093.8000;0.0822;-1.0272;
1094.1000;0.0781;-1.0249;
1094.4000;0.0757;-1.0294;
1094.7000;0.0765;-1.0362;
1095.0000;0.0773;-1.0340;
1095.3000;0.0741;-1.0385;
1095.6000;0.0765;-1.0408;
1095.9000;0.0838;-1.0272;
1096.2000;0.0781;-1.0408;
1096.5000;0.0765;-1.0385;
1096.8000;0.0781;-1.0227;
1097.1000;0.0781;-1.0136;
1097.4000;0.0773;-1.0204;
1097.7000;0.0855;-1.0000;
1098.0000;0.0790;-1.0159;
1098.3000;0.0765;-1.0227;
1098.6000;0.0781;-1.0113;
1098.9000;0.0749;-1.0181;
1099.2000;0.0806;-1.0159;
1099.5000;0.0790;-1.0181;
1099.8000;0.0765;-1.0181;
1100.1000;0.0765;-1.0204;
1100.4000;0.0765;-1.0227;
1100.7000;0.0724;-1.0362;
1101.0000;0.0749;-1.0362;
1101.3000;0.0781;-1.0317;
1101.6000;0.0781;-1.0272;
1101.9000;0.0798;-1.0204;
1102.2000;0.0806;-1.0159;
1102.5000;0.0838;-1.0046;
1102.8000;0.0765;-1.0272;
1103.1000;0.0757;-1.0385;
1103.4000;0.0773;-1.0385;
1103.7000;0.0716;-1.0453;
1104.0000;0.0757;-1.0362;
1104.3000;0.0765;-1.0294;
1104.6000;0.0773;-1.0181;
1104.9000;0.0765;-1.0272;
1105.2000;0.0733;-1.0385;
1105.5000;0.0741;-1.0249;
1105.8000;0.0765;-1.0181;
1106.1000;0.0806;-1.0113;
1106.4000;0.0765;-1.0181;
1106.7000;0.0798;-1.0181;
1107.0000;0.0692;-1.0385;
1107.3000;0.0781;-1.0159;
1107.6000;0.0757;-1.0113;
1107.9000;0.0757;-1.0046;
1108.2000;0.0773;-1.0068;
1108.5000;0.0773;-1.0068;
1108.8000;0.0781;-1.0091;
1109.1000;0.0790;-1.0091;
1109.4000;0.0749;-1.0136;
1109.7000;0.0790;-0.9910;
1110.0000;0.0757;-1.0023;
1110.3000;0.0814;-0.9910;
1110.6000;0.0798;-1.0023;
1110.9000;0.0773;-1.0091;
1111.2000;0.0757;-1.0204;
1111.5000;0.0765;-1.0091;
1111.8000;0.0781;-1.0046;
1112.1000;0.0749;-1.0136;
1112.4000;0.0765;-1.0068;
1112.7000;0.0757;-1.0091;
1113.0000;0.0708;-1.0294;
1113.3000;0.0733;-1.0294;
1113.6000;0.0765;-1.0046;
1113.9000;0.0724;-1.0159;
1114.2000;0.0773;-1.0113;
1114.5000;0.0765;-1.0113;
1114.8000;0.0773;-1.0227;
1115.1000;0.0692;-1.0317;
1115.4000;0.0773;-1.0136;
1115.7000;0.0757;-1.0249;
1116.0000;0.0773;-1.0227;
1116.3000;0.0757;-1.0249;
1116.6000;0.0757;-1.0340;
1116.9000;0.0798;-1.0227;
1117.2000;0.0790;-1.0181;
1117.5000;0.0733;-1.0204;
1117.8000;0.0741;-1.0181;
1118.1000;0.0773;-1.0046;
1118.4000;0.0790;-1.0000;
1118.7000;0.0781;-1.0023;
1119.0000;0.0757;-1.0181;
1119.3000;0.0781;-1.0181;
1119.6000;0.0733;-1.0204;
1119.9000;0.0773;-1.0136;
1120.2000;0.0781;-1.0136;
1120.5000;0.0765;-1.0136;
1120.8000;0.0765;-1.0091;
1121.1000;0.0757;-1.0000;
1121.4000;0.0781;-0.9955;
1121.7000;0.0741;-1.0046;
1122.0000;0.0773;-0.9955;
1122.3000;0.0749;-1.0023;
1122.6000;0.0822;-0.9910;
1122.9000;0.0733;-1.0136;
1123.2000;0.0781;-1.0091;
1123.5000;0.0773;-1.0136;
1123.8000;0.0773;-1.0113;
1124.1000;0.0757;-1.0181;
1124.4000;0.0773;-1.0181;
1124.7000;0.0790;-1.0136;
1125.0000;0.0781;-1.0159;
1125.3000;0.0757;-1.0272;
1125.6000;0.0773;-1.0204;
1125.9000;0.0798;-1.0272;
1126.2000;0.0765;-1.0340;
1126.5000;0.0765;-1.0294;
1126.8000;0.0781;-1.0249;
1127.1000;0.0781;-1.0272;
1127.4000;0.0773;-1.0227;
1127.7000;0.0798;-1.0181;
1128.0000;0.0773;-1.0181;
1128.3000;0.0757;-1.0181;
1128.6000;0.0741;-1.0340;
1128.9000;0.0741;-1.0317;
1129.2000;0.0757;-1.0181;
1129.5000;0.0773;-1.0068;
1129.8000;0.0749;-1.0159;
1130.1000;0.0749;-1.0136;
1130.4000;0.0749;-1.0113;
1130.7000;0.0781;-1.0091;
1131.0000;0.0781;-1.0068;
1131.3000;0.0773;-1.0091;
1131.6000;0.0814;-1.0023;
1131.9000;0.0757;-1.0294;
1132.2000;0.0773;-1.0317;
1132.5000;0.0781;-1.0294;
1132.8000;0.0765;-1.0249;
1133.1000;0.0765;-1.0136;
1133.4000;0.0708;-1.0249;
1133.7000;0.0757;-1.0181;
1134.0000;0.0757;-1.0136;
1134.3000;0.0781;-1.0068;
1134.6000;0.0765;-1.0068;
1134.9000;0.0749;-1.0204;
1135.2000;0.0765;-1.0227;
1135.5000;0.0781;-1.0113;
1135.8000;0.0741;-1.0227;
1136.1000;0.0635;-1.0521;
1136.4000;0.0765;-1.0294;
1136.7000;0.0692;-1.0498;
1137.0000;0.0773;-1.0227;
1137.3000;0.0741;-1.0249;
1137.6000;0.0798;-1.0136;
1137.9000;0.0781;-1.0113;
1138.2000;0.0765;-1.0294;
1138.5000;0.0765;-1.0272;
1138.8000;0.0814;-1.0181;
1139.1000;0.0765;-1.0317;
1139.4000;0.0765;-1.0294;
1139.7000;0.0773;-1.0204;
1140.0000;0.0773;-1.0249;
1140.3000;0.0765;-1.0408;
1140.6000;0.0765;-1.0340;
1140.9000;0.0798;-1.0159;
1141.2000;0.0765;-1.0272;
1141.5000;0.0773;-1.0294;
1141.8000;0.0773;-1.0249;
1142.1000;0.0757;-1.0204;
1142.4000;0.0798;-1.0113;
1142.7000;0.0781;-1.0181;
1143.0000;0.0733;-1.0362;
1143.3000;0.0773;-1.0385;
1143.6000;0.0830;-1.0227;
1143.9000;0.0741;-1.0453;
1144.2000;0.0830;-1.0317;
1144.5000;0.0798;-1.0385;
1144.8000;0.0676;-1.0679;
1145.1000;0.0773;-1.0362;
1145.4000;0.0749;-1.0475;
1145.7000;0.0781;-1.0340;
1146.0000;0.0749;-1.0475;
1146.3000;0.0757;-1.0408;
1146.6000;0.0749;-1.0498;
1146.9000;0.0741;-1.0566;
1147.2000;0.0765;-1.0521;
1147.5000;0.0749;-1.0566;
1147.8000;0.0765;-1.0521;
1148.1000;0.0757;-1.0521;
1148.4000;0.0749;-1.0589;
1148.7000;0.0773;-1.0453;
1149.0000;0.0773;-1.0408;
1149.3000;0.0757;-1.0453;
1149.6000;0.0773;-1.0498;
1149.9000;0.0790;-1.0498;
1150.2000;0.0773;-1.0566;
1150.5000;0.0847;-1.0362;
1150.8000;0.0749;-1.0543;
1151.1000;0.0765;-1.0498;
1151.4000;0.0773;-1.0498;
1151.7000;0.0798;-1.0498;
1152.0000;0.0830;-1.0317;
1152.3000;0.0773;-1.0543;
1152.6000;0.0790;-1.0566;
1152.9000;0.0635;-1.0905;
1153.2000;0.0765;-1.0611;
1153.5000;0.0741;-1.0611;
1153.8000;0.0757;-1.0566;
1154.1000;0.0781;-1.0521;
1154.4000;0.0749;-1.0475;
1154.7000;0.0757;-1.0521;
1155.0000;0.0781;-1.0521;
1155.3000;0.0749;-1.0634;
1155.6000;0.0798;-1.0498;
1155.9000;0.0773;-1.0430;
1156.2000;0.0773;-1.0385;
1156.5000;0.0724;-1.0408;
1156.8000;0.0806;-1.0204;
1157.1000;0.0757;-1.0227;
1157.4000;0.0684;-1.0408;
1157.7000;0.0757;-1.0340;
1158.0000;0.0765;-1.0385;
1158.3000;0.0716;-1.0566;
1158.6000;0.0773;-1.0317;
1158.9000;0.0733;-1.0475;
1159.2000;0.0855;-1.0113;
1159.5000;0.0773;-1.0249;
1159.8000;0.0757;-1.0294;
1160.1000;0.0781;-1.0294;
1160.4000;0.1001;-0.9751;
1160.7000;0.0855;-1.0046;
1161.0000;0.0700;-1.0385;
1161.3000;0.0765;-1.0249;
1161.6000;0.0773;-1.0249;
1161.9000;0.0749;-1.0294;
1162.2000;0.0765;-1.0249;
1162.5000;0.0741;-1.0340;
1162.8000;0.0773;-1.0249;
1163.1000;0.0863;-0.9955;
1163.4000;0.0700;-1.0430;
1163.7000;0.0773;-1.0294;
1164.0000;0.0773;-1.0294;
1164.3000;0.0765;-1.0249;
1164.6000;0.0781;-1.0227;
1164.9000;0.0855;-0.9978;
1165.2000;0.0733;-1.0340;
1165.5000;0.0700;-1.0521;
1165.8000;0.0798;-1.0317;
1166.1000;0.0773;-1.0521;
1166.4000;0.0765;-1.0453;
1166.7000;0.0806;-1.0317;
1167.0000;0.0765;-1.0430;
1167.3000;0.0781;-1.0385;
1167.6000;0.0692;-1.0656;
1167.9000;0.0724;-1.0566;
1168.2000;0.0684;-1.0566;
1168.5000;0.0716;-1.0543;
1168.8000;0.0749;-1.0498;
1169.1000;0.0765;-1.0543;
1169.4000;0.0757;-1.0566;
1169.7000;0.0757;-1.0543;
1170.0000;0.0757;-1.0521;
1170.3000;0.0676;-1.0702;
1170.6000;0.0790;-1.0498;
1170.9000;0.0855;-1.0317;
1171.2000;0.0773;-1.0498;
1171.5000;0.0765;-1.0521;
1171.8000;0.0798;-1.0430;
1172.1000;0.0781;-1.0498;
1172.4000;0.0806;-1.0408;
1172.7000;0.0765;-1.0430;
1173.0000;0.0822;-1.0272;
1173.3000;0.0773;-1.0475;
1173.6000;0.0822;-1.0385;
1173.9000;0.0765;-1.0498;
1174.2000;0.0749;-1.0475;
1174.5000;0.0749;-1.0475;
1174.8000;0.0741;-1.0498;
1175.1000;0.0757;-1.0475;
1175.4000;0.0757;-1.0521;
1175.7000;0.0765;-1.0521;
1176.0000;0.0773;-1.0498;
1176.3000;0.0749;-1.0634;
1176.6000;0.0781;-1.0498;
1176.9000;0.0814;-1.0362;
1177.2000;0.0757;-1.0498;
1177.5000;0.0757;-1.0453;
1177.8000;0.0741;-1.0566;
1178.1000;0.0676;-1.0679;
1178.4000;0.0749;-1.0453;
1178.7000;0.0781;-1.0430;
1179.0000;0.0757;-1.0566;
1179.3000;0.0733;-1.0634;
1179.6000;0.0749;-1.0634;
1179.9000;0.0733;-1.0770;
1180.2000;0.0781;-1.0702;
1180.5000;0.0708;-1.0905;
1180.8000;0.0765;-1.0747;
1181.1000;0.0765;-1.0634;
1181.4000;0.0741;-1.0611;
1181.7000;0.0765;-1.0634;
1182.0000;0.0716;-1.0747;
1182.3000;0.0773;-1.0656;
1182.6000;0.0757;-1.0724;
1182.9000;0.0765;-1.0747;
1183.2000;0.0781;-1.0589;
1183.5000;0.0781;-1.0543;
1183.8000;0.0757;-1.0634;
1184.1000;0.0871;-1.0272;
1184.4000;0.0765;-1.0430;
1184.7000;0.0773;-1.0475;
1185.0000;0.0781;-1.0475;
1185.3000;0.0773;-1.0543;
1185.6000;0.0749;-1.0634;
1185.9000;0.0749;-1.0634;
1186.2000;0.0790;-1.0475;
1186.5000;0.0790;-1.0543;
1186.8000;0.0765;-1.0611;
1187.1000;0.0692;-1.0747;
1187.4000;0.0830;-1.0430;
1187.7000;0.0765;-1.0543;
1188.0000;0.0773;-1.0521;
1188.3000;0.0749;-1.0589;
1188.6000;0.0733;-1.0634;
1188.9000;0.0773;-1.0679;
1189.2000;0.0724;-1.0792;
1189.5000;0.0806;-1.0566;
1189.8000;0.0765;-1.0656;
1190.1000;0.0765;-1.0634;
1190.4000;0.0667;-1.0883;
1190.7000;0.0773;-1.0589;
1191.0000;0.0741;-1.0634;
1191.3000;0.0749;-1.0611;
1191.6000;0.0814;-1.0498;
1191.9000;0.0765;-1.0521;
1192.2000;0.0749;-1.0566;
1192.5000;0.0798;-1.0453;
1192.8000;0.0749;-1.0543;
1193.1000;0.0749;-1.0589;
1193.4000;0.0716;-1.0702;
1193.7000;0.0724;-1.0656;
1194.0000;0.0773;-1.0543;
1194.3000;0.0773;-1.0543;
1194.6000;0.0757;-1.0453;
1194.9000;0.0904;-1.0136;
1195.2000;0.0765;-1.0475;
1195.5000;0.0627;-1.0837;
1195.8000;0.0765;-1.0589;
1196.1000;0.0757;-1.0521;
1196.4000;0.0790;-1.0408;
1196.7000;0.0765;-1.0430;
1197.0000;0.0781;-1.0385;
1197.3000;0.0765;-1.0385;
1197.6000;0.0790;-1.0340;
1197.9000;0.0781;-1.0362;
1198.2000;0.0765;-1.0340;
1198.5000;0.0814;-1.0204;
1198.8000;0.0700;-1.0543;
1199.1000;0.0781;-1.0272;
1199.4000;0.0765;-1.0362;
1199.7000;0.0781;-1.0272;
1200.0000;0.0716;-1.0521;
1200.3000;0.0765;-1.0475;
1200.6000;0.0741;-1.0543;
1200.9000;0.0749;-1.0498;
1201.2000;0.0790;-1.0294;
1201.5000;0.0749;-1.0408;
1201.8000;0.0757;-1.0294;
1202.1000;0.0806;-1.0181;
1202.4000;0.0749;-1.0430;
1202.7000;0.0757;-1.0543;
1203.0000;0.0741;-1.0589;
1203.3000;0.0765;-1.0498;
1203.6000;0.0741;-1.0656;
1203.9000;0.0773;-1.0543;
1204.2000;0.0749;-1.0611;
1204.5000;0.0798;-1.0566;
1204.8000;0.0847;-1.0430;
1205.1000;0.0838;-1.0453;
1205.4000;0.0830;-1.0430;
1205.7000;0.0765;-1.0611;
1206.0000;0.0741;-1.0747;
1206.3000;0.0773;-1.0611;
1206.6000;0.0790;-1.0589;
1206.9000;0.0708;-1.0724;
1207.2000;0.0765;-1.0656;
1207.5000;0.0781;-1.0656;
1207.8000;0.0749;-1.0724;
1208.1000;0.0757;-1.0656;
1208.4000;0.0781;-1.0679;
1208.7000;0.0757;-1.0747;
1209.0000;0.0781;-1.0656;
1209.3000;0.0757;-1.0747;
1209.6000;0.0757;-1.0724;
1209.9000;0.0757;-1.0679;
1210.2000;0.0741;-1.0702;
1210.5000;0.0749;-1.0498;
1210.8000;0.0773;-1.0408;
1211.1000;0.0757;-1.0453;
1211.4000;0.0757;-1.0453;
1211.7000;0.0765;-1.0453;
1212.0000;0.0741;-1.0566;
1212.3000;0.0757;-1.0589;
1212.6000;0.0773;-1.0521;
1212.9000;0.0773;-1.0475;
1213.2000;0.0757;-1.0521;
1213.5000;0.0773;-1.0453;
1213.8000;0.0806;-1.0362;
1214.1000;0.0757;-1.0498;
1214.4000;0.0635;-1.0883;
1214.7000;0.0749;-1.0589;
1215.0000;0.0773;-1.0521;
1215.3000;0.0781;-1.0475;
1215.6000;0.0822;-1.0430;
1215.9000;0.0781;-1.0498;
1216.2000;0.0757;-1.0475;
1216.5000;0.0765;-1.0408;
1216.8000;0.0733;-1.0453;
1217.1000;0.0749;-1.0475;
1217.4000;0.0773;-1.0430;
1217.7000;0.0765;-1.0430;
1218.0000;0.0790;-1.0362;
1218.3000;0.0765;-1.0521;
1218.6000;0.0757;-1.0430;
1218.9000;0.0781;-1.0272;
1219.2000;0.0765;-1.0362;
1219.5000;0.0733;-1.0430;
1219.8000;0.0781;-1.0249;
1220.1000;0.0749;-1.0385;
1220.4000;0.0733;-1.0362;
1220.7000;0.0765;-1.0317;
1221.0000;0.0830;-1.0113;
1221.3000;0.0749;-1.0362;
1221.6000;0.0773;-1.0317;
1221.9000;0.0708;-1.0453;
1222.2000;0.0765;-1.0317;
1222.5000;0.0757;-1.0294;
1222.8000;0.0741;-1.0385;
1223.1000;0.0724;-1.0430;
1223.4000;0.0781;-1.0362;
1223.7000;0.0749;-1.0385;
1224.0000;0.0757;-1.0498;
1224.3000;0.0741;-1.0498;
1224.6000;0.0757;-1.0453;
1224.9000;0.0749;-1.0362;
1225.2000;0.0781;-1.0340;
1225.5000;0.0781;-1.0340;
1225.8000;0.0749;-1.0362;
1226.1000;0.0749;-1.0385;
1226.4000;0.0773;-1.0317;
1226.7000;0.0749;-1.0453;
1227.0000;0.0773;-1.0453;
1227.3000;0.0781;-1.0408;
1227.6000;0.0806;-1.0204;
1227.9000;0.0757;-1.0385;
1228.2000;0.0781;-1.0408;
1228.5000;0.0781;-1.0453;
1228.8000;0.0765;-1.0430;
1229.1000;0.0659;-1.0679;
1229.4000;0.0757;-1.0475;
1229.7000;0.0838;-1.0181;
1230.0000;0.0781;-1.0272;
1230.3000;0.0790;-1.0294;
1230.6000;0.0757;-1.0430;
1230.9000;0.0765;-1.0453;
1231.2000;0.0773;-1.0430;
1231.5000;0.0757;-1.0408;
1231.8000;0.0724;-1.0498;
1232.1000;0.0757;-1.0385;
1232.4000;0.0773;-1.0340;
1232.7000;0.0773;-1.0408;
1233.0000;0.0798;-1.0408;
1233.3000;0.0798;-1.0408;
1233.6000;0.0790;-1.0408;
1233.9000;0.0781;-1.0317;
1234.2000;0.0781;-1.0249;
1234.5000;0.0757;-1.0317;
1234.8000;0.0781;-1.0385;
1235.1000;0.0773;-1.0430;
1235.4000;0.0757;-1.0430;
1235.7000;0.0765;-1.0543;
1236.0000;0.0773;-1.0475;
1236.3000;0.0757;-1.0498;
1236.6000;0.0781;-1.0453;
1236.9000;0.0887;-1.0113;
1237.2000;0.0741;-1.0498;
1237.5000;0.0781;-1.0408;
1237.8000;0.0676;-1.0634;
1238.1000;0.0765;-1.0340;
1238.4000;0.0757;-1.0385;
1238.7000;0.0847;-1.0091;
1239.0000;0.0781;-1.0294;
1239.3000;0.0798;-1.0136;
1239.6000;0.0790;-1.0159;
1239.9000;0.0765;-1.0227;
1240.2000;0.0773;-1.0249;
1240.5000;0.0765;-1.0317;
1240.8000;0.0773;-1.0317;
1241.1000;0.0757;-1.0362;
1241.4000;0.0757;-1.0408;
1241.7000;0.0749;-1.0543;
1242.0000;0.0741;-1.0566;
1242.3000;0.0749;-1.0475;
1242.6000;0.0741;-1.0408;
1242.9000;0.0798;-1.0272;
1243.2000;0.0781;-1.0272;
1243.5000;0.0781;-1.0204;
1243.8000;0.0716;-1.0385;
1244.1000;0.0781;-1.0249;
1244.4000;0.0765;-1.0294;
1244.7000;0.0749;-1.0408;
1245.0000;0.0749;-1.0498;
1245.3000;0.0749;-1.0543;
1245.6000;0.0765;-1.0453;
1245.9000;0.0741;-1.0475;
1246.2000;0.0749;-1.0453;
1246.5000;0.0757;-1.0453;
1246.8000;0.0757;-1.0430;
1247.1000;0.0773;-1.0521;
1247.4000;0.0773;-1.0521;
1247.7000;0.0757;-1.0589;
1248.0000;0.0757;-1.0589;
1248.3000;0.0781;-1.0543;
1248.6000;0.0757;-1.0589;
1248.9000;0.0733;-1.0634;
1249.2000;0.0790;-1.0498;
1249.5000;0.0781;-1.0566;
1249.8000;0.0757;-1.0634;
1250.1000;0.0741;-1.0611;
1250.4000;0.0757;-1.0611;
1250.7000;0.0765;-1.0611;
1251.0000;0.0741;-1.0634;
1251.3000;0.0741;-1.0634;
1251.6000;0.0773;-1.0498;
1251.9000;0.0765;-1.0566;
1252.2000;0.0765;-1.0566;
1252.5000;0.0765;-1.0543;
1252.8000;0.0773;-1.0566;
1253.1000;0.0773;-1.0611;
1253.4000;0.0773;-1.0611;
1253.7000;0.0863;-1.0340;
1254.0000;0.0781;-1.0589;
1254.3000;0.0773;-1.0543;
1254.6000;0.0838;-1.0362;
1254.9000;0.0781;-1.0521;
1255.2000;0.0724;-1.0679;
1255.5000;0.0724;-1.0679;
1255.8000;0.0757;-1.0611;
1256.1000;0.0749;-1.0679;
1256.4000;0.0741;-1.0634;
1256.7000;0.0798;-1.0453;
1257.0000;0.0798;-1.0430;
1257.3000;0.0773;-1.0498;
1257.6000;0.0773;-1.0589;
1257.9000;0.0749;-1.0679;
1258.2000;0.0757;-1.0679;
1258.5000;0.0838;-1.0453;
1258.8000;0.0773;-1.0566;
1259.1000;0.0733;-1.0656;
1259.4000;0.0781;-1.0521;
1259.7000;0.0814;-1.0498;
1260.0000;0.0822;-1.0408;
1260.3000;0.0765;-1.0521;
1260.6000;0.0741;-1.0611;
1260.9000;0.0757;-1.0611;
1261.2000;0.0765;-1.0521;
1261.5000;0.0806;-1.0362;
1261.8000;0.0765;-1.0430;
1262.1000;0.0741;-1.0453;
1262.4000;0.0765;-1.0385;
1262.7000;0.0602;-1.0837;
1263.0000;0.0773;-1.0362;
1263.3000;0.0781;-1.0385;
1263.6000;0.0773;-1.0408;
1263.9000;0.0749;-1.0475;
1264.2000;0.0765;-1.0385;
1264.5000;0.0781;-1.0340;
1264.8000;0.0749;-1.0430;
1265.1000;0.0749;-1.0362;
1265.4000;0.0830;-1.0091;
1265.7000;0.0773;-1.0227;
1266.0000;0.0684;-1.0521;
1266.3000;0.0765;-1.0227;
1266.6000;0.0765;-1.0136;
1266.9000;0.0757;-1.0181;
1267.2000;0.0773;-1.0181;
1267.5000;0.0790;-1.0136;
1267.8000;0.0855;-0.9910;
1268.1000;0.0765;-1.0159;
1268.4000;0.0692;-1.0385;
1268.7000;0.0781;-1.0204;
1269.0000;0.0724;-1.0385;
1269.3000;0.0765;-1.0317;
1269.6000;0.0781;-1.0317;
1269.9000;0.0838;-1.0204;
1270.2000;0.0757;-1.0408;
1270.5000;0.0741;-1.0408;
1270.8000;0.0773;-1.0385;
1271.1000;0.0781;-1.0294;
1271.4000;0.0806;-1.0272;
1271.7000;0.0773;-1.0430;
1272.0000;0.0765;-1.0453;
1272.3000;0.0773;-1.0453;
1272.6000;0.0676;-1.0611;
1272.9000;0.0773;-1.0272;
1273.2000;0.0806;-1.0340;
1273.5000;0.0773;-1.0453;
1273.8000;0.0773;-1.0408;
1274.1000;0.0724;-1.0453;
1274.4000;0.0912;-1.0023;
1274.7000;0.0749;-1.0408;
1275.0000;0.0757;-1.0475;
1275.3000;0.0847;-1.0294;
1275.6000;0.0773;-1.0498;
1275.9000;0.0700;-1.0679;
1276.2000;0.0627;-1.0860;
1276.5000;0.0749;-1.0543;
1276.8000;0.0700;-1.0679;
1277.1000;0.0781;-1.0453;
1277.4000;0.0806;-1.0294;
1277.7000;0.0757;-1.0385;
1278.0000;0.0757;-1.0408;
1278.3000;0.0830;-1.0136;
1278.6000;0.0773;-1.0227;
1278.9000;0.0814;-1.0181;
1279.2000;0.0765;-1.0294;
1279.5000;0.0757;-1.0340;
1279.8000;0.0798;-1.0136;
1280.1000;0.0773;-1.0227;
1280.4000;0.0700;-1.0362;
1280.7000;0.0765;-1.0204;
1281.0000;0.0733;-1.0204;
1281.3000;0.0733;-1.0181;
1281.6000;0.0781;-1.0068;
1281.9000;0.0847;-0.9910;
1282.2000;0.0814;-1.0091;
1282.5000;0.0781;-1.0272;
1282.8000;0.0790;-1.0249;
1283.1000;0.0757;-1.0362;
1283.4000;0.0757;-1.0249;
1283.7000;0.0667;-1.0543;
1284.0000;0.0692;-1.0543;
1284.3000;0.0741;-1.0385;
1284.6000;0.0700;-1.0453;
1284.9000;0.0741;-1.0294;
1285.2000;0.0773;-1.0159;
1285.5000;0.0635;-1.0521;
1285.8000;0.0733;-1.0249;
1286.1000;0.0814;-1.0091;
1286.4000;0.0659;-1.0589;
1286.7000;0.0773;-1.0294;
1287.0000;0.0749;-1.0340;
1287.3000;0.0749;-1.0204;
1287.6000;0.0773;-1.0159;
1287.9000;0.0765;-1.0227;
1288.2000;0.0741;-1.0317;
1288.5000;0.0749;-1.0362;
1288.8000;0.0749;-1.0362;
1289.1000;0.0773;-1.0272;
1289.4000;0.0765;-1.0294;
1289.7000;0.0765;-1.0362;
1290.0000;0.0757;-1.0408;
1290.3000;0.0773;-1.0408;
1290.6000;0.0733;-1.0453;
1290.9000;0.0749;-1.0453;
1291.2000;0.0749;-1.0317;
1291.5000;0.0790;-1.0181;
1291.8000;0.0765;-1.0362;
1292.1000;0.0773;-1.0294;
1292.4000;0.0781;-1.0204;
1292.7000;0.0781;-1.0227;
1293.0000;0.0798;-1.0204;
1293.3000;0.0773;-1.0294;
1293.6000;0.0790;-1.0340;
1293.9000;0.0838;-1.0249;
1294.2000;0.0790;-1.0408;
1294.5000;0.0798;-1.0453;
1294.8000;0.0765;-1.0611;
1295.1000;0.0806;-1.0566;
1295.4000;0.0765;-1.0679;
1295.7000;0.0781;-1.0679;
1296.0000;0.0757;-1.0702;
1296.3000;0.0733;-1.0724;
1296.6000;0.0757;-1.0679;
1296.9000;0.0790;-1.0589;
1297.2000;0.0733;-1.0656;
1297.5000;0.0765;-1.0498;
1297.8000;0.0790;-1.0475;
1298.1000;0.0562;-1.1018;
1298.4000;0.0806;-1.0385;
1298.7000;0.0798;-1.0430;
1299.0000;0.0781;-1.0362;
1299.3000;0.0757;-1.0340;
1299.6000;0.0749;-1.0294;
1299.9000;0.0765;-1.0294;
1300.2000;0.0765;-1.0317;
1300.5000;0.0749;-1.0408;
1300.8000;0.0757;-1.0408;
1301.1000;0.0863;-1.0113;
1301.4000;0.0757;-1.0430;
1301.7000;0.0749;-1.0430;
1302.0000;0.0814;-1.0294;
1302.3000;0.0773;-1.0385;
1302.6000;0.0822;-1.0204;
1302.9000;0.0724;-1.0430;
1303.2000;0.0765;-1.0385;
1303.5000;0.0676;-1.0702;
1303.8000;0.0757;-1.0475;
1304.1000;0.0773;-1.0408;
1304.4000;0.0651;-1.0611;
1304.7000;0.0749;-1.0453;
1305.0000;0.0773;-1.0362;
1305.3000;0.0741;-1.0408;
1305.6000;0.0741;-1.0408;
1305.9000;0.0773;-1.0340;
1306.2000;0.0749;-1.0385;
1306.5000;0.0757;-1.0272;
1306.8000;0.0773;-1.0181;
1307.1000;0.0773;-1.0159;
1307.4000;0.0765;-1.0181;
1307.7000;0.0757;-1.0159;
1308.0000;0.0773;-1.0046;
1308.3000;0.0692;-1.0272;
1308.6000;0.0765;-1.0159;
1308.9000;0.0773;-1.0181;
1309.2000;0.0773;-1.0136;
1309.5000;0.0806;-1.0159;
1309.8000;0.0724;-1.0385;
1310.1000;0.0765;-1.0204;
1310.4000;0.0773;-1.0272;
1310.7000;0.0790;-1.0227;
1311.0000;0.0757;-1.0294;
1311.3000;0.0765;-1.0294;
1311.6000;0.0781;-1.0294;
1311.9000;0.0790;-1.0294;
1312.2000;0.0790;-1.0408;
1312.5000;0.0749;-1.0453;
1312.8000;0.0765;-1.0340;
1313.1000;0.0781;-1.0272;
1313.4000;0.0781;-1.0249;
1313.7000;0.0773;-1.0385;
1314.0000;0.0790;-1.0340;
1314.3000;0.0781;-1.0362;
1314.6000;0.0773;-1.0385;
1314.9000;0.0781;-1.0294;
1315.2000;0.0790;-1.0249;
1315.5000;0.0790;-1.0227;
1315.8000;0.0773;-1.0294;
1316.1000;0.0790;-1.0249;
1316.4000;0.0781;-1.0181;
1316.7000;0.0781;-1.0249;
1317.0000;0.0765;-1.0294;
1317.3000;0.0765;-1.0272;
1317.6000;0.0773;-1.0362;
1317.9000;0.0790;-1.0317;
1318.2000;0.0757;-1.0430;
1318.5000;0.0765;-1.0362;
1318.8000;0.0724;-1.0453;
1319.1000;0.0757;-1.0453;
1319.4000;0.0765;-1.0430;
1319.7000;0.0773;-1.0362;
1320.0000;0.0781;-1.0362;
1320.3000;0.0904;-1.0000;
1320.6000;0.0749;-1.0408;
1320.9000;0.0733;-1.0498;
1321.2000;0.0781;-1.0453;
1321.5000;0.0781;-1.0430;
1321.8000;0.0798;-1.0317;
1322.1000;0.0757;-1.0385;
1322.4000;0.0765;-1.0362;
1322.7000;0.0708;-1.0453;
1323.0000;0.0781;-1.0294;
1323.3000;0.0781;-1.0362;
1323.6000;0.0830;-1.0181;
1323.9000;0.0749;-1.0430;
1324.2000;0.0773;-1.0340;
1324.5000;0.0765;-1.0362;
1324.8000;0.0781;-1.0340;
1325.1000;0.0790;-1.0362;
1325.4000;0.0765;-1.0385;
1325.7000;0.0790;-1.0272;
1326.0000;0.0765;-1.0340;
1326.3000;0.0765;-1.0317;
1326.6000;0.0773;-1.0340;
1326.9000;0.0765;-1.0498;
1327.2000;0.0757;-1.0521;
1327.5000;0.0757;-1.0566;
1327.8000;0.0741;-1.0679;
1328.1000;0.0773;-1.0589;
1328.4000;0.0798;-1.0430;
1328.7000;0.0773;-1.0453;
1329.0000;0.0757;-1.0521;
1329.3000;0.0781;-1.0453;
1329.6000;0.0773;-1.0385;
1329.9000;0.0741;-1.0453;
1330.2000;0.0773;-1.0453;
1330.5000;0.0765;-1.0521;
1330.8000;0.0781;-1.0498;
1331.1000;0.0790;-1.0453;
1331.4000;0.0757;-1.0498;
1331.7000;0.0765;-1.0385;
1332.0000;0.0781;-1.0294;
1332.3000;0.0798;-1.0272;
1332.6000;0.0773;-1.0385;
1332.9000;0.0773;-1.0453;
1333.2000;0.0757;-1.0453;
1333.5000;0.0781;-1.0362;
1333.8000;0.0749;-1.0453;
1334.1000;0.0773;-1.0249;
1334.4000;0.0765;-1.0227;
1334.7000;0.0855;-1.0091;
1335.0000;0.0781;-1.0317;
1335.3000;0.0765;-1.0362;
1335.6000;0.0790;-1.0294;
1335.9000;0.0741;-1.0408;
1336.2000;0.0790;-1.0317;
1336.5000;0.0733;-1.0475;
1336.8000;0.0765;-1.0475;
1337.1000;0.0757;-1.0430;
1337.4000;0.0798;-1.0340;
1337.7000;0.0798;-1.0362;
1338.0000;0.0708;-1.0611;
1338.3000;0.0781;-1.0408;
1338.6000;0.0773;-1.0430;
1338.9000;0.0724;-1.0566;
1339.2000;0.0790;-1.0521;
1339.5000;0.0773;-1.0543;
1339.8000;0.0863;-1.0340;
1340.1000;0.0765;-1.0566;
1340.4000;0.0765;-1.0611;
1340.7000;0.0781;-1.0589;
1341.0000;0.0773;-1.0566;
1341.3000;0.0749;-1.0589;
1341.6000;0.0733;-1.0656;
1341.9000;0.0781;-1.0543;
1342.2000;0.0773;-1.0475;
1342.5000;0.0765;-1.0453;
1342.8000;0.0700;-1.0611;
1343.1000;0.0781;-1.0385;
1343.4000;0.0757;-1.0408;
1343.7000;0.0773;-1.0362;
1344.0000;0.0773;-1.0362;
1344.3000;0.0765;-1.0453;
1344.6000;0.0830;-1.0317;
1344.9000;0.0790;-1.0408;
1345.2000;0.0757;-1.0408;
1345.5000;0.0741;-1.0475;
1345.8000;0.0765;-1.0475;
1346.1000;0.0855;-1.0204;
1346.4000;0.0757;-1.0408;
1346.7000;0.0692;-1.0589;
1347.0000;0.0757;-1.0430;
1347.3000;0.0790;-1.0294;
1347.6000;0.0765;-1.0272;
1347.9000;0.0790;-1.0227;
1348.2000;0.0773;-1.0317;
1348.5000;0.0773;-1.0272;
1348.8000;0.0790;-1.0181;
1349.1000;0.0773;-1.0204;
1349.4000;0.0822;-1.0046;
1349.7000;0.0757;-1.0204;
1350.0000;0.0733;-1.0272;
1350.3000;0.0716;-1.0340;
1350.6000;0.0708;-1.0430;
1350.9000;0.0773;-1.0340;
1351.2000;0.0765;-1.0362;
1351.5000;0.0757;-1.0475;
1351.8000;0.0773;-1.0521;
1352.1000;0.0765;-1.0566;
1352.4000;0.0765;-1.0543;
1352.7000;0.0757;-1.0521;
1353.0000;0.0773;-1.0475;
1353.3000;0.0790;-1.0362;
1353.6000;0.0781;-1.0317;
1353.9000;0.0790;-1.0272;
1354.2000;0.0749;-1.0317;
1354.5000;0.0781;-1.0227;
1354.8000;0.0724;-1.0294;
1355.1000;0.0773;-1.0204;
1355.4000;0.0757;-1.0272;
1355.7000;0.0667;-1.0498;
1356.0000;0.0773;-1.0159;
1356.3000;0.0757;-1.0227;
1356.6000;0.0757;-1.0272;
1356.9000;0.0716;-1.0317;
1357.2000;0.0724;-1.0181;
1357.5000;0.0765;-1.0091;
1357.8000;0.0790;-0.9978;
1358.1000;0.0781;-1.0000;
1358.4000;0.0741;-1.0091;
1358.7000;0.0749;-1.0159;
1359.0000;0.0765;-1.0113;
1359.3000;0.0692;-1.0272;
1359.6000;0.0773;-1.0181;
1359.9000;0.0757;-1.0294;
1360.2000;0.0781;-1.0227;
1360.5000;0.0757;-1.0272;
1360.8000;0.0773;-1.0340;
1361.1000;0.0749;-1.0294;
1361.4000;0.0749;-1.0249;
1361.7000;0.0773;-1.0181;
1362.0000;0.0790;-1.0113;
1362.3000;0.0773;-1.0113;
1362.6000;0.0757;-1.0136;
1362.9000;0.0676;-1.0317;
1363.2000;0.0765;-1.0113;
1363.5000;0.0773;-1.0204;
1363.8000;0.0847;-1.0068;
1364.1000;0.0773;-1.0317;
1364.4000;0.0749;-1.0317;
1364.7000;0.0798;-1.0204;
1365.0000;0.0749;-1.0249;
1365.3000;0.0773;-1.0227;
1365.6000;0.0863;-1.0068;
1365.9000;0.0757;-1.0408;
1366.2000;0.0749;-1.0475;
1366.5000;0.0765;-1.0408;
1366.8000;0.0798;-1.0362;
1367.1000;0.0765;-1.0340;
1367.4000;0.0724;-1.0385;
1367.7000;0.0928;-1.0023;
1368.0000;0.0790;-1.0385;
1368.3000;0.0773;-1.0385;
1368.6000;0.0757;-1.0475;
1368.9000;0.0757;-1.0521;
1369.2000;0.0741;-1.0656;
1369.5000;0.0765;-1.0656;
1369.8000;0.0773;-1.0634;
1370.1000;0.0765;-1.0611;
1370.4000;0.0806;-1.0566;
1370.7000;0.0781;-1.0589;
1371.0000;0.0806;-1.0408;
1371.3000;0.0749;-1.0317;
1371.6000;0.0765;-1.0249;
1371.9000;0.0765;-1.0249;
1372.2000;0.0765;-1.0181;
1372.5000;0.0798;-1.0204;
1372.8000;0.0733;-1.0408;
1373.1000;0.0733;-1.0408;
1373.4000;0.0847;-1.0204;
1373.7000;0.0749;-1.0453;
1374.0000;0.0781;-1.0385;
1374.3000;0.0830;-1.0294;
1374.6000;0.0700;-1.0566;
1374.9000;0.0781;-1.0408;
1375.2000;0.0765;-1.0408;
1375.5000;0.0838;-1.0249;
1375.8000;0.0749;-1.0543;
1376.1000;0.0863;-1.0249;
1376.4000;0.0765;-1.0362;
1376.7000;0.0773;-1.0294;
1377.0000;0.0765;-1.0340;
1377.3000;0.0749;-1.0227;
1377.6000;0.0765;-1.0181;
1377.9000;0.0619;-1.0453;
1378.2000;0.0765;-1.0091;
1378.5000;0.0790;-1.0136;
1378.8000;0.0724;-1.0408;
1379.1000;0.0830;-1.0159;
1379.4000;0.0749;-1.0317;
1379.7000;0.0708;-1.0498;
1380.0000;0.0757;-1.0317;
1380.3000;0.0757;-1.0227;
1380.6000;0.0773;-1.0113;
1380.9000;0.0749;-1.0181;
1381.2000;0.0757;-1.0204;
1381.5000;0.0765;-1.0204;
1381.8000;0.0790;-1.0204;
1382.1000;0.0765;-1.0249;
1382.4000;0.0733;-1.0340;
1382.7000;0.0733;-1.0385;
1383.0000;0.0749;-1.0385;
1383.3000;0.0773;-1.0317;
1383.6000;0.0765;-1.0294;
1383.9000;0.0790;-1.0294;
1384.2000;0.0724;-1.0475;
1384.5000;0.0790;-1.0408;
1384.8000;0.0765;-1.0408;
1385.1000;0.0749;-1.0408;
1385.4000;0.0700;-1.0498;
1385.7000;0.0741;-1.0566;
1386.0000;0.0757;-1.0543;
1386.3000;0.0733;-1.0589;
1386.6000;0.0822;-1.0362;
1386.9000;0.0749;-1.0498;
1387.2000;0.0749;-1.0566;
1387.5000;0.0765;-1.0521;
1387.8000;0.0757;-1.0543;
1388.1000;0.0741;-1.0453;
1388.4000;0.0765;-1.0294;
1388.7000;0.0847;-1.0136;
1389.0000;0.0741;-1.0453;
1389.3000;0.0790;-1.0340;
1389.6000;0.0781;-1.0385;
1389.9000;0.0781;-1.0453;
1390.2000;0.0790;-1.0385;
1390.5000;0.0724;-1.0521;
1390.8000;0.0781;-1.0340;
1391.1000;0.0757;-1.0453;
1391.4000;0.0757;-1.0408;
1391.7000;0.0765;-1.0408;
1392.0000;0.0765;-1.0453;
1392.3000;0.0757;-1.0521;
1392.6000;0.0838;-1.0272;
1392.9000;0.0692;-1.0724;
1393.2000;0.0765;-1.0566;
1393.5000;0.0781;-1.0475;
1393.8000;0.0733;-1.0543;
1394.1000;0.0838;-1.0362;
1394.4000;0.0781;-1.0475;
1394.7000;0.0790;-1.0475;
1395.0000;0.0830;-1.0340;
1395.3000;0.0773;-1.0453;
1395.6000;0.0765;-1.0566;
1395.9000;0.0790;-1.0566;
1396.2000;0.0790;-1.0543;
1396.5000;0.0773;-1.0634;
1396.8000;0.0757;-1.0656;
1397.1000;0.0765;-1.0679;
1397.4000;0.0863;-1.0498;
1397.7000;0.0790;-1.0611;
1398.0000;0.0781;-1.0611;
1398.3000;0.0765;-1.0589;
1398.6000;0.0765;-1.0611;
1398.9000;0.0765;-1.0498;
1399.2000;0.0806;-1.0430;
1399.5000;0.0773;-1.0566;
1399.8000;0.0781;-1.0521;
