time/ms;Fluo/V;P700 deltaI/I x10³;
-199.8000;0.0863;-0.9842;
-199.5000;0.0830;-0.9932;
-199.2000;0.0847;-0.9932;
-198.9000;0.0879;-1.0000;
-198.6000;0.1042;-0.9616;
-198.3000;0.0879;-0.9910;
-198.0000;0.0847;-0.9910;
-197.7000;0.0904;-0.9797;
-197.4000;0.0912;-0.9819;
-197.1000;0.0863;-0.9842;
-196.8000;0.0871;-0.9797;
-196.5000;0.0895;-0.9729;
-196.2000;0.0871;-0.9797;
-195.9000;0.1001;-0.9570;
-195.6000;0.0781;-1.0091;
-195.3000;0.0961;-0.9684;
-195.0000;0.0920;-0.9774;
-194.7000;0.0863;-0.9955;
-194.4000;0.0855;-0.9955;
-194.1000;0.0847;-1.0023;
-193.8000;0.0879;-0.9978;
-193.5000;0.0822;-1.0023;
-193.2000;0.0798;-1.0091;
-192.9000;0.0887;-0.9910;
-192.6000;0.0985;-0.9638;
-192.3000;0.1001;-0.9480;
-192.0000;0.0838;-1.0000;
-191.7000;0.0887;-0.9842;
-191.4000;0.0790;-1.0113;
-191.1000;0.0871;-0.9819;
-190.8000;0.0871;-0.9819;
-190.5000;0.0741;-1.0113;
-190.2000;0.0879;-0.9751;
-189.9000;0.0887;-0.9819;
-189.6000;0.0879;-0.9865;
-189.3000;0.0871;-0.9819;
-189.0000;0.0993;-0.9457;
-188.7000;0.0928;-0.9525;
-188.4000;0.0871;-0.9729;
-188.1000;0.0871;-0.9774;
-187.8000;0.0871;-0.9661;
-187.5000;0.0838;-0.9729;
-187.2000;0.0847;-0.9661;
-186.9000;0.0887;-0.9661;
-186.6000;0.0871;-0.9751;
-186.3000;0.0895;-0.9729;
-186.0000;0.0871;-0.9706;
-185.7000;0.0855;-0.9774;
-185.4000;0.0863;-0.9684;
-185.1000;0.0855;-0.9661;
-184.8000;0.0855;-0.9706;
-184.5000;0.0847;-0.9729;
-184.2000;0.0871;-0.9684;
-183.9000;0.0863;-0.9729;
-183.6000;0.0863;-0.9774;
-183.3000;0.0879;-0.9706;
-183.0000;0.0838;-0.9751;
-182.7000;0.0863;-0.9729;
-182.4000;0.0855;-0.9797;
-182.1000;0.0855;-0.9842;
-181.8000;0.0855;-0.9865;
-181.5000;0.0863;-0.9797;
-181.2000;0.0863;-0.9797;
-180.9000;0.0855;-0.9774;
-180.6000;0.0887;-0.9684;
-180.3000;0.0806;-0.9887;
-180.0000;0.0847;-0.9797;
-179.7000;0.0830;-0.9797;
-179.4000;0.0863;-0.9729;
-179.1000;0.0879;-0.9729;
-178.8000;0.0928;-0.9616;
-178.5000;0.0863;-0.9774;
-178.2000;0.0830;-0.9729;
-177.9000;0.0855;-0.9706;
-177.6000;0.0847;-0.9616;
-177.3000;0.0855;-0.9661;
-177.0000;0.0871;-0.9661;
-176.7000;0.0765;-0.9932;
-176.4000;0.0847;-0.9751;
-176.1000;0.0863;-0.9638;
-175.8000;0.0895;-0.9548;
-175.5000;0.0855;-0.9661;
-175.2000;0.0838;-0.9638;
-174.9000;0.0847;-0.9684;
-174.6000;0.0871;-0.9616;
-174.3000;0.0895;-0.9570;
-174.0000;0.0871;-0.9525;
-173.7000;0.0822;-0.9706;
-173.4000;0.0806;-0.9751;
-173.1000;0.0830;-0.9729;
-172.8000;0.0871;-0.9729;
-172.5000;0.0863;-0.9706;
-172.2000;0.0912;-0.9570;
-171.9000;0.0838;-0.9842;
-171.6000;0.0871;-0.9774;
-171.3000;0.0887;-0.9751;
-171.0000;0.0855;-0.9797;
-170.7000;0.0887;-0.9774;
-170.4000;0.0855;-0.9797;
-170.1000;0.0855;-0.9842;
-169.8000;0.0847;-0.9797;
-169.5000;0.0871;-0.9842;
-169.2000;0.0871;-0.9751;
-168.9000;0.0855;-0.9819;
-168.6000;0.0936;-0.9684;
-168.3000;0.0871;-0.9842;
-168.0000;0.0871;-0.9819;
-167.7000;0.0879;-0.9842;
-167.4000;0.0830;-0.9887;
-167.1000;0.0863;-0.9910;
-166.8000;0.0871;-0.9932;
-166.5000;0.0879;-0.9842;
-166.2000;0.0904;-0.9706;
-165.9000;0.0847;-0.9842;
-165.6000;0.0920;-0.9616;
-165.3000;0.0952;-0.9661;
-165.0000;0.0879;-0.9751;
-164.7000;0.0928;-0.9638;
-164.4000;0.0887;-0.9684;
-164.1000;0.0863;-0.9616;
-163.8000;0.0887;-0.9638;
-163.5000;0.0863;-0.9706;
-163.2000;0.0830;-0.9887;
-162.9000;0.0871;-0.9774;
-162.6000;0.0863;-0.9729;
-162.3000;0.0863;-0.9706;
-162.0000;0.0887;-0.9593;
-161.7000;0.0887;-0.9570;
-161.4000;0.0847;-0.9684;
-161.1000;0.0871;-0.9616;
-160.8000;0.0879;-0.9729;
-160.5000;0.0790;-0.9978;
-160.2000;0.0879;-0.9706;
-159.9000;0.0912;-0.9706;
-159.6000;0.0871;-0.9865;
-159.3000;0.0790;-1.0091;
-159.0000;0.0863;-0.9955;
-158.7000;0.0847;-1.0000;
-158.4000;0.0871;-0.9842;
-158.1000;0.0830;-0.9819;
-157.8000;0.0871;-0.9774;
-157.5000;0.0879;-0.9684;
-157.2000;0.0838;-0.9751;
-156.9000;0.0879;-0.9570;
-156.6000;0.0863;-0.9661;
-156.3000;0.0871;-0.9616;
-156.0000;0.0879;-0.9684;
-155.7000;0.0863;-0.9751;
-155.4000;0.0879;-0.9774;
-155.1000;0.0855;-0.9797;
-154.8000;0.0887;-0.9797;
-154.5000;0.0871;-0.9797;
-154.2000;0.0798;-0.9955;
-153.9000;0.0855;-0.9932;
-153.6000;0.0887;-0.9887;
-153.3000;0.0855;-0.9865;
-153.0000;0.0863;-0.9774;
-152.7000;0.0912;-0.9638;
-152.4000;0.0830;-0.9887;
-152.1000;0.0847;-0.9819;
-151.8000;0.0871;-0.9774;
-151.5000;0.0700;-1.0227;
-151.2000;0.0952;-0.9570;
-150.9000;0.0871;-0.9774;
-150.6000;0.0863;-0.9774;
-150.3000;0.0822;-0.9842;
-150.0000;0.0847;-0.9842;
-149.7000;0.0855;-0.9819;
-149.4000;0.0814;-0.9932;
-149.1000;0.0871;-0.9751;
-148.8000;0.0855;-0.9797;
-148.5000;0.0863;-0.9751;
-148.2000;0.0847;-0.9706;
-147.9000;0.0863;-0.9751;
-147.6000;0.0838;-0.9751;
-147.3000;0.0814;-0.9819;
-147.0000;0.0781;-0.9842;
-146.7000;0.0871;-0.9616;
-146.4000;0.0855;-0.9616;
-146.1000;0.0749;-0.9978;
-145.8000;0.0863;-0.9593;
-145.5000;0.0781;-0.9751;
-145.2000;0.0847;-0.9638;
-144.9000;0.0822;-0.9751;
-144.6000;0.0855;-0.9661;
-144.3000;0.0928;-0.9570;
-144.0000;0.0969;-0.9525;
-143.7000;0.0871;-0.9819;
-143.4000;0.0847;-0.9751;
-143.1000;0.0716;-1.0113;
-142.8000;0.0838;-0.9774;
-142.5000;0.0855;-0.9729;
-142.2000;0.0879;-0.9751;
-141.9000;0.0863;-0.9774;
-141.6000;0.0847;-0.9797;
-141.3000;0.0879;-0.9706;
-141.0000;0.0822;-0.9932;
-140.7000;0.0855;-0.9887;
-140.4000;0.0895;-0.9797;
-140.1000;0.0879;-0.9797;
-139.8000;0.0879;-0.9706;
-139.5000;0.0871;-0.9751;
-139.2000;0.0847;-0.9797;
-138.9000;0.0863;-0.9684;
-138.6000;0.0855;-0.9842;
-138.3000;0.0871;-0.9819;
-138.0000;0.0879;-0.9751;
-137.7000;0.0814;-0.9955;
-137.4000;0.0871;-0.9751;
-137.1000;0.0871;-0.9638;
-136.8000;0.0871;-0.9593;
-136.5000;0.0855;-0.9616;
-136.2000;0.0855;-0.9661;
-135.9000;0.0855;-0.9729;
-135.6000;0.0855;-0.9729;
-135.3000;0.0855;-0.9661;
-135.0000;0.0838;-0.9661;
-134.7000;0.0855;-0.9616;
-134.4000;0.0871;-0.9503;
-134.1000;0.0895;-0.9525;
-133.8000;0.0863;-0.9684;
-133.5000;0.0928;-0.9616;
-133.2000;0.0863;-0.9774;
-132.9000;0.0879;-0.9819;
-132.6000;0.0855;-0.9865;
-132.3000;0.0863;-0.9842;
-132.0000;0.0822;-0.9978;
-131.7000;0.0871;-0.9887;
-131.4000;0.0855;-0.9910;
-131.1000;0.0887;-0.9865;
-130.8000;0.0879;-0.9819;
-130.5000;0.0863;-0.9797;
-130.2000;0.0912;-0.9616;
-129.9000;0.0847;-0.9729;
-129.6000;0.0847;-0.9751;
-129.3000;0.0871;-0.9706;
-129.0000;0.0895;-0.9684;
-128.7000;0.0904;-0.9684;
-128.4000;0.0806;-0.9955;
-128.1000;0.0847;-0.9819;
-127.8000;0.0847;-0.9706;
-127.5000;0.0871;-0.9706;
-127.2000;0.0944;-0.9480;
-126.9000;0.0855;-0.9684;
-126.6000;0.0855;-0.9684;
-126.3000;0.0863;-0.9706;
-126.0000;0.0838;-0.9706;
-125.7000;0.0847;-0.9729;
-125.4000;0.0985;-0.9389;
-125.1000;0.0887;-0.9706;
-124.8000;0.0863;-0.9819;
-124.5000;0.0887;-0.9684;
-124.2000;0.0887;-0.9751;
-123.9000;0.0822;-0.9887;
-123.6000;0.0847;-0.9774;
-123.3000;0.0871;-0.9684;
-123.0000;0.0879;-0.9706;
-122.7000;0.0871;-0.9729;
-122.4000;0.0847;-0.9751;
-122.1000;0.0863;-0.9729;
-121.8000;0.0871;-0.9751;
-121.5000;0.0863;-0.9774;
-121.2000;0.0855;-0.9819;
-120.9000;0.0863;-0.9842;
-120.6000;0.0855;-0.9819;
-120.3000;0.0944;-0.9525;
-120.0000;0.0863;-0.9819;
-119.7000;0.0871;-0.9706;
-119.4000;0.0855;-0.9593;
-119.1000;0.0936;-0.9412;
-118.8000;0.0830;-0.9706;
-118.5000;0.0871;-0.9593;
-118.2000;0.0871;-0.9729;
-117.9000;0.0879;-0.9706;
-117.6000;0.0798;-0.9978;
-117.3000;0.0863;-0.9865;
-117.0000;0.0879;-0.9661;
-116.7000;0.0863;-0.9616;
-116.4000;0.0847;-0.9638;
-116.1000;0.0879;-0.9570;
-115.8000;0.0855;-0.9638;
-115.5000;0.0936;-0.9389;
-115.2000;0.0879;-0.9570;
-114.9000;0.0879;-0.9616;
-114.6000;0.0871;-0.9570;
-114.3000;0.0920;-0.9389;
-114.0000;0.0838;-0.9570;
-113.7000;0.0855;-0.9684;
-113.4000;0.0863;-0.9751;
-113.1000;0.0863;-0.9751;
-112.8000;0.0871;-0.9751;
-112.5000;0.0912;-0.9638;
-112.2000;0.0855;-0.9797;
-111.9000;0.0871;-0.9729;
-111.6000;0.0806;-0.9751;
-111.3000;0.0887;-0.9570;
-111.0000;0.0847;-0.9661;
-110.7000;0.0871;-0.9548;
-110.4000;0.0855;-0.9593;
-110.1000;0.0847;-0.9616;
-109.8000;0.0855;-0.9570;
-109.5000;0.0952;-0.9367;
-109.2000;0.0887;-0.9570;
-108.9000;0.0855;-0.9661;
-108.6000;0.0863;-0.9684;
-108.3000;0.0830;-0.9729;
-108.0000;0.0806;-0.9774;
-107.7000;0.0879;-0.9616;
-107.4000;0.0814;-0.9729;
-107.1000;0.0871;-0.9570;
-106.8000;0.0830;-0.9774;
-106.5000;0.0855;-0.9661;
-106.2000;0.0944;-0.9525;
-105.9000;0.0863;-0.9706;
-105.6000;0.0895;-0.9525;
-105.3000;0.0887;-0.9525;
-105.0000;0.0822;-0.9638;
-104.7000;0.0847;-0.9706;
-104.4000;0.0822;-0.9661;
-104.1000;0.0863;-0.9593;
-103.8000;0.0871;-0.9548;
-103.5000;0.0863;-0.9593;
-103.2000;0.0781;-0.9797;
-102.9000;0.0838;-0.9684;
-102.6000;0.0863;-0.9638;
-102.3000;0.0855;-0.9684;
-102.0000;0.0863;-0.9751;
-101.7000;0.0879;-0.9751;
-101.4000;0.0879;-0.9819;
-101.1000;0.0871;-0.9865;
-100.8000;0.0863;-0.9910;
-100.5000;0.0855;-0.9932;
-100.2000;0.0847;-1.0000;
-99.9000;0.0863;-1.0000;
-99.6000;0.0830;-1.0000;
-99.3000;0.0838;-1.0023;
-99.0000;0.0871;-0.9978;
-98.7000;0.0847;-0.9932;
-98.4000;0.0855;-0.9910;
-98.1000;0.0830;-1.0046;
-97.8000;0.0847;-1.0068;
-97.5000;0.0830;-1.0136;
-97.2000;0.0863;-1.0046;
-96.9000;0.0863;-1.0000;
-96.6000;0.0863;-0.9910;
-96.3000;0.0863;-0.9910;
-96.0000;0.0863;-0.9910;
-95.7000;0.0879;-0.9932;
-95.4000;0.0855;-0.9865;
-95.1000;0.0879;-0.9774;
-94.8000;0.0847;-0.9910;
-94.5000;0.0887;-0.9842;
-94.2000;0.0879;-0.9865;
-93.9000;0.0863;-0.9978;
-93.6000;0.0847;-1.0000;
-93.3000;0.0863;-0.9932;
-93.0000;0.0838;-0.9955;
-92.7000;0.0879;-0.9887;
-92.4000;0.0895;-0.9797;
-92.1000;0.0863;-0.9887;
-91.8000;0.0879;-0.9865;
-91.5000;0.0855;-0.9978;
-91.2000;0.0855;-0.9955;
-90.9000;0.0855;-0.9910;
-90.6000;0.0879;-0.9910;
-90.3000;0.0863;-0.9978;
-90.0000;0.0855;-1.0068;
-89.7000;0.0855;-1.0023;
-89.4000;0.0895;-1.0023;
-89.1000;0.0838;-1.0023;
-88.8000;0.0855;-1.0068;
-88.5000;0.0847;-1.0181;
-88.2000;0.0887;-1.0091;
-87.9000;0.0847;-1.0136;
-87.6000;0.0847;-1.0023;
-87.3000;0.0863;-0.9955;
-87.0000;0.0879;-0.9865;
-86.7000;0.0871;-0.9887;
-86.4000;0.0863;-0.9932;
-86.1000;0.0863;-0.9955;
-85.8000;0.0887;-0.9887;
-85.5000;0.0855;-1.0023;
-85.2000;0.0838;-1.0046;
-84.9000;0.0871;-1.0068;
-84.6000;0.0814;-1.0113;
-84.3000;0.0879;-0.9887;
-84.0000;0.0985;-0.9570;
-83.7000;0.0847;-0.9865;
-83.4000;0.0790;-1.0068;
-83.1000;0.0855;-0.9842;
-82.8000;0.0887;-0.9774;
-82.5000;0.0887;-0.9729;
-82.2000;0.0847;-0.9932;
-81.9000;0.0895;-0.9797;
-81.6000;0.0871;-0.9887;
-81.3000;0.0879;-0.9819;
-81.0000;0.0847;-0.9887;
-80.7000;0.0912;-0.9729;
-80.4000;0.0961;-0.9616;
-80.1000;0.0838;-0.9887;
-79.8000;0.0936;-0.9638;
-79.5000;0.0855;-0.9865;
-79.2000;0.0855;-0.9887;
-78.9000;0.0847;-0.9910;
-78.6000;0.0855;-0.9842;
-78.3000;0.0855;-0.9865;
-78.0000;0.0830;-0.9932;
-77.7000;0.0871;-0.9865;
-77.4000;0.0830;-0.9955;
-77.1000;0.0871;-0.9887;
-76.8000;0.0863;-0.9842;
-76.5000;0.0863;-0.9774;
-76.2000;0.0855;-0.9684;
-75.9000;0.0895;-0.9616;
-75.6000;0.0895;-0.9616;
-75.3000;0.0863;-0.9774;
-75.0000;0.0912;-0.9616;
-74.7000;0.0863;-0.9774;
-74.4000;0.0855;-0.9842;
-74.1000;0.0944;-0.9751;
-73.8000;0.0847;-1.0068;
-73.5000;0.0822;-1.0136;
-73.2000;0.0855;-0.9978;
-72.9000;0.0838;-1.0068;
-72.6000;0.0863;-1.0068;
-72.3000;0.0871;-1.0023;
-72.0000;0.0830;-1.0023;
-71.7000;0.0871;-1.0023;
-71.4000;0.0879;-0.9978;
-71.1000;0.0871;-1.0068;
-70.8000;0.0871;-1.0000;
-70.5000;0.0912;-0.9887;
-70.2000;0.0863;-0.9978;
-69.9000;0.0944;-0.9865;
-69.6000;0.0855;-1.0091;
-69.3000;0.1018;-0.9751;
-69.0000;0.0863;-1.0136;
-68.7000;0.0863;-1.0091;
-68.4000;0.0904;-1.0068;
-68.1000;0.0871;-1.0136;
-67.8000;0.0871;-1.0091;
-67.5000;0.0855;-1.0046;
-67.2000;0.0879;-0.9978;
-66.9000;0.0855;-1.0000;
-66.6000;0.0871;-1.0000;
-66.3000;0.0879;-0.9978;
-66.0000;0.0871;-1.0000;
-65.7000;0.0847;-1.0091;
-65.4000;0.0977;-0.9751;
-65.1000;0.0855;-0.9978;
-64.8000;0.0863;-0.9978;
-64.5000;0.0871;-1.0000;
-64.2000;0.0855;-1.0091;
-63.9000;0.0863;-1.0068;
-63.6000;0.0830;-1.0113;
-63.3000;0.0855;-0.9978;
-63.0000;0.0863;-0.9910;
-62.7000;0.0847;-0.9910;
-62.4000;0.0863;-0.9842;
-62.1000;0.0912;-0.9797;
-61.8000;0.0871;-0.9910;
-61.5000;0.0814;-1.0046;
-61.2000;0.0863;-1.0000;
-60.9000;0.0863;-0.9978;
-60.6000;0.0863;-0.9978;
-60.3000;0.0863;-1.0091;
-60.0000;0.0822;-1.0091;
-59.7000;0.0847;-1.0091;
-59.4000;0.0855;-1.0023;
-59.1000;0.0879;-0.9887;
-58.8000;0.0855;-1.0000;
-58.5000;0.0838;-1.0113;
-58.2000;0.0749;-1.0294;
-57.9000;0.0879;-1.0046;
-57.6000;0.0879;-1.0113;
-57.3000;0.0838;-1.0181;
-57.0000;0.0920;-0.9955;
-56.7000;0.0879;-1.0091;
-56.4000;0.0879;-1.0113;
-56.1000;0.0904;-1.0113;
-55.8000;0.0806;-1.0385;
-55.5000;0.0895;-1.0181;
-55.2000;0.0847;-1.0294;
-54.9000;0.0879;-1.0249;
-54.6000;0.0838;-1.0294;
-54.3000;0.0855;-1.0249;
-54.0000;0.0814;-1.0340;
-53.7000;0.0863;-1.0091;
-53.4000;0.0871;-1.0091;
-53.1000;0.0822;-1.0272;
-52.8000;0.0871;-1.0113;
-52.5000;0.0838;-1.0159;
-52.2000;0.0977;-0.9751;
-51.9000;0.0822;-1.0159;
-51.6000;0.0871;-0.9932;
-51.3000;0.0863;-0.9932;
-51.0000;0.0838;-0.9955;
-50.7000;0.0879;-0.9910;
-50.4000;0.0912;-0.9842;
-50.1000;0.0863;-0.9865;
-49.8000;0.0887;-0.9819;
-49.5000;0.0863;-0.9955;
-49.2000;0.0904;-0.9887;
-48.9000;0.0855;-0.9978;
-48.6000;0.0863;-0.9910;
-48.3000;0.0855;-0.9955;
-48.0000;0.0863;-0.9910;
-47.7000;0.0887;-0.9865;
-47.4000;0.0847;-1.0046;
-47.1000;0.0847;-0.9978;
-46.8000;0.0822;-1.0068;
-46.5000;0.0871;-0.9910;
-46.2000;0.0855;-0.9910;
-45.9000;0.0871;-0.9910;
-45.6000;0.0969;-0.9661;
-45.3000;0.0895;-0.9751;
-45.0000;0.0855;-0.9819;
-44.7000;0.0985;-0.9548;
-44.4000;0.0961;-0.9638;
-44.1000;0.0879;-0.9797;
-43.8000;0.0863;-0.9932;
-43.5000;0.0847;-0.9932;
-43.2000;0.0847;-0.9887;
-42.9000;0.0879;-0.9887;
-42.6000;0.0936;-0.9842;
-42.3000;0.0863;-1.0023;
-42.0000;0.0863;-1.0046;
-41.7000;0.0863;-1.0046;
-41.4000;0.0863;-0.9978;
-41.1000;0.0871;-0.9978;
-40.8000;0.0847;-1.0113;
-40.5000;0.0863;-1.0091;
-40.2000;0.0879;-0.9955;
-39.9000;0.0879;-0.9910;
-39.6000;0.0847;-0.9955;
-39.3000;0.0855;-1.0046;
-39.0000;0.0879;-0.9865;
-38.7000;0.0863;-0.9865;
-38.4000;0.0847;-0.9819;
-38.1000;0.0847;-0.9932;
-37.8000;0.0855;-0.9865;
-37.5000;0.0871;-0.9932;
-37.2000;0.0847;-1.0000;
-36.9000;0.0806;-1.0204;
-36.6000;0.0871;-0.9932;
-36.3000;0.0863;-0.9910;
-36.0000;0.0863;-0.9910;
-35.7000;0.0895;-0.9797;
-35.4000;0.0838;-0.9887;
-35.1000;0.0863;-0.9797;
-34.8000;0.0904;-0.9751;
-34.5000;0.0830;-0.9955;
-34.2000;0.0863;-0.9887;
-33.9000;0.0838;-0.9932;
-33.6000;0.0847;-0.9887;
-33.3000;0.0904;-0.9661;
-33.0000;0.0798;-1.0023;
-32.7000;0.0863;-0.9910;
-32.4000;0.0863;-0.9932;
-32.1000;0.0895;-1.0023;
-31.8000;0.0830;-0.9955;
-31.5000;0.0871;-0.9865;
-31.2000;0.0887;-0.9932;
-30.9000;0.0863;-0.9955;
-30.6000;0.0838;-1.0046;
-30.3000;0.0863;-1.0046;
-30.0000;0.0871;-1.0000;
-29.7000;0.0871;-1.0000;
-29.4000;0.0871;-0.9955;
-29.1000;0.0871;-0.9932;
-28.8000;0.0871;-0.9910;
-28.5000;0.0904;-0.9797;
-28.2000;0.0895;-0.9774;
-27.9000;0.0863;-0.9887;
-27.6000;0.0847;-0.9932;
-27.3000;0.0887;-0.9842;
-27.0000;0.0838;-0.9978;
-26.7000;0.0847;-0.9955;
-26.4000;0.0863;-0.9865;
-26.1000;0.0904;-0.9819;
-25.8000;0.0847;-1.0046;
-25.5000;0.0871;-0.9955;
-25.2000;0.0871;-0.9932;
-24.9000;0.0863;-0.9910;
-24.6000;0.0863;-0.9978;
-24.3000;0.0863;-0.9955;
-24.0000;0.0904;-0.9887;
-23.7000;0.0863;-0.9887;
-23.4000;0.0847;-0.9955;
-23.1000;0.0838;-0.9887;
-22.8000;0.0895;-0.9729;
-22.5000;0.0871;-0.9842;
-22.2000;0.0847;-0.9887;
-21.9000;0.0855;-0.9910;
-21.6000;0.0863;-0.9887;
-21.3000;0.0838;-0.9978;
-21.0000;0.0847;-0.9955;
-20.7000;0.0936;-0.9706;
-20.4000;0.0847;-0.9932;
-20.1000;0.0855;-0.9819;
-19.8000;0.0830;-0.9774;
-19.5000;0.0904;-0.9593;
-19.2000;0.0863;-0.9729;
-18.9000;0.0847;-0.9910;
-18.6000;0.0985;-0.9570;
-18.3000;0.0814;-1.0068;
-18.0000;0.0863;-0.9932;
-17.7000;0.0863;-0.9932;
-17.4000;0.0855;-0.9910;
-17.1000;0.0879;-0.9797;
-16.8000;0.0847;-0.9842;
-16.5000;0.0822;-0.9978;
-16.2000;0.0855;-0.9910;
-15.9000;0.0879;-0.9955;
-15.6000;0.0830;-1.0046;
-15.3000;0.0847;-1.0000;
-15.0000;0.0806;-1.0023;
-14.7000;0.0879;-0.9819;
-14.4000;0.0887;-0.9887;
-14.1000;0.0822;-1.0068;
-13.8000;0.0847;-0.9978;
-13.5000;0.0855;-0.9978;
-13.2000;0.0855;-1.0023;
-12.9000;0.0887;-0.9955;
-12.6000;0.0871;-0.9955;
-12.3000;0.0871;-0.9978;
-12.0000;0.0871;-1.0046;
-11.7000;0.0838;-1.0046;
-11.4000;0.0863;-1.0023;
-11.1000;0.0977;-0.9661;
-10.8000;0.0708;-1.0475;
-10.5000;0.0904;-0.9955;
-10.2000;0.0887;-1.0023;
-9.9000;0.0790;-1.0227;
-9.6000;0.0847;-1.0046;
-9.3000;0.0855;-1.0000;
-9.0000;0.0790;-1.0023;
-8.7000;0.0847;-0.9842;
-8.4000;0.0855;-0.9865;
-8.1000;0.0847;-0.9955;
-7.8000;0.0838;-1.0000;
-7.5000;0.0790;-1.0136;
-7.2000;0.0887;-0.9978;
-6.9000;0.0822;-1.0113;
-6.6000;0.0904;-0.9932;
-6.3000;0.0847;-1.0068;
-6.0000;0.0912;-0.9932;
-5.7000;0.0863;-1.0046;
-5.4000;0.0895;-0.9955;
-5.1000;0.0871;-0.9932;
-4.8000;0.0855;-0.9932;
-4.5000;0.0847;-0.9887;
-4.2000;0.0863;-0.9910;
-3.9000;0.0912;-0.9865;
-3.6000;0.0822;-1.0046;
-3.3000;0.0887;-0.9842;
-3.0000;0.0847;-1.0046;
-2.7000;0.0847;-1.0068;
-2.4000;0.0879;-1.0023;
-2.1000;0.0879;-1.0000;
-1.8000;0.0838;-1.0113;
-1.5000;0.0944;-0.9819;
-1.2000;0.0879;-0.9910;
-0.9000;0.0887;-0.9865;
-0.6000;0.0887;-0.9910;
-0.3000;0.0904;-0.9910;
0.0000;0.0904;-0.9910;
0.3000;0.0879;-1.0046;
0.6000;0.0855;-1.0023;
0.9000;0.0871;-0.9932;
1.2000;0.0871;-0.9797;
1.5000;0.0855;-0.9774;
1.8000;0.0863;-0.9706;
2.1000;0.0895;-0.9593;
2.4000;0.0879;-0.9525;
2.7000;0.0920;-0.9367;
3.0000;0.0904;-0.9367;
3.3000;0.0879;-0.9389;
3.6000;0.0879;-0.9299;
3.9000;0.0863;-0.9367;
4.2000;0.0912;-0.9141;
4.5000;0.0838;-0.9163;
4.8000;0.0912;-0.8937;
5.1000;0.0904;-0.8914;
5.4000;0.0887;-0.8801;
5.7000;0.0895;-0.8733;
6.0000;0.0920;-0.8733;
6.3000;0.0895;-0.8824;
6.6000;0.0912;-0.8846;
6.9000;0.0871;-0.8892;
7.2000;0.0871;-0.8960;
7.5000;0.0904;-0.8914;
7.8000;0.0879;-0.8982;
8.1000;0.0912;-0.8869;
8.4000;0.0765;-0.9254;
8.7000;0.0887;-0.8892;
9.0000;0.0912;-0.8914;
9.3000;0.0912;-0.9005;
9.6000;0.0838;-0.9141;
9.9000;0.0904;-0.8982;
10.2000;0.0895;-0.9005;
10.5000;0.0928;-0.8914;
10.8000;0.0904;-0.8982;
11.1000;0.0904;-0.8914;
11.4000;0.0879;-0.8914;
11.7000;0.0895;-0.8846;
12.0000;0.0879;-0.8869;
12.3000;0.0928;-0.8824;
12.6000;0.0904;-0.8869;
12.9000;0.0895;-0.8960;
13.2000;0.0806;-0.9163;
13.5000;0.0863;-0.9073;
13.8000;0.0887;-0.9027;
14.1000;0.0822;-0.9186;
14.4000;0.0895;-0.8892;
14.7000;0.0920;-0.8824;
15.0000;0.0838;-0.9005;
15.3000;0.0895;-0.8801;
15.6000;0.0912;-0.8824;
15.9000;0.0904;-0.8869;
16.2000;0.0920;-0.8914;
16.5000;0.0895;-0.9005;
16.8000;0.0928;-0.9005;
17.1000;0.0847;-0.9276;
17.4000;0.0912;-0.9163;
17.7000;0.0895;-0.9073;
18.0000;0.0895;-0.9073;
18.3000;0.0904;-0.9027;
18.6000;0.0887;-0.9095;
18.9000;0.0887;-0.9118;
19.2000;0.0887;-0.9027;
19.5000;0.0928;-0.8982;
19.8000;0.0895;-0.8960;
20.1000;0.0920;-0.8869;
20.4000;0.1009;-0.8552;
20.7000;0.0904;-0.8779;
21.0000;0.0912;-0.8824;
21.3000;0.0920;-0.8801;
21.6000;0.0895;-0.8824;
21.9000;0.0895;-0.8892;
22.2000;0.0912;-0.8801;
22.5000;0.0879;-0.8846;
22.8000;0.0920;-0.8756;
23.1000;0.0895;-0.8779;
23.4000;0.0912;-0.8756;
23.7000;0.0904;-0.8846;
24.0000;0.0887;-0.8960;
24.3000;0.0904;-0.8937;
24.6000;0.0904;-0.9005;
24.9000;0.0895;-0.9050;
25.2000;0.0912;-0.8960;
25.5000;0.0936;-0.8960;
25.8000;0.0912;-0.8982;
26.1000;0.0912;-0.9073;
26.4000;0.0969;-0.8914;
26.7000;0.0920;-0.8982;
27.0000;0.0855;-0.9163;
27.3000;0.0912;-0.9027;
27.6000;0.0879;-0.9050;
27.9000;0.0912;-0.8914;
28.2000;0.0936;-0.8869;
28.5000;0.0920;-0.8846;
28.8000;0.0944;-0.8824;
29.1000;0.0920;-0.8846;
29.4000;0.0887;-0.8937;
29.7000;0.0928;-0.8914;
30.0000;0.0936;-0.8937;
30.3000;0.0912;-0.9027;
30.6000;0.1050;-0.8598;
30.9000;0.0928;-0.8914;
31.2000;0.0912;-0.8960;
31.5000;0.0928;-0.8960;
31.8000;0.0887;-0.9073;
32.1000;0.0887;-0.9118;
32.4000;0.0920;-0.9095;
32.7000;0.1050;-0.8688;
33.0000;0.0920;-0.8982;
33.3000;0.0952;-0.8937;
33.6000;0.0904;-0.9027;
33.9000;0.0969;-0.8960;
34.2000;0.0895;-0.9141;
34.5000;0.0928;-0.9005;
34.8000;0.0928;-0.9005;
35.1000;0.0928;-0.8846;
35.4000;0.0879;-0.8982;
35.7000;0.0912;-0.8914;
36.0000;0.0904;-0.8914;
36.3000;0.0952;-0.8824;
36.6000;0.0879;-0.8914;
36.9000;0.0879;-0.8937;
37.2000;0.0904;-0.8960;
37.5000;0.0912;-0.9050;
37.8000;0.0895;-0.9027;
38.1000;0.0912;-0.8892;
38.4000;0.0904;-0.8892;
38.7000;0.0830;-0.9118;
39.0000;0.0993;-0.8711;
39.3000;0.0790;-0.9163;
39.6000;0.0944;-0.8733;
39.9000;0.0928;-0.8779;
40.2000;0.0904;-0.8846;
40.5000;0.0887;-0.8892;
40.8000;0.0904;-0.8801;
41.1000;0.0985;-0.8665;
41.4000;0.0904;-0.8733;
41.7000;0.0895;-0.8711;
42.0000;0.0944;-0.8620;
42.3000;0.0912;-0.8756;
42.6000;0.0871;-0.8960;
42.9000;0.0920;-0.8914;
43.2000;0.0936;-0.8846;
43.5000;0.0904;-0.8892;
43.8000;0.0912;-0.8801;
44.1000;0.0912;-0.8824;
44.4000;0.0912;-0.8824;
44.7000;0.0920;-0.8846;
45.0000;0.0961;-0.8756;
45.3000;0.0912;-0.8869;
45.6000;0.0912;-0.8937;
45.9000;0.0895;-0.9095;
46.2000;0.0928;-0.9027;
46.5000;0.0944;-0.8914;
46.8000;0.0912;-0.8824;
47.1000;0.0912;-0.8846;
47.4000;0.0895;-0.8982;
47.7000;0.0920;-0.9005;
48.0000;0.0895;-0.9027;
48.3000;0.0904;-0.9027;
48.6000;0.0895;-0.9118;
48.9000;0.0936;-0.9073;
49.2000;0.0895;-0.9118;
49.5000;0.0904;-0.9141;
49.8000;0.0904;-0.9095;
50.1000;0.0920;-0.9005;
50.4000;0.0895;-0.9027;
50.7000;0.0871;-0.9027;
51.0000;0.0887;-0.8982;
51.3000;0.0912;-0.8960;
51.6000;0.0920;-0.8982;
51.9000;0.0920;-0.9005;
52.2000;0.0928;-0.8892;
52.5000;0.0936;-0.8824;
52.8000;0.0912;-0.9005;
53.1000;0.0928;-0.8960;
53.4000;0.0936;-0.8892;
53.7000;0.0952;-0.8711;
54.0000;0.0920;-0.8824;
54.3000;0.0904;-0.8914;
54.6000;0.0904;-0.9005;
54.9000;0.0887;-0.9027;
55.2000;0.0904;-0.9027;
55.5000;0.0985;-0.8846;
55.8000;0.0871;-0.9118;
56.1000;0.0936;-0.8960;
56.4000;0.0928;-0.8982;
56.7000;0.0912;-0.9005;
57.0000;0.0920;-0.8982;
57.3000;0.0904;-0.9095;
57.6000;0.0912;-0.9095;
57.9000;0.0952;-0.8960;
58.2000;0.0879;-0.9163;
58.5000;0.0920;-0.9141;
58.8000;0.0920;-0.9095;
59.1000;0.0944;-0.9095;
59.4000;0.0912;-0.9141;
59.7000;0.0895;-0.9186;
60.0000;0.0904;-0.9141;
60.3000;0.0936;-0.9027;
60.6000;0.0904;-0.9095;
60.9000;0.0928;-0.9050;
61.2000;0.0920;-0.9118;
61.5000;0.0912;-0.9073;
61.8000;0.0928;-0.9005;
62.1000;0.0912;-0.9027;
62.4000;0.0887;-0.9005;
62.7000;0.0920;-0.8914;
63.0000;0.0928;-0.8914;
63.3000;0.0936;-0.8914;
63.6000;0.0936;-0.8892;
63.9000;0.0936;-0.8892;
64.2000;0.0936;-0.8892;
64.5000;0.0928;-0.8869;
64.8000;0.0920;-0.8937;
65.1000;0.0944;-0.8824;
65.4000;0.0944;-0.8846;
65.7000;0.0928;-0.8914;
66.0000;0.0961;-0.8892;
66.3000;0.0879;-0.9118;
66.6000;0.0895;-0.9027;
66.9000;0.0912;-0.9005;
67.2000;0.0912;-0.9005;
67.5000;0.0977;-0.8824;
67.8000;0.0928;-0.9027;
68.1000;0.0920;-0.9163;
68.4000;0.0887;-0.9208;
68.7000;0.0904;-0.9186;
69.0000;0.0920;-0.9141;
69.3000;0.0944;-0.9118;
69.6000;0.0928;-0.9050;
69.9000;0.0944;-0.8982;
70.2000;0.0936;-0.8960;
70.5000;0.0928;-0.8982;
70.8000;0.0928;-0.8937;
71.1000;0.0912;-0.9027;
71.4000;0.0904;-0.8982;
71.7000;0.0912;-0.9050;
72.0000;0.0944;-0.9073;
72.3000;0.0912;-0.9208;
72.6000;0.0920;-0.9186;
72.9000;0.0944;-0.9073;
73.2000;0.0928;-0.9073;
73.5000;0.0928;-0.9027;
73.8000;0.1001;-0.8869;
74.1000;0.0920;-0.9141;
74.4000;0.0790;-0.9480;
74.7000;0.0912;-0.9163;
75.0000;0.0904;-0.9118;
75.3000;0.0993;-0.8824;
75.6000;0.0920;-0.9005;
75.9000;0.0928;-0.9005;
76.2000;0.0928;-0.8937;
76.5000;0.0936;-0.8960;
76.8000;0.0920;-0.9005;
77.1000;0.0904;-0.9005;
77.4000;0.0879;-0.9095;
77.7000;0.0912;-0.8960;
78.0000;0.0895;-0.9050;
78.3000;0.0879;-0.9141;
78.6000;0.0904;-0.9141;
78.9000;0.0977;-0.8937;
79.2000;0.0830;-0.9276;
79.5000;0.0871;-0.9186;
79.8000;0.0904;-0.9050;
80.1000;0.0912;-0.9027;
80.4000;0.0936;-0.8960;
80.7000;0.0904;-0.9005;
81.0000;0.0928;-0.8960;
81.3000;0.0887;-0.9050;
81.6000;0.0781;-0.9299;
81.9000;0.0895;-0.9005;
82.2000;0.0912;-0.8914;
82.5000;0.0806;-0.9141;
82.8000;0.0985;-0.8643;
83.1000;0.0904;-0.8846;
83.4000;0.0887;-0.8914;
83.7000;0.0912;-0.8937;
84.0000;0.0920;-0.8892;
84.3000;0.0904;-0.8824;
84.6000;0.0920;-0.8846;
84.9000;0.0904;-0.8914;
85.2000;0.1009;-0.8756;
85.5000;0.0904;-0.9005;
85.8000;0.0912;-0.9118;
86.1000;0.0920;-0.9141;
86.4000;0.0928;-0.9095;
86.7000;0.0904;-0.9095;
87.0000;0.0904;-0.9118;
87.3000;0.0879;-0.9163;
87.6000;0.0920;-0.9050;
87.9000;0.0855;-0.9163;
88.2000;0.0944;-0.8960;
88.5000;0.0920;-0.8937;
88.8000;0.0904;-0.9027;
89.1000;0.0757;-0.9344;
89.4000;0.0920;-0.8982;
89.7000;0.0912;-0.8982;
90.0000;0.0928;-0.8937;
90.3000;0.1026;-0.8756;
90.6000;0.0912;-0.9050;
90.9000;0.0904;-0.9005;
91.2000;0.0814;-0.9208;
91.5000;0.0838;-0.9163;
91.8000;0.0887;-0.9073;
92.1000;0.0912;-0.8960;
92.4000;0.0952;-0.8892;
92.7000;0.0928;-0.8960;
93.0000;0.0912;-0.8914;
93.3000;0.0928;-0.8892;
93.6000;0.0928;-0.8892;
93.9000;0.0928;-0.8937;
94.2000;0.0928;-0.9005;
94.5000;0.0944;-0.9005;
94.8000;0.0887;-0.9141;
95.1000;0.0952;-0.9027;
95.4000;0.0887;-0.9186;
95.7000;0.0904;-0.9141;
96.0000;0.0904;-0.9118;
96.3000;0.0944;-0.9073;
96.6000;0.0904;-0.9141;
96.9000;0.0895;-0.9095;
97.2000;0.0920;-0.8982;
97.5000;0.0790;-0.9276;
97.8000;0.0912;-0.9005;
98.1000;0.0879;-0.9073;
98.4000;0.0912;-0.9073;
98.7000;0.0912;-0.9095;
99.0000;0.0887;-0.9141;
99.3000;0.0887;-0.9095;
99.6000;0.0936;-0.8914;
99.9000;0.0904;-0.8937;
100.2000;0.0904;-0.8960;
100.5000;0.0895;-0.8960;
100.8000;0.0928;-0.8914;
101.1000;0.0912;-0.9050;
101.4000;0.0887;-0.9186;
101.7000;0.0895;-0.9254;
102.0000;0.0879;-0.9322;
102.3000;0.0961;-0.9276;
102.6000;0.0895;-0.9322;
102.9000;0.0895;-0.9322;
103.2000;0.0912;-0.9389;
103.5000;0.0944;-0.9276;
103.8000;0.0961;-0.9231;
104.1000;0.0904;-0.9412;
104.4000;0.0928;-0.9412;
104.7000;0.0936;-0.9389;
105.0000;0.0920;-0.9412;
105.3000;0.0895;-0.9367;
105.6000;0.1009;-0.9073;
105.9000;0.0895;-0.9276;
106.2000;0.0920;-0.9186;
106.5000;0.0928;-0.9254;
106.8000;0.1009;-0.8960;
107.1000;0.0936;-0.9299;
107.4000;0.0920;-0.9322;
107.7000;0.0920;-0.9254;
108.0000;0.0887;-0.9254;
108.3000;0.0920;-0.9141;
108.6000;0.0920;-0.9186;
108.9000;0.0912;-0.9141;
109.2000;0.0920;-0.9118;
109.5000;0.0895;-0.9231;
109.8000;0.0895;-0.9276;
110.1000;0.0895;-0.9276;
110.4000;0.0904;-0.9299;
110.7000;0.0944;-0.9254;
111.0000;0.0895;-0.9367;
111.3000;0.0879;-0.9299;
111.6000;0.1001;-0.9027;
111.9000;0.0798;-0.9548;
112.2000;0.0904;-0.9186;
112.5000;0.0912;-0.9141;
112.8000;0.0879;-0.9118;
113.1000;0.0904;-0.8937;
113.4000;0.0920;-0.8869;
113.7000;0.0904;-0.8846;
114.0000;0.0814;-0.9095;
114.3000;0.0936;-0.8869;
114.6000;0.0912;-0.8982;
114.9000;0.0895;-0.9050;
115.2000;0.0961;-0.8869;
115.5000;0.0887;-0.9163;
115.8000;0.0920;-0.9027;
116.1000;0.0928;-0.9027;
116.4000;0.0895;-0.9208;
116.7000;0.0928;-0.9118;
117.0000;0.0887;-0.9095;
117.3000;0.0920;-0.8982;
117.6000;0.0920;-0.8914;
117.9000;0.1001;-0.8756;
118.2000;0.0904;-0.9050;
118.5000;0.0855;-0.9254;
118.8000;0.0871;-0.9276;
119.1000;0.0838;-0.9389;
119.4000;0.0977;-0.9027;
119.7000;0.0822;-0.9435;
120.0000;0.0912;-0.9254;
120.3000;0.0904;-0.9276;
120.6000;0.0822;-0.9457;
120.9000;0.0920;-0.9163;
121.2000;0.0904;-0.9118;
121.5000;0.0952;-0.8937;
121.8000;0.0887;-0.9141;
122.1000;0.1009;-0.8892;
122.4000;0.0895;-0.9163;
122.7000;0.0895;-0.9095;
123.0000;0.0904;-0.9118;
123.3000;0.0936;-0.9095;
123.6000;0.0879;-0.9208;
123.9000;0.0928;-0.9118;
124.2000;0.0912;-0.9095;
124.5000;0.0912;-0.9118;
124.8000;0.0944;-0.9027;
125.1000;0.0912;-0.9208;
125.4000;0.0863;-0.9276;
125.7000;0.0879;-0.9276;
126.0000;0.0847;-0.9435;
126.3000;0.0814;-0.9548;
126.6000;0.0920;-0.9163;
126.9000;0.0912;-0.9254;
127.2000;0.0944;-0.9095;
127.5000;0.0895;-0.9118;
127.8000;0.0912;-0.9118;
128.1000;0.0887;-0.9208;
128.4000;0.0838;-0.9322;
128.7000;0.0895;-0.9141;
129.0000;0.0936;-0.9005;
129.3000;0.0936;-0.8982;
129.6000;0.0993;-0.8846;
129.9000;0.0904;-0.9005;
130.2000;0.0920;-0.9005;
130.5000;0.0944;-0.8914;
130.8000;0.0961;-0.8914;
131.1000;0.0904;-0.9050;
131.4000;0.0879;-0.9118;
131.7000;0.0904;-0.9118;
132.0000;0.0920;-0.9050;
132.3000;0.0895;-0.9118;
132.6000;0.0863;-0.9118;
132.9000;0.0961;-0.8846;
133.2000;0.0912;-0.9073;
133.5000;0.0904;-0.9095;
133.8000;0.0912;-0.8982;
134.1000;0.0895;-0.9050;
134.4000;0.0928;-0.8960;
134.7000;0.0904;-0.9050;
135.0000;0.0912;-0.9005;
135.3000;0.0904;-0.9118;
135.6000;0.0895;-0.9118;
135.9000;0.0790;-0.9344;
136.2000;0.0904;-0.9163;
136.5000;0.0928;-0.9073;
136.8000;0.0887;-0.9118;
137.1000;0.0920;-0.9005;
137.4000;0.0822;-0.9254;
137.7000;0.0920;-0.8960;
138.0000;0.0961;-0.8756;
138.3000;0.0936;-0.8733;
138.6000;0.0920;-0.8756;
138.9000;0.0879;-0.8914;
139.2000;0.0895;-0.8914;
139.5000;0.0920;-0.8937;
139.8000;0.0944;-0.8779;
140.1000;0.0920;-0.8846;
140.4000;0.0920;-0.8914;
140.7000;0.0944;-0.8824;
141.0000;0.0904;-0.8869;
141.3000;0.0912;-0.8869;
141.6000;0.0912;-0.8801;
141.9000;0.0895;-0.8960;
142.2000;0.0904;-0.8914;
142.5000;0.0895;-0.8892;
142.8000;0.0887;-0.8982;
143.1000;0.0944;-0.8937;
143.4000;0.0895;-0.9118;
143.7000;0.0912;-0.8960;
144.0000;0.0920;-0.8869;
144.3000;0.0904;-0.8914;
144.6000;0.0830;-0.9027;
144.9000;0.0985;-0.8688;
145.2000;0.0977;-0.8711;
145.5000;0.0871;-0.9095;
145.8000;0.0912;-0.8937;
146.1000;0.0847;-0.9095;
146.4000;0.0912;-0.8846;
146.7000;0.0920;-0.8846;
147.0000;0.0952;-0.8733;
147.3000;0.0904;-0.8937;
147.6000;0.0936;-0.8824;
147.9000;0.0936;-0.8756;
148.2000;0.0912;-0.8914;
148.5000;0.0887;-0.8960;
148.8000;0.0904;-0.8937;
149.1000;0.0928;-0.8824;
149.4000;0.0920;-0.8846;
149.7000;0.0912;-0.8869;
150.0000;0.0895;-0.8846;
150.3000;0.0904;-0.8892;
150.6000;0.0936;-0.8801;
150.9000;0.0928;-0.8869;
151.2000;0.0904;-0.8914;
151.5000;0.0912;-0.8960;
151.8000;0.0928;-0.8937;
152.1000;0.0895;-0.8960;
152.4000;0.0993;-0.8688;
152.7000;0.0912;-0.8914;
153.0000;0.0936;-0.8869;
153.3000;0.0912;-0.8914;
153.6000;0.0920;-0.8846;
153.9000;0.0895;-0.8869;
154.2000;0.0944;-0.8733;
154.5000;0.0952;-0.8801;
154.8000;0.0912;-0.8846;
155.1000;0.0904;-0.8892;
155.4000;0.0920;-0.8801;
155.7000;0.0928;-0.8824;
156.0000;0.0904;-0.8960;
156.3000;0.0920;-0.9027;
156.6000;0.0928;-0.9027;
156.9000;0.0920;-0.9095;
157.2000;0.0912;-0.9005;
157.5000;0.0806;-0.9208;
157.8000;0.0920;-0.8869;
158.1000;0.0928;-0.8937;
158.4000;0.0912;-0.9050;
158.7000;0.0904;-0.9163;
159.0000;0.0936;-0.9050;
159.3000;0.0936;-0.9050;
159.6000;0.0985;-0.9027;
159.9000;0.0928;-0.9299;
160.2000;0.0936;-0.9276;
160.5000;0.0887;-0.9367;
160.8000;0.0961;-0.9254;
161.1000;0.0895;-0.9344;
161.4000;0.0912;-0.9231;
161.7000;0.0912;-0.9163;
162.0000;0.0936;-0.9095;
162.3000;0.0920;-0.9163;
162.6000;0.0936;-0.9163;
162.9000;0.0895;-0.9254;
163.2000;0.0928;-0.9254;
163.5000;0.0912;-0.9299;
163.8000;0.0928;-0.9231;
164.1000;0.0920;-0.9254;
164.4000;0.0904;-0.9276;
164.7000;0.0952;-0.9186;
165.0000;0.0928;-0.9254;
165.3000;0.0904;-0.9163;
165.6000;0.0912;-0.9141;
165.9000;0.0912;-0.9163;
166.2000;0.0904;-0.9163;
166.5000;0.0879;-0.9141;
166.8000;0.0920;-0.9027;
167.1000;0.0904;-0.8937;
167.4000;0.0895;-0.9005;
167.7000;0.0855;-0.9163;
168.0000;0.0928;-0.9073;
168.3000;0.0928;-0.9027;
168.6000;0.0912;-0.9027;
168.9000;0.0904;-0.9050;
169.2000;0.0904;-0.9073;
169.5000;0.0936;-0.9005;
169.8000;0.0912;-0.9050;
170.1000;0.0912;-0.9005;
170.4000;0.0928;-0.9027;
170.7000;0.0920;-0.8960;
171.0000;0.0936;-0.8937;
171.3000;0.0936;-0.8960;
171.6000;0.0895;-0.9027;
171.9000;0.0912;-0.9050;
172.2000;0.0871;-0.9208;
172.5000;0.0904;-0.9118;
172.8000;0.0879;-0.9095;
173.1000;0.0887;-0.9073;
173.4000;0.0887;-0.9027;
173.7000;0.0806;-0.9344;
174.0000;0.0895;-0.9141;
174.3000;0.0895;-0.9050;
174.6000;0.0920;-0.9073;
174.9000;0.0952;-0.8937;
175.2000;0.0904;-0.9073;
175.5000;0.0920;-0.8982;
175.8000;0.0708;-0.9503;
176.1000;0.0887;-0.9118;
176.4000;0.0895;-0.9095;
176.7000;0.0912;-0.9005;
177.0000;0.0912;-0.9073;
177.3000;0.0969;-0.8937;
177.6000;0.0920;-0.9027;
177.9000;0.0904;-0.9095;
178.2000;0.0855;-0.9163;
178.5000;0.0920;-0.9073;
178.8000;0.0806;-0.9299;
179.1000;0.0895;-0.9141;
179.4000;0.0904;-0.9141;
179.7000;0.0912;-0.9095;
180.0000;0.0912;-0.9073;
180.3000;0.0887;-0.9095;
180.6000;0.0912;-0.9163;
180.9000;0.0920;-0.9186;
181.2000;0.0920;-0.9141;
181.5000;0.0952;-0.8914;
181.8000;0.0895;-0.9141;
182.1000;0.0912;-0.9073;
182.4000;0.0920;-0.8960;
182.7000;0.0928;-0.8937;
183.0000;0.0936;-0.8960;
183.3000;0.0904;-0.9005;
183.6000;0.0904;-0.9005;
183.9000;0.0912;-0.9005;
184.2000;0.0912;-0.9050;
184.5000;0.0920;-0.9005;
184.8000;0.0920;-0.8982;
185.1000;0.0895;-0.9005;
185.4000;0.0904;-0.8982;
185.7000;0.0895;-0.9005;
186.0000;0.0928;-0.8982;
186.3000;0.0895;-0.9118;
186.6000;0.0928;-0.9027;
186.9000;0.0928;-0.9073;
187.2000;0.0895;-0.9118;
187.5000;0.0912;-0.9027;
187.8000;0.0904;-0.8937;
188.1000;0.0928;-0.8937;
188.4000;0.0920;-0.8846;
188.7000;0.0920;-0.8937;
189.0000;0.0936;-0.8892;
189.3000;0.0904;-0.8914;
189.6000;0.0928;-0.8779;
189.9000;0.0977;-0.8598;
190.2000;0.0790;-0.9141;
190.5000;0.0920;-0.8914;
190.8000;0.0912;-0.8892;
191.1000;0.0928;-0.8846;
191.4000;0.0920;-0.8869;
191.7000;0.0887;-0.8914;
192.0000;0.0904;-0.8869;
192.3000;0.0895;-0.8937;
192.6000;0.0928;-0.8937;
192.9000;0.0904;-0.9005;
193.2000;0.0928;-0.9005;
193.5000;0.0936;-0.9073;
193.8000;0.0928;-0.9050;
194.1000;0.0904;-0.9163;
194.4000;0.0904;-0.9118;
194.7000;0.0936;-0.9050;
195.0000;0.0904;-0.9141;
195.3000;0.0912;-0.9141;
195.6000;0.0879;-0.9186;
195.9000;0.0887;-0.9186;
196.2000;0.1066;-0.8733;
196.5000;0.0936;-0.9027;
196.8000;0.0944;-0.9073;
197.1000;0.0830;-0.9435;
197.4000;0.0936;-0.9118;
197.7000;0.0944;-0.9050;
198.0000;0.0895;-0.9141;
198.3000;0.0920;-0.9073;
198.6000;0.0920;-0.9027;
198.9000;0.0904;-0.9027;
199.2000;0.0928;-0.8937;
199.5000;0.0912;-0.9027;
199.8000;0.0806;-0.9299;
200.1000;0.0928;-0.9005;
200.4000;0.0920;-0.8960;
200.7000;0.0920;-0.8914;
201.0000;0.0904;-0.8914;
201.3000;0.0895;-0.8937;
201.6000;0.0887;-0.8892;
201.9000;0.0912;-0.8914;
202.2000;0.0895;-0.9027;
202.5000;0.0879;-0.8982;
202.8000;0.0944;-0.8824;
203.1000;0.0887;-0.8982;
203.4000;0.0895;-0.8892;
203.7000;0.0887;-0.8869;
204.0000;0.0920;-0.8914;
204.3000;0.0912;-0.8960;
204.6000;0.0920;-0.8937;
204.9000;0.0936;-0.8801;
205.2000;0.0936;-0.8846;
205.5000;0.0920;-0.8869;
205.8000;0.0879;-0.8982;
206.1000;0.0969;-0.8779;
206.4000;0.0871;-0.8960;
206.7000;0.0912;-0.8914;
207.0000;0.0887;-0.9027;
207.3000;0.0887;-0.9050;
207.6000;0.0847;-0.9231;
207.9000;0.0920;-0.9050;
208.2000;0.0944;-0.9050;
208.5000;0.0887;-0.9299;
208.8000;0.0920;-0.9231;
209.1000;0.0920;-0.9186;
209.4000;0.0920;-0.9141;
209.7000;0.0912;-0.9254;
210.0000;0.0920;-0.9163;
210.3000;0.0863;-0.9231;
210.6000;0.0936;-0.8937;
210.9000;0.0912;-0.9005;
211.2000;0.0887;-0.9095;
211.5000;0.0904;-0.9050;
211.8000;0.0912;-0.9005;
212.1000;0.0920;-0.9050;
212.4000;0.0928;-0.9050;
212.7000;0.0904;-0.8960;
213.0000;0.0895;-0.8914;
213.3000;0.0887;-0.8937;
213.6000;0.0838;-0.9050;
213.9000;0.0912;-0.8846;
214.2000;0.0912;-0.8869;
214.5000;0.0871;-0.8982;
214.8000;0.0969;-0.8733;
215.1000;0.0904;-0.8846;
215.4000;0.0952;-0.8711;
215.7000;0.0912;-0.8869;
216.0000;0.0912;-0.8960;
216.3000;0.0912;-0.8869;
216.6000;0.0895;-0.8846;
216.9000;0.0895;-0.8892;
217.2000;0.0895;-0.8869;
217.5000;0.0798;-0.9073;
217.8000;0.0920;-0.8824;
218.1000;0.0895;-0.8937;
218.4000;0.0904;-0.8937;
218.7000;0.0977;-0.8711;
219.0000;0.0936;-0.8869;
219.3000;0.0863;-0.9073;
219.6000;0.0936;-0.8937;
219.9000;0.0904;-0.9027;
220.2000;0.0952;-0.8869;
220.5000;0.0944;-0.8892;
220.8000;0.0863;-0.9095;
221.1000;0.0847;-0.9141;
221.4000;0.0912;-0.8960;
221.7000;0.0969;-0.8756;
222.0000;0.0944;-0.8824;
222.3000;0.0920;-0.8846;
222.6000;0.0887;-0.8937;
222.9000;0.0904;-0.8960;
223.2000;0.0912;-0.9073;
223.5000;0.0936;-0.9050;
223.8000;0.0952;-0.8982;
224.1000;0.0920;-0.9027;
224.4000;0.1001;-0.8846;
224.7000;0.0904;-0.9005;
225.0000;0.0887;-0.8960;
225.3000;0.0895;-0.8914;
225.6000;0.0895;-0.8960;
225.9000;0.0920;-0.8914;
226.2000;0.0790;-0.9231;
226.5000;0.0928;-0.8914;
226.8000;0.0879;-0.9005;
227.1000;0.0887;-0.8960;
227.4000;0.0887;-0.9005;
227.7000;0.0895;-0.9005;
228.0000;0.0904;-0.9027;
228.3000;0.0920;-0.8937;
228.6000;0.0904;-0.8937;
228.9000;0.0912;-0.8892;
229.2000;0.0920;-0.8960;
229.5000;0.0904;-0.9027;
229.8000;0.0928;-0.8982;
230.1000;0.0920;-0.8982;
230.4000;0.0969;-0.8937;
230.7000;0.0904;-0.9254;
231.0000;0.0781;-0.9616;
231.3000;0.0879;-0.9457;
231.6000;0.0944;-0.9276;
231.9000;0.0912;-0.9231;
232.2000;0.0895;-0.9276;
232.5000;0.0904;-0.9231;
232.8000;0.0920;-0.9163;
233.1000;0.0887;-0.9186;
233.4000;0.0904;-0.9118;
233.7000;0.0855;-0.9141;
234.0000;0.0928;-0.9005;
234.3000;0.0904;-0.9073;
234.6000;0.0904;-0.9027;
234.9000;0.0920;-0.9073;
235.2000;0.0944;-0.9050;
235.5000;0.0912;-0.9050;
235.8000;0.0871;-0.9186;
236.1000;0.0920;-0.9027;
236.4000;0.0879;-0.9027;
236.7000;0.0879;-0.9050;
237.0000;0.0912;-0.8960;
237.3000;0.0887;-0.9073;
237.6000;0.0936;-0.9005;
237.9000;0.0920;-0.9095;
238.2000;0.0904;-0.9073;
238.5000;0.0936;-0.8960;
238.8000;0.0895;-0.9027;
239.1000;0.0928;-0.8937;
239.4000;0.0920;-0.8982;
239.7000;0.0863;-0.9050;
240.0000;0.0936;-0.8869;
240.3000;0.0830;-0.9208;
240.6000;0.0920;-0.9005;
240.9000;0.0952;-0.8982;
241.2000;0.0895;-0.8982;
241.5000;0.0871;-0.9027;
241.8000;0.0928;-0.8824;
242.1000;0.0912;-0.8960;
242.4000;0.0855;-0.9186;
242.7000;0.0912;-0.9073;
243.0000;0.0904;-0.9141;
243.3000;0.0928;-0.9073;
243.6000;0.0904;-0.9095;
243.9000;0.0904;-0.9050;
244.2000;0.0904;-0.8937;
244.5000;0.0895;-0.8869;
244.8000;0.0871;-0.9027;
245.1000;0.0928;-0.8892;
245.4000;0.0912;-0.8892;
245.7000;0.0904;-0.9005;
246.0000;0.1034;-0.8665;
246.3000;0.0944;-0.8846;
246.6000;0.0904;-0.9027;
246.9000;0.0904;-0.9095;
247.2000;0.0904;-0.9095;
247.5000;0.0895;-0.9208;
247.8000;0.0904;-0.9186;
248.1000;0.0895;-0.9141;
248.4000;0.0912;-0.9141;
248.7000;0.0904;-0.9208;
249.0000;0.0944;-0.9095;
249.3000;0.1001;-0.8914;
249.6000;0.0904;-0.9231;
249.9000;0.0912;-0.9322;
250.2000;0.0969;-0.9186;
250.5000;0.0912;-0.9322;
250.8000;0.0904;-0.9367;
251.1000;0.0871;-0.9457;
251.4000;0.0912;-0.9254;
251.7000;0.0920;-0.9141;
252.0000;0.0936;-0.9118;
252.3000;0.0928;-0.9073;
252.6000;0.0904;-0.9095;
252.9000;0.0895;-0.9163;
253.2000;0.0952;-0.9163;
253.5000;0.1018;-0.8937;
253.8000;0.0952;-0.9095;
254.1000;0.0977;-0.9073;
254.4000;0.0936;-0.9163;
254.7000;0.0920;-0.9186;
255.0000;0.0879;-0.9208;
255.3000;0.0887;-0.9163;
255.6000;0.0912;-0.9073;
255.9000;0.0928;-0.9027;
256.2000;0.0904;-0.9073;
256.5000;0.0887;-0.9118;
256.8000;0.0936;-0.9118;
257.1000;0.0912;-0.9208;
257.4000;0.0912;-0.9118;
257.7000;0.1018;-0.8824;
258.0000;0.0895;-0.9163;
258.3000;0.0871;-0.9163;
258.6000;0.0847;-0.9231;
258.9000;0.0928;-0.9005;
259.2000;0.0904;-0.9095;
259.5000;0.0838;-0.9208;
259.8000;0.0895;-0.9005;
260.1000;0.0928;-0.8937;
260.4000;0.0895;-0.8982;
260.7000;0.0961;-0.8779;
261.0000;0.0928;-0.8892;
261.3000;0.0928;-0.8824;
261.6000;0.0944;-0.8846;
261.9000;0.0912;-0.8914;
262.2000;0.0912;-0.8937;
262.5000;0.0912;-0.8937;
262.8000;0.0912;-0.8937;
263.1000;0.0912;-0.8960;
263.4000;0.0920;-0.8937;
263.7000;0.0887;-0.8960;
264.0000;0.0920;-0.8846;
264.3000;0.0920;-0.8982;
264.6000;0.0928;-0.9027;
264.9000;0.0912;-0.9141;
265.2000;0.0920;-0.9163;
265.5000;0.0904;-0.9186;
265.8000;0.0912;-0.9073;
266.1000;0.0912;-0.9050;
266.4000;0.0952;-0.8869;
266.7000;0.0912;-0.8937;
267.0000;0.0895;-0.8892;
267.3000;0.0912;-0.8801;
267.6000;0.0936;-0.8869;
267.9000;0.0920;-0.8960;
268.2000;0.0912;-0.9027;
268.5000;0.0895;-0.9050;
268.8000;0.0944;-0.8846;
269.1000;0.0904;-0.9050;
269.4000;0.0928;-0.9005;
269.7000;0.0912;-0.9073;
270.0000;0.0904;-0.9027;
270.3000;0.1083;-0.8575;
270.6000;0.1018;-0.8665;
270.9000;0.0904;-0.8914;
271.2000;0.0895;-0.8960;
271.5000;0.0920;-0.8892;
271.8000;0.0904;-0.8937;
272.1000;0.0887;-0.8982;
272.4000;0.0887;-0.8960;
272.7000;0.0928;-0.8960;
273.0000;0.0920;-0.9073;
273.3000;0.0985;-0.8914;
273.6000;0.0879;-0.9118;
273.9000;0.0936;-0.8937;
274.2000;0.0912;-0.9005;
274.5000;0.0895;-0.9118;
274.8000;0.0904;-0.9050;
275.1000;0.0904;-0.8960;
275.4000;0.1001;-0.8846;
275.7000;0.0928;-0.9095;
276.0000;0.0895;-0.9073;
276.3000;0.0928;-0.8960;
276.6000;0.0985;-0.8824;
276.9000;0.0985;-0.8801;
277.2000;0.0887;-0.9005;
277.5000;0.0790;-0.9231;
277.8000;0.0920;-0.8914;
278.1000;0.0904;-0.8960;
278.4000;0.0912;-0.8982;
278.7000;0.0928;-0.8982;
279.0000;0.0920;-0.8960;
279.3000;0.0895;-0.8982;
279.6000;0.0912;-0.8960;
279.9000;0.0904;-0.8982;
280.2000;0.0928;-0.8937;
280.5000;0.0912;-0.8937;
280.8000;0.0920;-0.9005;
281.1000;0.0912;-0.8960;
281.4000;0.0904;-0.8937;
281.7000;0.0904;-0.8982;
282.0000;0.0887;-0.9073;
282.3000;0.0912;-0.8982;
282.6000;0.0920;-0.8937;
282.9000;0.0912;-0.9005;
283.2000;0.0895;-0.9027;
283.5000;0.0928;-0.8914;
283.8000;0.0830;-0.9163;
284.1000;0.0863;-0.9141;
284.4000;0.0928;-0.9005;
284.7000;0.0895;-0.9163;
285.0000;0.1066;-0.8801;
285.3000;0.0920;-0.9050;
285.6000;0.0920;-0.9027;
285.9000;0.0912;-0.9163;
286.2000;0.0912;-0.9118;
286.5000;0.0904;-0.9073;
286.8000;0.0985;-0.8937;
287.1000;0.0920;-0.9095;
287.4000;0.0887;-0.9163;
287.7000;0.0920;-0.9027;
288.0000;0.0912;-0.8960;
288.3000;0.0920;-0.8960;
288.6000;0.0895;-0.9050;
288.9000;0.0969;-0.8960;
289.2000;0.0920;-0.9141;
289.5000;0.0879;-0.9208;
289.8000;0.0863;-0.9095;
290.1000;0.0855;-0.9095;
290.4000;0.0928;-0.8937;
290.7000;0.0936;-0.8892;
291.0000;0.0904;-0.8982;
291.3000;0.0847;-0.9073;
291.6000;0.0879;-0.9005;
291.9000;0.0838;-0.9050;
292.2000;0.0912;-0.8779;
292.5000;0.0920;-0.8779;
292.8000;0.0781;-0.9095;
293.1000;0.0936;-0.8756;
293.4000;0.0879;-0.9005;
293.7000;0.1058;-0.8643;
294.0000;0.0928;-0.8914;
294.3000;0.0912;-0.8846;
294.6000;0.0977;-0.8575;
294.9000;0.0887;-0.8846;
295.2000;0.0912;-0.8733;
295.5000;0.0838;-0.8846;
295.8000;0.0912;-0.8711;
296.1000;0.0895;-0.8756;
296.4000;0.0887;-0.8824;
296.7000;0.0912;-0.8846;
297.0000;0.0855;-0.9005;
297.3000;0.0985;-0.8711;
297.6000;0.0912;-0.8982;
297.9000;0.0847;-0.9141;
298.2000;0.1001;-0.8711;
298.5000;0.0920;-0.9050;
298.8000;0.0912;-0.8937;
299.1000;0.0855;-0.9073;
299.4000;0.0920;-0.8824;
299.7000;0.0895;-0.8914;
300.0000;0.0912;-0.8846;
300.3000;0.0928;-0.8846;
300.6000;0.0928;-0.8779;
300.9000;0.0912;-0.8779;
301.2000;0.0904;-0.8756;
301.5000;0.0895;-0.8801;
301.8000;0.0912;-0.8869;
302.1000;0.0904;-0.8937;
302.4000;0.0895;-0.8937;
302.7000;0.0879;-0.8892;
303.0000;0.0920;-0.8779;
303.3000;0.0912;-0.8824;
303.6000;0.0912;-0.8756;
303.9000;0.0904;-0.8779;
304.2000;0.0887;-0.8733;
304.5000;0.0920;-0.8711;
304.8000;0.0887;-0.8779;
305.1000;0.0863;-0.8846;
305.4000;0.0879;-0.8801;
305.7000;0.0928;-0.8733;
306.0000;0.0920;-0.8846;
306.3000;0.0993;-0.8711;
306.6000;0.0895;-0.8846;
306.9000;0.0936;-0.8733;
307.2000;0.0871;-0.8914;
307.5000;0.0904;-0.9005;
307.8000;0.0838;-0.9231;
308.1000;0.0936;-0.8960;
308.4000;0.0904;-0.9027;
308.7000;0.0977;-0.8801;
309.0000;0.0879;-0.8960;
309.3000;0.0912;-0.8914;
309.6000;0.0912;-0.8892;
309.9000;0.0912;-0.8824;
310.2000;0.0936;-0.8824;
310.5000;0.0920;-0.8779;
310.8000;0.0895;-0.8960;
311.1000;0.0912;-0.8914;
311.4000;0.0920;-0.8914;
311.7000;0.0920;-0.8869;
312.0000;0.0928;-0.8914;
312.3000;0.0928;-0.8982;
312.6000;0.0912;-0.8982;
312.9000;0.0912;-0.9050;
313.2000;0.0904;-0.9208;
313.5000;0.0912;-0.9163;
313.8000;0.0944;-0.8914;
314.1000;0.0895;-0.9027;
314.4000;0.0920;-0.8892;
314.7000;0.0904;-0.8914;
315.0000;0.0798;-0.9163;
315.3000;0.0928;-0.8892;
315.6000;0.0961;-0.8733;
315.9000;0.0928;-0.8892;
316.2000;0.0887;-0.8960;
316.5000;0.0904;-0.8960;
316.8000;0.0863;-0.9027;
317.1000;0.0904;-0.8914;
317.4000;0.0847;-0.9095;
317.7000;0.0863;-0.9141;
318.0000;0.0920;-0.9027;
318.3000;0.1001;-0.8733;
318.6000;0.0871;-0.9027;
318.9000;0.0830;-0.9163;
319.2000;0.0928;-0.8937;
319.5000;0.0928;-0.8869;
319.8000;0.0944;-0.8733;
320.1000;0.1018;-0.8530;
320.4000;0.0920;-0.8779;
320.7000;0.0904;-0.8937;
321.0000;0.0871;-0.9095;
321.3000;0.0993;-0.8846;
321.6000;0.0912;-0.9027;
321.9000;0.0912;-0.9005;
322.2000;0.0904;-0.9050;
322.5000;0.0895;-0.9027;
322.8000;0.0895;-0.8937;
323.1000;0.0904;-0.8960;
323.4000;0.0855;-0.9163;
323.7000;0.0912;-0.9005;
324.0000;0.0904;-0.9073;
324.3000;0.0879;-0.9231;
324.6000;0.0928;-0.9141;
324.9000;0.0928;-0.9073;
325.2000;0.0904;-0.9163;
325.5000;0.0895;-0.9322;
325.8000;0.0920;-0.9186;
326.1000;0.0912;-0.9254;
326.4000;0.0879;-0.9322;
326.7000;0.0871;-0.9344;
327.0000;0.0936;-0.9141;
327.3000;0.0912;-0.9163;
327.6000;0.0944;-0.9095;
327.9000;0.0912;-0.9095;
328.2000;0.0879;-0.9163;
328.5000;0.0936;-0.8982;
328.8000;0.0879;-0.9095;
329.1000;0.0928;-0.8982;
329.4000;0.0895;-0.9118;
329.7000;0.0936;-0.9027;
330.0000;0.0936;-0.9095;
330.3000;0.0928;-0.9118;
330.6000;0.0936;-0.9095;
330.9000;0.0912;-0.9095;
331.2000;0.0912;-0.9163;
331.5000;0.0790;-0.9412;
331.8000;0.0928;-0.9005;
332.1000;0.0977;-0.8824;
332.4000;0.0928;-0.8914;
332.7000;0.0952;-0.8869;
333.0000;0.0904;-0.8982;
333.3000;0.0912;-0.8982;
333.6000;0.0904;-0.9005;
333.9000;0.0920;-0.8869;
334.2000;0.0920;-0.8801;
334.5000;0.0855;-0.8982;
334.8000;0.0904;-0.8846;
335.1000;0.0920;-0.8824;
335.4000;0.0904;-0.8892;
335.7000;0.0936;-0.8824;
336.0000;0.0928;-0.8779;
336.3000;0.0920;-0.8801;
336.6000;0.0912;-0.8869;
336.9000;0.0887;-0.8982;
337.2000;0.0887;-0.8914;
337.5000;0.0936;-0.8869;
337.8000;0.0912;-0.8869;
338.1000;0.0904;-0.8846;
338.4000;0.0904;-0.8914;
338.7000;0.0904;-0.8914;
339.0000;0.0952;-0.8733;
339.3000;0.0904;-0.8824;
339.6000;0.0904;-0.8801;
339.9000;0.0887;-0.8846;
340.2000;0.0879;-0.8869;
340.5000;0.0895;-0.8960;
340.8000;0.0928;-0.8869;
341.1000;0.0928;-0.8937;
341.4000;0.0920;-0.8982;
341.7000;0.0904;-0.8982;
342.0000;0.0887;-0.9163;
342.3000;0.0895;-0.9050;
342.6000;0.0855;-0.9163;
342.9000;0.0920;-0.9050;
343.2000;0.0895;-0.9141;
343.5000;0.0887;-0.9163;
343.8000;0.0936;-0.9005;
344.1000;0.0895;-0.9027;
344.4000;0.0863;-0.9005;
344.7000;0.0887;-0.8914;
345.0000;0.0920;-0.8914;
345.3000;0.0912;-0.8892;
345.6000;0.0855;-0.9118;
345.9000;0.0895;-0.9073;
346.2000;0.0920;-0.9050;
346.5000;0.0904;-0.9027;
346.8000;0.0895;-0.9027;
347.1000;0.0920;-0.8960;
347.4000;0.0847;-0.9095;
347.7000;0.0887;-0.9073;
348.0000;0.0887;-0.9095;
348.3000;0.0879;-0.9163;
348.6000;0.0904;-0.9163;
348.9000;0.0904;-0.9163;
349.2000;0.0920;-0.9073;
349.5000;0.0920;-0.9005;
349.8000;0.0830;-0.9050;
350.1000;0.0895;-0.8937;
350.4000;0.0936;-0.9027;
350.7000;0.0895;-0.9186;
351.0000;0.0912;-0.9163;
351.3000;0.0920;-0.9186;
351.6000;0.0952;-0.8982;
351.9000;0.0944;-0.8982;
352.2000;0.0822;-0.9231;
352.5000;0.0952;-0.8869;
352.8000;0.0920;-0.8914;
353.1000;0.0969;-0.8869;
353.4000;0.0920;-0.8982;
353.7000;0.0928;-0.8824;
354.0000;0.0904;-0.8824;
354.3000;0.0912;-0.8756;
354.6000;0.0912;-0.8688;
354.9000;0.0912;-0.8801;
355.2000;0.0871;-0.8914;
355.5000;0.0879;-0.8892;
355.8000;0.0920;-0.8869;
356.1000;0.0928;-0.8846;
356.4000;0.0936;-0.8801;
356.7000;0.0944;-0.8779;
357.0000;0.0912;-0.8869;
357.3000;0.0912;-0.8960;
357.6000;0.0904;-0.8960;
357.9000;0.0920;-0.8960;
358.2000;0.0879;-0.8960;
358.5000;0.0895;-0.8914;
358.8000;0.0895;-0.8914;
359.1000;0.0936;-0.8846;
359.4000;0.0895;-0.8892;
359.7000;0.0904;-0.8869;
360.0000;0.0944;-0.8733;
360.3000;0.0887;-0.8914;
360.6000;0.0920;-0.8869;
360.9000;0.0904;-0.8846;
361.2000;0.0928;-0.8846;
361.5000;0.0887;-0.9073;
361.8000;0.0961;-0.8914;
362.1000;0.0904;-0.9027;
362.4000;0.0887;-0.9118;
362.7000;0.0912;-0.9073;
363.0000;0.0871;-0.9186;
363.3000;0.0928;-0.8960;
363.6000;0.0895;-0.9005;
363.9000;0.0920;-0.8914;
364.2000;0.0904;-0.8960;
364.5000;0.0887;-0.9027;
364.8000;0.0887;-0.9050;
365.1000;0.0879;-0.9073;
365.4000;0.0936;-0.8937;
365.7000;0.0904;-0.8937;
366.0000;0.0912;-0.8960;
366.3000;0.0879;-0.9005;
366.6000;0.0936;-0.8869;
366.9000;0.1026;-0.8643;
367.2000;0.0912;-0.8892;
367.5000;0.0944;-0.8756;
367.8000;0.0912;-0.8869;
368.1000;0.0985;-0.8598;
368.4000;0.0798;-0.9208;
368.7000;0.0879;-0.8960;
369.0000;0.0830;-0.9073;
369.3000;0.0912;-0.8846;
369.6000;0.0912;-0.8824;
369.9000;0.0920;-0.8846;
370.2000;0.0912;-0.8869;
370.5000;0.0912;-0.8756;
370.8000;0.0912;-0.8733;
371.1000;0.0912;-0.8779;
371.4000;0.0928;-0.8688;
371.7000;0.0928;-0.8733;
372.0000;0.0912;-0.8801;
372.3000;0.0904;-0.8779;
372.6000;0.0912;-0.8779;
372.9000;0.0895;-0.8846;
373.2000;0.0895;-0.8779;
373.5000;0.0912;-0.8824;
373.8000;0.0912;-0.8892;
374.1000;0.0928;-0.8801;
374.4000;0.1018;-0.8620;
374.7000;0.0920;-0.8892;
375.0000;0.0904;-0.8892;
375.3000;0.0904;-0.8869;
375.6000;0.0920;-0.8824;
375.9000;0.0920;-0.8846;
376.2000;0.0952;-0.8733;
376.5000;0.0904;-0.8914;
376.8000;0.0977;-0.8824;
377.1000;0.0895;-0.9050;
377.4000;0.0912;-0.8960;
377.7000;0.0952;-0.8869;
378.0000;0.0920;-0.8846;
378.3000;0.0920;-0.8892;
378.6000;0.0904;-0.8824;
378.9000;0.0887;-0.8801;
379.2000;0.0871;-0.8846;
379.5000;0.0887;-0.8846;
379.8000;0.0904;-0.8846;
380.1000;0.0912;-0.8937;
380.4000;0.0928;-0.8960;
380.7000;0.0912;-0.9005;
381.0000;0.0904;-0.9027;
381.3000;0.0895;-0.9095;
381.6000;0.0904;-0.9050;
381.9000;0.0912;-0.8960;
382.2000;0.0912;-0.8914;
382.5000;0.1001;-0.8711;
382.8000;0.0904;-0.8960;
383.1000;0.0904;-0.8960;
383.4000;0.0936;-0.8892;
383.7000;0.0904;-0.8869;
384.0000;0.0863;-0.8869;
384.3000;0.0895;-0.8756;
384.6000;0.0904;-0.8711;
384.9000;0.0912;-0.8756;
385.2000;0.0920;-0.8779;
385.5000;0.0912;-0.8779;
385.8000;0.0920;-0.8733;
386.1000;0.0936;-0.8733;
386.4000;0.1026;-0.8507;
386.7000;0.0912;-0.8892;
387.0000;0.0936;-0.8960;
387.3000;0.0757;-0.9412;
387.6000;0.0912;-0.9050;
387.9000;0.0912;-0.9005;
388.2000;0.0912;-0.8982;
388.5000;0.0912;-0.9027;
388.8000;0.0887;-0.9118;
389.1000;0.0936;-0.8960;
389.4000;0.0879;-0.9118;
389.7000;0.0912;-0.9095;
390.0000;0.0912;-0.9073;
390.3000;0.0904;-0.8982;
390.6000;0.0912;-0.8960;
390.9000;0.0920;-0.8892;
391.2000;0.0912;-0.8914;
391.5000;0.0928;-0.8869;
391.8000;0.0887;-0.9050;
392.1000;0.0912;-0.8960;
392.4000;0.0912;-0.8914;
392.7000;0.0904;-0.8982;
393.0000;0.0969;-0.8779;
393.3000;0.0879;-0.9073;
393.6000;0.0944;-0.8824;
393.9000;0.0806;-0.9141;
394.2000;0.0895;-0.8982;
394.5000;0.0928;-0.8982;
394.8000;0.0912;-0.9050;
395.1000;0.0920;-0.8914;
395.4000;0.0920;-0.8914;
395.7000;0.0895;-0.8982;
396.0000;0.0904;-0.9027;
396.3000;0.0904;-0.8960;
396.6000;0.0936;-0.8869;
396.9000;0.0904;-0.8960;
397.2000;0.0887;-0.8982;
397.5000;0.0928;-0.8869;
397.8000;0.0855;-0.9027;
398.1000;0.0904;-0.8892;
398.4000;0.0920;-0.8756;
398.7000;0.0904;-0.8779;
399.0000;0.0928;-0.8688;
399.3000;0.0895;-0.8824;
399.6000;0.0928;-0.8801;
399.9000;0.0920;-0.8824;
400.2000;0.0895;-0.8892;
400.5000;0.0936;-0.8665;
400.8000;0.0904;-0.8756;
401.1000;0.1001;-0.8507;
401.4000;0.0879;-0.8801;
401.7000;0.0969;-0.8756;
402.0000;0.0904;-0.8960;
402.3000;0.0887;-0.8869;
402.6000;0.0952;-0.8846;
402.9000;0.0879;-0.9050;
403.2000;0.0944;-0.8960;
403.5000;0.0904;-0.9027;
403.8000;0.0904;-0.8982;
404.1000;0.0969;-0.8824;
404.4000;0.0928;-0.8869;
404.7000;0.0904;-0.8914;
405.0000;0.0961;-0.8801;
405.3000;0.0928;-0.8869;
405.6000;0.0895;-0.8960;
405.9000;0.0944;-0.8846;
406.2000;0.0928;-0.8914;
406.5000;0.0912;-0.8914;
406.8000;0.0904;-0.8960;
407.1000;0.0887;-0.9005;
407.4000;0.0904;-0.8869;
407.7000;0.0920;-0.8756;
408.0000;0.0822;-0.9027;
408.3000;0.0895;-0.8779;
408.6000;0.0912;-0.8733;
408.9000;0.0879;-0.8824;
409.2000;0.0920;-0.8643;
409.5000;0.0895;-0.8733;
409.8000;0.0952;-0.8598;
410.1000;0.0904;-0.8643;
410.4000;0.0977;-0.8484;
410.7000;0.0904;-0.8779;
411.0000;0.0920;-0.8846;
411.3000;0.0830;-0.9050;
411.6000;0.0912;-0.8846;
411.9000;0.0887;-0.8892;
412.2000;0.0920;-0.8824;
412.5000;0.0912;-0.8846;
412.8000;0.0879;-0.9005;
413.1000;0.0863;-0.9073;
413.4000;0.0838;-0.9186;
413.7000;0.0928;-0.8960;
414.0000;0.0912;-0.8982;
414.3000;0.0904;-0.9005;
414.6000;0.0879;-0.9095;
414.9000;0.0928;-0.9005;
415.2000;0.0912;-0.9027;
415.5000;0.0904;-0.9050;
415.8000;0.0904;-0.9073;
416.1000;0.0936;-0.8982;
416.4000;0.0895;-0.9027;
416.7000;0.0806;-0.9254;
417.0000;0.0887;-0.9141;
417.3000;0.0895;-0.9027;
417.6000;0.0936;-0.8892;
417.9000;0.0895;-0.8982;
418.2000;0.0887;-0.9118;
418.5000;0.0928;-0.9005;
418.8000;0.0912;-0.9073;
419.1000;0.0904;-0.9050;
419.4000;0.0904;-0.9050;
419.7000;0.0847;-0.9254;
420.0000;0.0928;-0.9073;
420.3000;0.0830;-0.9254;
420.6000;0.0895;-0.9027;
420.9000;0.0895;-0.8982;
421.2000;0.0887;-0.9073;
421.5000;0.0920;-0.9005;
421.8000;0.0879;-0.9050;
422.1000;0.0936;-0.8892;
422.4000;0.0904;-0.8914;
422.7000;0.0887;-0.8982;
423.0000;0.0871;-0.8982;
423.3000;0.0871;-0.8982;
423.6000;0.0855;-0.9050;
423.9000;0.0904;-0.8892;
424.2000;0.0912;-0.8824;
424.5000;0.0847;-0.8982;
424.8000;0.0871;-0.8960;
425.1000;0.1001;-0.8688;
425.4000;0.1009;-0.8688;
425.7000;0.0936;-0.8846;
426.0000;0.0928;-0.8960;
426.3000;0.0920;-0.8937;
426.6000;0.0806;-0.9231;
426.9000;0.0904;-0.9050;
427.2000;0.0936;-0.8937;
427.5000;0.0879;-0.9005;
427.8000;0.0912;-0.9050;
428.1000;0.0855;-0.9208;
428.4000;0.0871;-0.9073;
428.7000;0.0944;-0.8937;
429.0000;0.0952;-0.8869;
429.3000;0.0887;-0.8937;
429.6000;0.0879;-0.8982;
429.9000;0.0928;-0.8869;
430.2000;0.0887;-0.9005;
430.5000;0.0912;-0.8846;
430.8000;0.0912;-0.8892;
431.1000;0.0920;-0.8960;
431.4000;0.0855;-0.9141;
431.7000;0.0912;-0.9050;
432.0000;0.0895;-0.9118;
432.3000;0.0912;-0.9095;
432.6000;0.0920;-0.9141;
432.9000;0.0895;-0.9141;
433.2000;0.0904;-0.9163;
433.5000;0.0928;-0.9050;
433.8000;0.0912;-0.9118;
434.1000;0.0912;-0.9118;
434.4000;0.0904;-0.9118;
434.7000;0.0879;-0.9186;
435.0000;0.0904;-0.9118;
435.3000;0.0961;-0.8982;
435.6000;0.0920;-0.9141;
435.9000;0.0912;-0.9208;
436.2000;0.0895;-0.9276;
436.5000;0.0920;-0.9118;
436.8000;0.0887;-0.9186;
437.1000;0.0912;-0.9254;
437.4000;0.0871;-0.9389;
437.7000;0.0895;-0.9322;
438.0000;0.0928;-0.9231;
438.3000;0.0879;-0.9231;
438.6000;0.0871;-0.9231;
438.9000;0.0863;-0.9231;
439.2000;0.0904;-0.9141;
439.5000;0.1001;-0.8869;
439.8000;0.0904;-0.9118;
440.1000;0.0871;-0.9073;
440.4000;0.0790;-0.9276;
440.7000;0.0928;-0.8937;
441.0000;0.0928;-0.8937;
441.3000;0.0912;-0.8892;
441.6000;0.0985;-0.8733;
441.9000;0.0920;-0.8869;
442.2000;0.0912;-0.8892;
442.5000;0.0961;-0.8779;
442.8000;0.0863;-0.9005;
443.1000;0.0904;-0.8960;
443.4000;0.0904;-0.8982;
443.7000;0.0887;-0.9005;
444.0000;0.0887;-0.9118;
444.3000;0.0904;-0.9118;
444.6000;0.0920;-0.9073;
444.9000;0.0920;-0.9005;
445.2000;0.0904;-0.8937;
445.5000;0.0904;-0.8869;
445.8000;0.0904;-0.8846;
446.1000;0.0928;-0.8733;
446.4000;0.0904;-0.8711;
446.7000;0.0920;-0.8688;
447.0000;0.0912;-0.8779;
447.3000;0.0904;-0.8801;
447.6000;0.0814;-0.9050;
447.9000;0.0887;-0.8869;
448.2000;0.0912;-0.8846;
448.5000;0.0985;-0.8643;
448.8000;0.0904;-0.8937;
449.1000;0.0936;-0.8937;
449.4000;0.0920;-0.8982;
449.7000;0.0879;-0.9095;
450.0000;0.0895;-0.9050;
450.3000;0.0895;-0.9050;
450.6000;0.0928;-0.8937;
450.9000;0.0952;-0.8846;
451.2000;0.0920;-0.8937;
451.5000;0.0920;-0.8914;
451.8000;0.0928;-0.8937;
452.1000;0.0936;-0.8892;
452.4000;0.0920;-0.8869;
452.7000;0.0920;-0.8914;
453.0000;0.0912;-0.8869;
453.3000;0.0912;-0.8937;
453.6000;0.0920;-0.8982;
453.9000;0.0887;-0.8914;
454.2000;0.0928;-0.8892;
454.5000;0.0928;-0.8801;
454.8000;0.0895;-0.8756;
455.1000;0.0879;-0.8779;
455.4000;0.0895;-0.8846;
455.7000;0.0887;-0.8914;
456.0000;0.0904;-0.8756;
456.3000;0.0920;-0.8756;
456.6000;0.0936;-0.8688;
456.9000;0.1001;-0.8598;
457.2000;0.0904;-0.8914;
457.5000;0.0879;-0.8824;
457.8000;0.0928;-0.8801;
458.1000;0.0904;-0.8892;
458.4000;0.0814;-0.9141;
458.7000;0.0904;-0.8960;
459.0000;0.0855;-0.9073;
459.3000;0.0904;-0.8937;
459.6000;0.0895;-0.8892;
459.9000;0.0912;-0.8892;
460.2000;0.0904;-0.8892;
460.5000;0.0936;-0.8846;
460.8000;0.0887;-0.8937;
461.1000;0.0928;-0.8688;
461.4000;0.0993;-0.8530;
461.7000;0.1066;-0.8326;
462.0000;0.0936;-0.8665;
462.3000;0.0904;-0.8711;
462.6000;0.0895;-0.8756;
462.9000;0.0887;-0.8733;
463.2000;0.0920;-0.8643;
463.5000;0.0895;-0.8733;
463.8000;0.0936;-0.8711;
464.1000;0.0855;-0.8982;
464.4000;0.0993;-0.8643;
464.7000;0.0863;-0.8960;
465.0000;0.0977;-0.8598;
465.3000;0.0920;-0.8801;
465.6000;0.0985;-0.8711;
465.9000;0.0895;-0.8846;
466.2000;0.0887;-0.8914;
466.5000;0.0912;-0.8937;
466.8000;0.0863;-0.8982;
467.1000;0.0912;-0.8914;
467.4000;0.0920;-0.8914;
467.7000;0.0928;-0.8869;
468.0000;0.0863;-0.9005;
468.3000;0.0887;-0.9027;
468.6000;0.0895;-0.9027;
468.9000;0.0944;-0.8892;
469.2000;0.0895;-0.9027;
469.5000;0.0904;-0.8982;
469.8000;0.0895;-0.8960;
470.1000;0.0920;-0.8846;
470.4000;0.0904;-0.8801;
470.7000;0.0887;-0.8892;
471.0000;0.0912;-0.8824;
471.3000;0.0879;-0.8914;
471.6000;0.0912;-0.8756;
471.9000;0.0838;-0.9005;
472.2000;0.0847;-0.8892;
472.5000;0.0912;-0.8756;
472.8000;0.0871;-0.8937;
473.1000;0.0912;-0.8756;
473.4000;0.0993;-0.8530;
473.7000;0.0887;-0.8733;
474.0000;0.0904;-0.8688;
474.3000;0.0912;-0.8620;
474.6000;0.0936;-0.8484;
474.9000;0.0765;-0.8892;
475.2000;0.0920;-0.8530;
475.5000;0.0895;-0.8598;
475.8000;0.0912;-0.8598;
476.1000;0.0887;-0.8665;
476.4000;0.0904;-0.8598;
476.7000;0.0887;-0.8688;
477.0000;0.0928;-0.8643;
477.3000;0.0912;-0.8711;
477.6000;0.0904;-0.8688;
477.9000;0.0977;-0.8439;
478.2000;0.0912;-0.8620;
478.5000;0.0928;-0.8643;
478.8000;0.0928;-0.8643;
479.1000;0.0904;-0.8711;
479.4000;0.0887;-0.8801;
479.7000;0.0952;-0.8643;
480.0000;0.1018;-0.8530;
480.3000;0.0855;-0.8869;
480.6000;0.0895;-0.8824;
480.9000;0.0871;-0.8937;
481.2000;0.1026;-0.8530;
481.5000;0.0904;-0.8869;
481.8000;0.0895;-0.8846;
482.1000;0.0920;-0.8801;
482.4000;0.0912;-0.8756;
482.7000;0.0961;-0.8620;
483.0000;0.0855;-0.8824;
483.3000;0.0985;-0.8484;
483.6000;0.0912;-0.8620;
483.9000;0.0912;-0.8620;
484.2000;0.0887;-0.8779;
484.5000;0.0847;-0.8824;
484.8000;0.0912;-0.8665;
485.1000;0.0879;-0.8711;
485.4000;0.0887;-0.8779;
485.7000;0.0977;-0.8507;
486.0000;0.1009;-0.8439;
486.3000;0.0895;-0.8688;
486.6000;0.0944;-0.8598;
486.9000;0.0985;-0.8552;
487.2000;0.0895;-0.8733;
487.5000;0.0912;-0.8779;
487.8000;0.0944;-0.8643;
488.1000;0.0904;-0.8711;
488.4000;0.0838;-0.8846;
488.7000;0.0847;-0.8892;
489.0000;0.0912;-0.8688;
489.3000;0.0920;-0.8688;
489.6000;0.0863;-0.8801;
489.9000;0.0920;-0.8733;
490.2000;0.0928;-0.8643;
490.5000;0.0928;-0.8598;
490.8000;0.0912;-0.8643;
491.1000;0.0944;-0.8552;
491.4000;0.0879;-0.8711;
491.7000;0.0920;-0.8643;
492.0000;0.0879;-0.8801;
492.3000;0.0895;-0.8779;
492.6000;0.0920;-0.8665;
492.9000;0.0895;-0.8801;
493.2000;0.0912;-0.8733;
493.5000;0.0912;-0.8598;
493.8000;0.0855;-0.8756;
494.1000;0.0887;-0.8688;
494.4000;0.0895;-0.8665;
494.7000;0.0920;-0.8643;
495.0000;0.0920;-0.8688;
495.3000;0.0912;-0.8665;
495.6000;0.0912;-0.8620;
495.9000;0.0895;-0.8801;
496.2000;0.0904;-0.8756;
496.5000;0.0928;-0.8779;
496.8000;0.0920;-0.8914;
497.1000;0.0895;-0.9027;
497.4000;0.0904;-0.8960;
497.7000;0.0895;-0.8869;
498.0000;0.0928;-0.8846;
498.3000;0.0904;-0.8869;
498.6000;0.0912;-0.8846;
498.9000;0.0920;-0.8892;
499.2000;0.0863;-0.8982;
499.5000;0.0904;-0.8846;
499.8000;0.0920;-0.8824;
500.1000;0.0912;-0.8869;
500.4000;0.0928;-0.8733;
500.7000;0.0936;-0.8711;
501.0000;0.1009;-0.8507;
501.3000;0.0895;-0.8733;
501.6000;0.0936;-0.8665;
501.9000;0.0977;-0.8598;
502.2000;0.0920;-0.8824;
502.5000;0.0928;-0.8869;
502.8000;0.0920;-0.8824;
503.1000;0.0904;-0.8869;
503.4000;0.0928;-0.8801;
503.7000;0.0912;-0.8756;
504.0000;0.0920;-0.8733;
504.3000;0.0936;-0.8620;
504.6000;0.0895;-0.8756;
504.9000;0.0936;-0.8733;
505.2000;0.0887;-0.8869;
505.5000;0.0912;-0.8824;
505.8000;0.0912;-0.8892;
506.1000;0.0904;-0.8869;
506.4000;0.0912;-0.8801;
506.7000;0.0904;-0.8846;
507.0000;0.1009;-0.8620;
507.3000;0.0838;-0.9005;
507.6000;0.0928;-0.8846;
507.9000;0.0879;-0.9027;
508.2000;0.0920;-0.8914;
508.5000;0.0920;-0.8960;
508.8000;0.0985;-0.8756;
509.1000;0.0920;-0.8937;
509.4000;0.0969;-0.8801;
509.7000;0.0847;-0.9073;
510.0000;0.0895;-0.8937;
510.3000;0.0920;-0.8846;
510.6000;0.0920;-0.8892;
510.9000;0.0863;-0.8982;
511.2000;0.0887;-0.8914;
511.5000;0.0920;-0.8756;
511.8000;0.0928;-0.8643;
512.1000;0.1009;-0.8439;
512.4000;0.0904;-0.8756;
512.7000;0.0920;-0.8756;
513.0000;0.0887;-0.8756;
513.3000;0.0912;-0.8688;
513.6000;0.0887;-0.8779;
513.9000;0.0936;-0.8688;
514.2000;0.0879;-0.8824;
514.5000;0.0920;-0.8756;
514.8000;0.0928;-0.8688;
515.1000;0.0928;-0.8665;
515.4000;0.0879;-0.8733;
515.7000;0.0887;-0.8688;
516.0000;0.0871;-0.8756;
516.3000;0.0871;-0.8801;
516.6000;0.0952;-0.8620;
516.9000;0.0879;-0.8779;
517.2000;0.0904;-0.8688;
517.5000;0.0912;-0.8688;
517.8000;0.0912;-0.8688;
518.1000;0.0887;-0.8733;
518.4000;0.0895;-0.8665;
518.7000;0.0879;-0.8824;
519.0000;0.0904;-0.8824;
519.3000;0.0944;-0.8711;
519.6000;0.0879;-0.8869;
519.9000;0.0887;-0.8846;
520.2000;0.0904;-0.8824;
520.5000;0.0904;-0.8801;
520.8000;0.0904;-0.8869;
521.1000;0.0895;-0.8846;
521.4000;0.0944;-0.8801;
521.7000;0.0920;-0.8869;
522.0000;0.0895;-0.8937;
522.3000;0.0920;-0.8801;
522.6000;0.1001;-0.8462;
522.9000;0.0887;-0.8711;
523.2000;0.0895;-0.8665;
523.5000;0.0912;-0.8598;
523.8000;0.0920;-0.8620;
524.1000;0.0887;-0.8711;
524.4000;0.0920;-0.8643;
524.7000;0.0912;-0.8711;
525.0000;0.0822;-0.8982;
525.3000;0.0936;-0.8620;
525.6000;0.0879;-0.8733;
525.9000;0.0904;-0.8779;
526.2000;0.0912;-0.8892;
526.5000;0.0887;-0.9050;
526.8000;0.0855;-0.9186;
527.1000;0.0904;-0.9027;
527.4000;0.0895;-0.9027;
527.7000;0.0904;-0.8960;
528.0000;0.0904;-0.9050;
528.3000;0.0977;-0.8937;
528.6000;0.0895;-0.9186;
528.9000;0.0912;-0.9186;
529.2000;0.0887;-0.9163;
529.5000;0.0904;-0.9208;
529.8000;0.0863;-0.9254;
530.1000;0.0871;-0.9208;
530.4000;0.0912;-0.9095;
530.7000;0.0887;-0.9141;
531.0000;0.0904;-0.8960;
531.3000;0.0814;-0.9118;
531.6000;0.0855;-0.9027;
531.9000;0.0912;-0.8824;
532.2000;0.0904;-0.8892;
532.5000;0.0920;-0.8824;
532.8000;0.0920;-0.8801;
533.1000;0.0977;-0.8665;
533.4000;0.0806;-0.9118;
533.7000;0.0985;-0.8598;
534.0000;0.0895;-0.8846;
534.3000;0.0838;-0.8960;
534.6000;0.0936;-0.8688;
534.9000;0.0904;-0.8756;
535.2000;0.0879;-0.8824;
535.5000;0.0904;-0.8824;
535.8000;0.0928;-0.8846;
536.1000;0.0920;-0.8824;
536.4000;0.0912;-0.8892;
536.7000;0.0936;-0.8824;
537.0000;0.0928;-0.8869;
537.3000;0.0904;-0.8892;
537.6000;0.0920;-0.8779;
537.9000;0.0904;-0.8824;
538.2000;0.0895;-0.8756;
538.5000;0.1018;-0.8462;
538.8000;0.0871;-0.8937;
539.1000;0.0879;-0.9050;
539.4000;0.0904;-0.8960;
539.7000;0.1009;-0.8620;
540.0000;0.0895;-0.8937;
540.3000;0.0895;-0.8960;
540.6000;0.0847;-0.9050;
540.9000;0.0895;-0.8960;
541.2000;0.0838;-0.9141;
541.5000;0.0838;-0.9231;
541.8000;0.0895;-0.8937;
542.1000;0.0912;-0.8869;
542.4000;0.0904;-0.8914;
542.7000;0.0895;-0.8892;
543.0000;0.0912;-0.8937;
543.3000;0.0961;-0.8824;
543.6000;0.0920;-0.8892;
543.9000;0.0887;-0.8937;
544.2000;0.0904;-0.8937;
544.5000;0.0912;-0.8937;
544.8000;0.0920;-0.8892;
545.1000;0.0952;-0.8846;
545.4000;0.0944;-0.8801;
545.7000;0.0879;-0.8960;
546.0000;0.0944;-0.8937;
546.3000;0.0895;-0.9073;
546.6000;0.0952;-0.8869;
546.9000;0.0912;-0.8914;
547.2000;0.0912;-0.8892;
547.5000;0.0895;-0.8937;
547.8000;0.0912;-0.8869;
548.1000;0.0871;-0.8960;
548.4000;0.0912;-0.8846;
548.7000;0.0895;-0.8824;
549.0000;0.1034;-0.8507;
549.3000;0.0895;-0.8892;
549.6000;0.0895;-0.8824;
549.9000;0.0822;-0.9073;
550.2000;0.0895;-0.8937;
550.5000;0.0871;-0.9005;
550.8000;0.0944;-0.8824;
551.1000;0.0969;-0.8711;
551.4000;0.0838;-0.8982;
551.7000;0.0887;-0.8892;
552.0000;0.0904;-0.8801;
552.3000;0.0928;-0.8756;
552.6000;0.0904;-0.8846;
552.9000;0.0904;-0.8824;
553.2000;0.0879;-0.8914;
553.5000;0.0895;-0.8982;
553.8000;0.0895;-0.8960;
554.1000;0.0912;-0.8892;
554.4000;0.0904;-0.8869;
554.7000;0.0895;-0.8892;
555.0000;0.0855;-0.8982;
555.3000;0.0928;-0.8869;
555.6000;0.0928;-0.8937;
555.9000;0.0879;-0.9005;
556.2000;0.0928;-0.8846;
556.5000;0.0887;-0.8937;
556.8000;0.0879;-0.8960;
557.1000;0.0887;-0.9005;
557.4000;0.0887;-0.9095;
557.7000;0.0928;-0.9050;
558.0000;0.0838;-0.9208;
558.3000;0.0912;-0.9050;
558.6000;0.0871;-0.9163;
558.9000;0.0904;-0.9141;
559.2000;0.0912;-0.8982;
559.5000;0.0904;-0.8982;
559.8000;0.0912;-0.8960;
560.1000;0.0912;-0.8914;
560.4000;0.0904;-0.8914;
560.7000;0.0895;-0.8937;
561.0000;0.0895;-0.8982;
561.3000;0.0920;-0.8937;
561.6000;0.0904;-0.9027;
561.9000;0.0928;-0.8982;
562.2000;0.0912;-0.8824;
562.5000;0.0928;-0.8756;
562.8000;0.0871;-0.8960;
563.1000;0.0936;-0.8824;
563.4000;0.0895;-0.8892;
563.7000;0.0822;-0.9095;
564.0000;0.0944;-0.8779;
564.3000;0.0928;-0.8824;
564.6000;0.0904;-0.8824;
564.9000;0.0952;-0.8801;
565.2000;0.0904;-0.8937;
565.5000;0.0863;-0.9027;
565.8000;0.0895;-0.8982;
566.1000;0.0904;-0.8914;
566.4000;0.0920;-0.8960;
566.7000;0.0912;-0.9005;
567.0000;0.0855;-0.9095;
567.3000;0.0920;-0.8914;
567.6000;0.0912;-0.8982;
567.9000;0.0952;-0.8869;
568.2000;0.0887;-0.9027;
568.5000;0.0871;-0.9050;
568.8000;0.0928;-0.8869;
569.1000;0.0904;-0.8869;
569.4000;0.0904;-0.8846;
569.7000;0.0863;-0.8846;
570.0000;0.0928;-0.8733;
570.3000;0.0895;-0.8892;
570.6000;0.0904;-0.8892;
570.9000;0.0895;-0.8960;
571.2000;0.0977;-0.8779;
571.5000;0.0936;-0.8914;
571.8000;0.0904;-0.8869;
572.1000;0.0912;-0.8869;
572.4000;0.0912;-0.8846;
572.7000;0.0928;-0.8733;
573.0000;0.0920;-0.8733;
573.3000;0.0928;-0.8688;
573.6000;0.0895;-0.8756;
573.9000;0.0912;-0.8688;
574.2000;0.0928;-0.8598;
574.5000;0.0895;-0.8711;
574.8000;0.0887;-0.8733;
575.1000;0.0895;-0.8711;
575.4000;0.0920;-0.8733;
575.7000;0.0879;-0.8756;
576.0000;0.0920;-0.8711;
576.3000;0.0847;-0.8982;
576.6000;0.0847;-0.8982;
576.9000;0.0920;-0.8824;
577.2000;0.0912;-0.8779;
577.5000;0.0936;-0.8733;
577.8000;0.0912;-0.8779;
578.1000;0.0920;-0.8711;
578.4000;0.0879;-0.8733;
578.7000;0.0912;-0.8756;
579.0000;0.0944;-0.8779;
579.3000;0.0904;-0.8869;
579.6000;0.0806;-0.9186;
579.9000;0.0895;-0.8982;
580.2000;0.0912;-0.8960;
580.5000;0.0912;-0.8937;
580.8000;0.0879;-0.8982;
581.1000;0.0871;-0.9005;
581.4000;0.0952;-0.8665;
581.7000;0.0895;-0.8846;
582.0000;0.0855;-0.8914;
582.3000;0.0895;-0.8824;
582.6000;0.0952;-0.8756;
582.9000;0.0879;-0.8960;
583.2000;0.0936;-0.8824;
583.5000;0.0912;-0.8937;
583.8000;0.0928;-0.8779;
584.1000;0.0912;-0.8846;
584.4000;0.0936;-0.8801;
584.7000;0.0895;-0.8892;
585.0000;0.0904;-0.8914;
585.3000;0.0879;-0.8960;
585.6000;0.0904;-0.8914;
585.9000;0.0895;-0.9005;
586.2000;0.0904;-0.9005;
586.5000;0.0920;-0.8824;
586.8000;0.0920;-0.8824;
587.1000;0.0928;-0.8711;
587.4000;0.0912;-0.8756;
587.7000;0.0912;-0.8733;
588.0000;0.0904;-0.8756;
588.3000;0.0928;-0.8688;
588.6000;0.0928;-0.8688;
588.9000;0.0838;-0.8937;
589.2000;0.0928;-0.8779;
589.5000;0.0920;-0.8756;
589.8000;0.0904;-0.8688;
590.1000;0.0904;-0.8711;
590.4000;0.0928;-0.8733;
590.7000;0.0912;-0.8801;
591.0000;0.0904;-0.8846;
591.3000;0.0895;-0.8892;
591.6000;0.0928;-0.8779;
591.9000;0.0871;-0.8824;
592.2000;0.0879;-0.8801;
592.5000;0.0920;-0.8643;
592.8000;0.0904;-0.8733;
593.1000;0.0928;-0.8711;
593.4000;0.0904;-0.8801;
593.7000;0.0895;-0.8756;
594.0000;0.0928;-0.8779;
594.3000;0.0920;-0.8846;
594.6000;0.0904;-0.8892;
594.9000;0.0879;-0.8892;
595.2000;0.0879;-0.8892;
595.5000;0.0928;-0.8733;
595.8000;0.0912;-0.8801;
596.1000;0.0928;-0.8711;
596.4000;0.0912;-0.8665;
596.7000;0.0887;-0.8733;
597.0000;0.0920;-0.8598;
597.3000;0.0912;-0.8665;
597.6000;0.0928;-0.8665;
597.9000;0.0879;-0.8846;
598.2000;0.0895;-0.8846;
598.5000;0.0904;-0.8801;
598.8000;0.0798;-0.9027;
599.1000;0.0879;-0.8846;
599.4000;0.0977;-0.8711;
599.7000;0.0912;-0.8914;
600.0000;0.0904;-0.8960;
600.3000;0.0936;-0.8937;
600.6000;0.0985;-0.8914;
600.9000;0.0904;-0.9141;
601.2000;0.0871;-0.9254;
601.5000;0.0993;-0.9073;
601.8000;0.0879;-0.9389;
602.1000;0.0912;-0.9344;
602.4000;0.0855;-0.9503;
602.7000;0.0855;-0.9638;
603.0000;0.0879;-0.9525;
603.3000;0.0879;-0.9548;
603.6000;0.0944;-0.9412;
603.9000;0.0806;-0.9865;
604.2000;0.0887;-0.9797;
604.5000;0.0855;-0.9887;
604.8000;0.0798;-1.0068;
605.1000;0.0871;-0.9932;
605.4000;0.0985;-0.9684;
605.7000;0.0847;-1.0046;
606.0000;0.0855;-1.0091;
606.3000;0.0863;-0.9955;
606.6000;0.0847;-1.0000;
606.9000;0.0855;-1.0023;
607.2000;0.0847;-1.0000;
607.5000;0.0863;-0.9932;
607.8000;0.0871;-0.9910;
608.1000;0.0806;-1.0023;
608.4000;0.0822;-0.9932;
608.7000;0.0838;-0.9978;
609.0000;0.0814;-1.0091;
609.3000;0.0790;-1.0159;
609.6000;0.0814;-1.0181;
609.9000;0.0904;-0.9978;
610.2000;0.0822;-1.0136;
610.5000;0.0830;-1.0023;
610.8000;0.0895;-0.9887;
611.1000;0.0806;-1.0113;
611.4000;0.0822;-1.0000;
611.7000;0.0806;-1.0000;
612.0000;0.0961;-0.9638;
612.3000;0.0838;-1.0023;
612.6000;0.0855;-0.9910;
612.9000;0.0806;-1.0091;
613.2000;0.0741;-1.0227;
613.5000;0.0790;-1.0181;
613.8000;0.0814;-1.0181;
614.1000;0.0806;-1.0068;
614.4000;0.0814;-1.0023;
614.7000;0.0822;-0.9978;
615.0000;0.0969;-0.9616;
615.3000;0.0863;-0.9910;
615.6000;0.0806;-1.0113;
615.9000;0.0790;-1.0136;
616.2000;0.0733;-1.0294;
616.5000;0.0790;-1.0181;
616.8000;0.0790;-1.0272;
617.1000;0.0879;-1.0113;
617.4000;0.0790;-1.0317;
617.7000;0.0790;-1.0227;
618.0000;0.0733;-1.0430;
618.3000;0.0781;-1.0181;
618.6000;0.0790;-1.0204;
618.9000;0.0781;-1.0294;
619.2000;0.0806;-1.0249;
619.5000;0.0790;-1.0294;
619.8000;0.0651;-1.0589;
620.1000;0.0700;-1.0408;
620.4000;0.0798;-1.0136;
620.7000;0.0773;-1.0136;
621.0000;0.0798;-1.0091;
621.3000;0.0798;-1.0159;
621.6000;0.0773;-1.0227;
621.9000;0.0781;-1.0227;
622.2000;0.0790;-1.0227;
622.5000;0.0790;-1.0227;
622.8000;0.0790;-1.0317;
623.1000;0.0781;-1.0317;
623.4000;0.0781;-1.0317;
623.7000;0.0790;-1.0272;
624.0000;0.0798;-1.0249;
624.3000;0.0781;-1.0294;
624.6000;0.0781;-1.0272;
624.9000;0.0806;-1.0249;
625.2000;0.0781;-1.0227;
625.5000;0.0781;-1.0159;
625.8000;0.0814;-1.0136;
626.1000;0.0790;-1.0272;
626.4000;0.0790;-1.0385;
626.7000;0.0790;-1.0362;
627.0000;0.0757;-1.0362;
627.3000;0.0659;-1.0543;
627.6000;0.0781;-1.0340;
627.9000;0.0765;-1.0408;
628.2000;0.0781;-1.0340;
628.5000;0.0798;-1.0204;
628.8000;0.0765;-1.0272;
629.1000;0.0781;-1.0249;
629.4000;0.0773;-1.0249;
629.7000;0.0773;-1.0317;
630.0000;0.0790;-1.0317;
630.3000;0.0781;-1.0430;
630.6000;0.0765;-1.0521;
630.9000;0.0814;-1.0317;
631.2000;0.0781;-1.0317;
631.5000;0.0773;-1.0362;
631.8000;0.0781;-1.0272;
632.1000;0.0790;-1.0317;
632.4000;0.0765;-1.0340;
632.7000;0.0806;-1.0181;
633.0000;0.0781;-1.0227;
633.3000;0.0790;-1.0181;
633.6000;0.0855;-1.0091;
633.9000;0.0798;-1.0249;
634.2000;0.0757;-1.0204;
634.5000;0.0757;-1.0159;
634.8000;0.0773;-1.0046;
635.1000;0.0781;-1.0023;
635.4000;0.0733;-1.0181;
635.7000;0.0676;-1.0385;
636.0000;0.0790;-1.0113;
636.3000;0.0773;-1.0136;
636.6000;0.0879;-0.9910;
636.9000;0.0757;-1.0204;
637.2000;0.0765;-1.0159;
637.5000;0.0781;-1.0136;
637.8000;0.0749;-1.0204;
638.1000;0.0773;-1.0204;
638.4000;0.0749;-1.0159;
638.7000;0.0724;-1.0204;
639.0000;0.0822;-0.9955;
639.3000;0.0790;-1.0091;
639.6000;0.0749;-1.0227;
639.9000;0.0700;-1.0249;
640.2000;0.0757;-1.0068;
640.5000;0.0741;-1.0136;
640.8000;0.0781;-1.0023;
641.1000;0.0749;-1.0023;
641.4000;0.0781;-0.9955;
641.7000;0.0773;-0.9978;
642.0000;0.0847;-0.9729;
642.3000;0.0781;-0.9865;
642.6000;0.0765;-0.9955;
642.9000;0.0741;-1.0113;
643.2000;0.0716;-1.0091;
643.5000;0.0765;-0.9978;
643.8000;0.0806;-0.9842;
644.1000;0.0871;-0.9684;
644.4000;0.0781;-1.0046;
644.7000;0.0749;-1.0249;
645.0000;0.0708;-1.0362;
645.3000;0.0749;-1.0159;
645.6000;0.0749;-1.0249;
645.9000;0.0757;-1.0227;
646.2000;0.0749;-1.0159;
646.5000;0.0724;-1.0227;
646.8000;0.0765;-1.0136;
647.1000;0.0781;-1.0091;
647.4000;0.0765;-1.0159;
647.7000;0.0733;-1.0181;
648.0000;0.0773;-1.0091;
648.3000;0.0724;-1.0204;
648.6000;0.0667;-1.0272;
648.9000;0.0741;-1.0046;
649.2000;0.0741;-1.0091;
649.5000;0.0749;-1.0113;
649.8000;0.0749;-1.0272;
650.1000;0.0765;-1.0249;
650.4000;0.0749;-1.0204;
650.7000;0.0741;-1.0181;
651.0000;0.0716;-1.0227;
651.3000;0.0684;-1.0249;
651.6000;0.0814;-1.0023;
651.9000;0.0733;-1.0227;
652.2000;0.0781;-1.0113;
652.5000;0.0871;-0.9978;
652.8000;0.0757;-1.0204;
653.1000;0.0757;-1.0204;
653.4000;0.0757;-1.0227;
653.7000;0.0781;-1.0181;
654.0000;0.0781;-1.0249;
654.3000;0.0757;-1.0294;
654.6000;0.0545;-1.0770;
654.9000;0.0765;-1.0317;
655.2000;0.0773;-1.0249;
655.5000;0.0765;-1.0317;
655.8000;0.0781;-1.0204;
656.1000;0.0749;-1.0249;
656.4000;0.0773;-1.0294;
656.7000;0.0790;-1.0159;
657.0000;0.0765;-1.0159;
657.3000;0.0749;-1.0227;
657.6000;0.0700;-1.0362;
657.9000;0.0790;-1.0181;
658.2000;0.0733;-1.0317;
658.5000;0.0765;-1.0249;
658.8000;0.0741;-1.0294;
659.1000;0.0741;-1.0227;
659.4000;0.0749;-1.0249;
659.7000;0.0684;-1.0362;
660.0000;0.0773;-1.0136;
660.3000;0.0749;-1.0204;
660.6000;0.0757;-1.0227;
660.9000;0.0798;-1.0181;
661.2000;0.0733;-1.0294;
661.5000;0.0749;-1.0272;
661.8000;0.0749;-1.0249;
662.1000;0.0757;-1.0159;
662.4000;0.0798;-1.0000;
662.7000;0.0806;-0.9978;
663.0000;0.0757;-1.0068;
663.3000;0.0765;-1.0023;
663.6000;0.0757;-1.0068;
663.9000;0.0749;-1.0091;
664.2000;0.0757;-1.0091;
664.5000;0.0765;-1.0136;
664.8000;0.0765;-1.0113;
665.1000;0.0781;-1.0068;
665.4000;0.0749;-1.0091;
665.7000;0.0749;-1.0068;
666.0000;0.0765;-1.0023;
666.3000;0.0700;-1.0181;
666.6000;0.0733;-1.0068;
666.9000;0.0765;-0.9978;
667.2000;0.0765;-0.9910;
667.5000;0.0749;-0.9910;
667.8000;0.0724;-1.0046;
668.1000;0.0700;-1.0091;
668.4000;0.0790;-0.9797;
668.7000;0.0757;-0.9978;
669.0000;0.0741;-0.9978;
669.3000;0.0749;-0.9910;
669.6000;0.0773;-0.9887;
669.9000;0.0757;-1.0000;
670.2000;0.0733;-1.0068;
670.5000;0.0733;-1.0091;
670.8000;0.0781;-0.9955;
671.1000;0.0749;-0.9978;
671.4000;0.0814;-0.9865;
671.7000;0.0733;-0.9978;
672.0000;0.0781;-0.9910;
672.3000;0.0749;-0.9978;
672.6000;0.0733;-0.9978;
672.9000;0.0741;-0.9978;
673.2000;0.0822;-0.9774;
673.5000;0.0781;-0.9819;
673.8000;0.0733;-0.9955;
674.1000;0.0749;-1.0000;
674.4000;0.0749;-1.0023;
674.7000;0.0716;-1.0227;
675.0000;0.0741;-1.0136;
675.3000;0.0765;-1.0091;
675.6000;0.0708;-1.0249;
675.9000;0.0765;-1.0113;
676.2000;0.0749;-1.0091;
676.5000;0.0749;-1.0113;
676.8000;0.0757;-0.9955;
677.1000;0.0773;-0.9819;
677.4000;0.0773;-0.9797;
677.7000;0.0700;-0.9955;
678.0000;0.0773;-0.9865;
678.3000;0.0765;-0.9887;
678.6000;0.0749;-0.9865;
678.9000;0.0757;-0.9865;
679.2000;0.0716;-0.9978;
679.5000;0.0749;-1.0000;
679.8000;0.0822;-0.9797;
680.1000;0.0708;-1.0046;
680.4000;0.0749;-0.9842;
680.7000;0.0749;-0.9932;
681.0000;0.0757;-0.9955;
681.3000;0.0741;-1.0023;
681.6000;0.0757;-0.9955;
681.9000;0.0741;-0.9955;
682.2000;0.0724;-1.0000;
682.5000;0.0757;-1.0023;
682.8000;0.0757;-0.9910;
683.1000;0.0716;-0.9978;
683.4000;0.0749;-0.9910;
683.7000;0.0716;-0.9910;
684.0000;0.0781;-0.9751;
684.3000;0.0749;-0.9819;
684.6000;0.0733;-0.9774;
684.9000;0.0733;-0.9819;
685.2000;0.0733;-0.9842;
685.5000;0.0741;-0.9910;
685.8000;0.0733;-0.9910;
686.1000;0.0749;-0.9865;
686.4000;0.0724;-0.9955;
686.7000;0.0749;-0.9910;
687.0000;0.0749;-0.9932;
687.3000;0.0765;-0.9842;
687.6000;0.0741;-0.9797;
687.9000;0.0765;-0.9774;
688.2000;0.0757;-0.9729;
688.5000;0.0757;-0.9729;
688.8000;0.0757;-0.9684;
689.1000;0.0749;-0.9774;
689.4000;0.0733;-0.9887;
689.7000;0.0773;-0.9932;
690.0000;0.0724;-0.9978;
690.3000;0.0733;-0.9887;
690.6000;0.0790;-0.9751;
690.9000;0.0765;-0.9729;
691.2000;0.0757;-0.9729;
691.5000;0.0781;-0.9684;
691.8000;0.0765;-0.9751;
692.1000;0.0765;-0.9684;
692.4000;0.0757;-0.9638;
692.7000;0.0773;-0.9684;
693.0000;0.0749;-0.9819;
693.3000;0.0765;-0.9819;
693.6000;0.0765;-0.9910;
693.9000;0.0724;-1.0023;
694.2000;0.0741;-0.9978;
694.5000;0.0724;-1.0068;
694.8000;0.0757;-1.0046;
695.1000;0.0733;-0.9978;
695.4000;0.0659;-1.0227;
695.7000;0.0741;-1.0068;
696.0000;0.0733;-1.0113;
696.3000;0.0627;-1.0430;
696.6000;0.0659;-1.0340;
696.9000;0.0733;-1.0227;
697.2000;0.0733;-1.0272;
697.5000;0.0757;-1.0385;
697.8000;0.0806;-1.0317;
698.1000;0.0749;-1.0362;
698.4000;0.0716;-1.0408;
698.7000;0.0765;-1.0227;
699.0000;0.0757;-1.0181;
699.3000;0.0724;-1.0249;
699.6000;0.0822;-0.9978;
699.9000;0.0790;-1.0091;
700.2000;0.0749;-1.0181;
700.5000;0.0749;-1.0113;
700.8000;0.0757;-1.0136;
701.1000;0.0757;-1.0181;
701.4000;0.0765;-1.0091;
701.7000;0.0749;-1.0091;
702.0000;0.0749;-0.9932;
702.3000;0.0741;-0.9978;
702.6000;0.0765;-0.9865;
702.9000;0.0724;-1.0046;
703.2000;0.0773;-0.9955;
703.5000;0.0773;-0.9955;
703.8000;0.0741;-1.0046;
704.1000;0.0757;-0.9978;
704.4000;0.0781;-1.0023;
704.7000;0.0749;-1.0091;
705.0000;0.0741;-1.0068;
705.3000;0.0741;-0.9955;
705.6000;0.0741;-0.9865;
705.9000;0.0830;-0.9616;
706.2000;0.0741;-0.9932;
706.5000;0.0733;-0.9910;
706.8000;0.0733;-0.9955;
707.1000;0.0749;-0.9887;
707.4000;0.0708;-0.9978;
707.7000;0.0757;-0.9865;
708.0000;0.0724;-0.9978;
708.3000;0.0716;-1.0000;
708.6000;0.0749;-0.9910;
708.9000;0.0765;-0.9887;
709.2000;0.0749;-1.0068;
709.5000;0.0757;-1.0068;
709.8000;0.0765;-1.0091;
710.1000;0.0733;-1.0181;
710.4000;0.0773;-1.0091;
710.7000;0.0757;-1.0046;
711.0000;0.0781;-1.0113;
711.3000;0.0757;-1.0181;
711.6000;0.0733;-1.0113;
711.9000;0.0651;-1.0385;
712.2000;0.0724;-1.0159;
712.5000;0.0781;-1.0046;
712.8000;0.0724;-1.0091;
713.1000;0.0741;-1.0068;
713.4000;0.0757;-1.0000;
713.7000;0.0757;-1.0000;
714.0000;0.0749;-0.9932;
714.3000;0.0749;-0.9910;
714.6000;0.0741;-0.9932;
714.9000;0.0749;-0.9910;
715.2000;0.0741;-0.9887;
715.5000;0.0733;-0.9955;
715.8000;0.0716;-1.0068;
716.1000;0.0749;-0.9978;
716.4000;0.0741;-0.9910;
716.7000;0.0716;-1.0000;
717.0000;0.0749;-0.9887;
717.3000;0.0781;-0.9819;
717.6000;0.0765;-0.9865;
717.9000;0.0724;-0.9910;
718.2000;0.0724;-0.9978;
718.5000;0.0741;-0.9887;
718.8000;0.0708;-0.9887;
719.1000;0.0741;-0.9842;
719.4000;0.0806;-0.9616;
719.7000;0.0741;-0.9729;
720.0000;0.0708;-0.9932;
720.3000;0.0741;-0.9955;
720.6000;0.0708;-0.9978;
720.9000;0.0741;-0.9955;
721.2000;0.0741;-0.9910;
721.5000;0.0749;-0.9887;
721.8000;0.0741;-1.0000;
722.1000;0.0757;-1.0000;
722.4000;0.0814;-0.9819;
722.7000;0.0724;-0.9978;
723.0000;0.0724;-0.9932;
723.3000;0.0741;-0.9978;
723.6000;0.0749;-0.9978;
723.9000;0.0749;-1.0000;
724.2000;0.0733;-1.0046;
724.5000;0.0733;-0.9978;
724.8000;0.0781;-0.9932;
725.1000;0.0741;-0.9932;
725.4000;0.0781;-0.9910;
725.7000;0.0733;-1.0000;
726.0000;0.0724;-1.0000;
726.3000;0.0749;-0.9932;
726.6000;0.0749;-0.9978;
726.9000;0.0757;-0.9978;
727.2000;0.0749;-0.9955;
727.5000;0.0733;-0.9932;
727.8000;0.0863;-0.9616;
728.1000;0.0741;-0.9955;
728.4000;0.0757;-0.9865;
728.7000;0.0741;-0.9932;
729.0000;0.0765;-0.9932;
729.3000;0.0724;-1.0000;
729.6000;0.0741;-0.9978;
729.9000;0.0643;-1.0204;
730.2000;0.0716;-1.0000;
730.5000;0.0749;-0.9910;
730.8000;0.0790;-0.9842;
731.1000;0.0741;-0.9932;
731.4000;0.0757;-0.9887;
731.7000;0.0765;-0.9842;
732.0000;0.0741;-0.9910;
732.3000;0.0733;-0.9978;
732.6000;0.0765;-0.9865;
732.9000;0.0733;-0.9910;
733.2000;0.0741;-0.9955;
733.5000;0.0741;-0.9932;
733.8000;0.0757;-0.9955;
734.1000;0.0733;-1.0046;
734.4000;0.0773;-1.0068;
734.7000;0.0708;-1.0272;
735.0000;0.0733;-1.0317;
735.3000;0.0749;-1.0272;
735.6000;0.0733;-1.0249;
735.9000;0.0659;-1.0498;
736.2000;0.0749;-1.0227;
736.5000;0.0822;-1.0046;
736.8000;0.0757;-1.0181;
737.1000;0.0741;-1.0113;
737.4000;0.0741;-1.0113;
737.7000;0.0741;-1.0181;
738.0000;0.0741;-1.0136;
738.3000;0.0765;-1.0091;
738.6000;0.0749;-1.0136;
738.9000;0.0749;-1.0181;
739.2000;0.0773;-1.0181;
739.5000;0.0757;-1.0159;
739.8000;0.0733;-1.0136;
740.1000;0.0741;-1.0091;
740.4000;0.0757;-0.9978;
740.7000;0.0749;-0.9910;
741.0000;0.0733;-0.9932;
741.3000;0.0749;-0.9932;
741.6000;0.0773;-0.9887;
741.9000;0.0749;-0.9865;
742.2000;0.0749;-0.9865;
742.5000;0.0741;-0.9819;
742.8000;0.0708;-0.9887;
743.1000;0.0757;-0.9842;
743.4000;0.0635;-1.0227;
743.7000;0.0741;-0.9955;
744.0000;0.0757;-1.0000;
744.3000;0.0749;-1.0023;
744.6000;0.0806;-0.9842;
744.9000;0.0724;-0.9955;
745.2000;0.0749;-0.9887;
745.5000;0.0749;-0.9865;
745.8000;0.0757;-1.0000;
746.1000;0.0741;-1.0113;
746.4000;0.0733;-1.0091;
746.7000;0.0708;-1.0046;
747.0000;0.0708;-1.0023;
747.3000;0.0749;-0.9932;
747.6000;0.0749;-0.9910;
747.9000;0.0733;-1.0023;
748.2000;0.0749;-0.9932;
748.5000;0.0741;-0.9842;
748.8000;0.0741;-0.9865;
749.1000;0.0667;-1.0023;
749.4000;0.0741;-0.9774;
749.7000;0.0708;-0.9955;
750.0000;0.0716;-1.0068;
750.3000;0.0724;-1.0000;
750.6000;0.0733;-0.9955;
750.9000;0.0733;-1.0023;
751.2000;0.0733;-1.0000;
751.5000;0.0765;-0.9932;
751.8000;0.0708;-1.0046;
752.1000;0.0741;-1.0000;
752.4000;0.0741;-1.0046;
752.7000;0.0798;-0.9887;
753.0000;0.0773;-0.9910;
753.3000;0.0773;-0.9955;
753.6000;0.0741;-0.9978;
753.9000;0.0741;-1.0091;
754.2000;0.0741;-1.0204;
754.5000;0.0757;-1.0181;
754.8000;0.0757;-1.0136;
755.1000;0.0724;-1.0227;
755.4000;0.0765;-1.0068;
755.7000;0.0757;-1.0068;
756.0000;0.0724;-1.0113;
756.3000;0.0749;-1.0113;
756.6000;0.0757;-1.0023;
756.9000;0.0757;-0.9865;
757.2000;0.0724;-0.9955;
757.5000;0.0749;-0.9932;
757.8000;0.0733;-1.0046;
758.1000;0.0749;-1.0136;
758.4000;0.0700;-1.0272;
758.7000;0.0716;-1.0294;
759.0000;0.0741;-1.0249;
759.3000;0.0741;-1.0181;
759.6000;0.0741;-1.0113;
759.9000;0.0733;-1.0159;
760.2000;0.0790;-0.9955;
760.5000;0.0765;-0.9955;
760.8000;0.0814;-0.9932;
761.1000;0.0741;-1.0068;
761.4000;0.0741;-1.0046;
761.7000;0.0741;-1.0091;
762.0000;0.0676;-1.0227;
762.3000;0.0733;-1.0159;
762.6000;0.0676;-1.0430;
762.9000;0.0724;-1.0272;
763.2000;0.0749;-1.0181;
763.5000;0.0806;-1.0023;
763.8000;0.0716;-1.0204;
764.1000;0.0700;-1.0204;
764.4000;0.0733;-1.0113;
764.7000;0.0700;-1.0227;
765.0000;0.0757;-1.0046;
765.3000;0.0716;-1.0091;
765.6000;0.0757;-1.0023;
765.9000;0.0765;-1.0046;
766.2000;0.0749;-1.0068;
766.5000;0.0749;-1.0046;
766.8000;0.0749;-1.0046;
767.1000;0.0757;-1.0068;
767.4000;0.0667;-1.0249;
767.7000;0.0611;-1.0362;
768.0000;0.0741;-1.0000;
768.3000;0.0765;-0.9978;
768.6000;0.0741;-1.0000;
768.9000;0.0790;-0.9910;
769.2000;0.0838;-0.9729;
769.5000;0.0741;-0.9955;
769.8000;0.0749;-0.9865;
770.1000;0.0741;-0.9932;
770.4000;0.0684;-1.0091;
770.7000;0.0741;-1.0091;
771.0000;0.0708;-1.0204;
771.3000;0.0757;-1.0113;
771.6000;0.0733;-1.0113;
771.9000;0.0773;-1.0091;
772.2000;0.0765;-1.0000;
772.5000;0.0757;-1.0046;
772.8000;0.0724;-1.0136;
773.1000;0.0741;-1.0113;
773.4000;0.0749;-1.0091;
773.7000;0.0733;-1.0136;
774.0000;0.0724;-1.0136;
774.3000;0.0749;-1.0091;
774.6000;0.0733;-1.0068;
774.9000;0.0757;-0.9910;
775.2000;0.0749;-0.9955;
775.5000;0.0716;-1.0068;
775.8000;0.0741;-1.0000;
776.1000;0.0733;-1.0159;
776.4000;0.0741;-1.0136;
776.7000;0.0749;-1.0113;
777.0000;0.0733;-1.0204;
777.3000;0.0733;-1.0204;
777.6000;0.0757;-1.0113;
777.9000;0.0798;-0.9910;
778.2000;0.0749;-1.0023;
778.5000;0.0757;-0.9955;
778.8000;0.0667;-1.0204;
779.1000;0.0741;-1.0068;
779.4000;0.0765;-1.0023;
779.7000;0.0757;-1.0000;
780.0000;0.0724;-1.0023;
780.3000;0.0733;-1.0023;
780.6000;0.0724;-1.0023;
780.9000;0.0871;-0.9706;
781.2000;0.0757;-0.9887;
781.5000;0.0733;-0.9842;
781.8000;0.0724;-0.9887;
782.1000;0.0733;-0.9774;
782.4000;0.0741;-0.9797;
782.7000;0.0765;-0.9751;
783.0000;0.0790;-0.9774;
783.3000;0.0749;-0.9887;
783.6000;0.0716;-0.9955;
783.9000;0.0765;-0.9751;
784.2000;0.0749;-0.9865;
784.5000;0.0708;-0.9955;
784.8000;0.0716;-0.9978;
785.1000;0.0757;-0.9955;
785.4000;0.0659;-1.0159;
785.7000;0.0733;-1.0113;
786.0000;0.0741;-1.0091;
786.3000;0.0619;-1.0543;
786.6000;0.0749;-1.0091;
786.9000;0.0733;-1.0159;
787.2000;0.0724;-1.0159;
787.5000;0.0765;-0.9910;
787.8000;0.0708;-0.9955;
788.1000;0.0741;-0.9887;
788.4000;0.0781;-0.9842;
788.7000;0.0724;-0.9910;
789.0000;0.0757;-0.9819;
789.3000;0.0806;-0.9706;
789.6000;0.0814;-0.9638;
789.9000;0.0684;-0.9978;
790.2000;0.0749;-0.9842;
790.5000;0.0724;-0.9910;
790.8000;0.0806;-0.9751;
791.1000;0.0757;-0.9932;
791.4000;0.0773;-0.9819;
791.7000;0.0724;-0.9865;
792.0000;0.0765;-0.9751;
792.3000;0.0757;-0.9819;
792.6000;0.0651;-1.0113;
792.9000;0.0741;-0.9887;
793.2000;0.0716;-0.9955;
793.5000;0.0708;-0.9955;
793.8000;0.0716;-1.0000;
794.1000;0.0749;-0.9932;
794.4000;0.0749;-0.9819;
794.7000;0.0757;-0.9797;
795.0000;0.0733;-0.9887;
795.3000;0.0741;-0.9910;
795.6000;0.0749;-0.9865;
795.9000;0.0733;-0.9955;
796.2000;0.0733;-0.9932;
796.5000;0.0757;-0.9887;
796.8000;0.0733;-1.0000;
797.1000;0.0733;-0.9978;
797.4000;0.0724;-1.0023;
797.7000;0.0741;-0.9932;
798.0000;0.0749;-0.9887;
798.3000;0.0692;-1.0113;
798.6000;0.0757;-0.9955;
798.9000;0.0716;-0.9978;
799.2000;0.0724;-0.9910;
799.5000;0.0749;-0.9774;
799.8000;0.0676;-1.0091;
800.1000;0.0724;-1.0068;
800.4000;0.0765;-1.0000;
800.7000;0.0724;-1.0068;
801.0000;0.0790;-0.9955;
801.3000;0.0814;-0.9842;
801.6000;0.0749;-0.9887;
801.9000;0.0733;-0.9932;
802.2000;0.0773;-0.9729;
802.5000;0.0733;-0.9819;
802.8000;0.0733;-0.9842;
803.1000;0.0749;-0.9797;
803.4000;0.0806;-0.9684;
803.7000;0.0708;-0.9887;
804.0000;0.0733;-0.9842;
804.3000;0.0733;-0.9819;
804.6000;0.0749;-0.9751;
804.9000;0.0773;-0.9751;
805.2000;0.0741;-0.9819;
805.5000;0.0773;-0.9684;
805.8000;0.0757;-0.9797;
806.1000;0.0749;-0.9751;
806.4000;0.0757;-0.9729;
806.7000;0.0667;-1.0023;
807.0000;0.0741;-0.9887;
807.3000;0.0749;-0.9887;
807.6000;0.0733;-0.9910;
807.9000;0.0798;-0.9751;
808.2000;0.0765;-0.9797;
808.5000;0.0733;-0.9955;
808.8000;0.0749;-0.9932;
809.1000;0.0773;-0.9887;
809.4000;0.0724;-0.9955;
809.7000;0.0757;-0.9774;
810.0000;0.0749;-0.9819;
810.3000;0.0716;-0.9865;
810.6000;0.0822;-0.9593;
810.9000;0.0741;-0.9774;
811.2000;0.0733;-0.9797;
811.5000;0.0838;-0.9661;
811.8000;0.0749;-0.9978;
812.1000;0.0733;-1.0000;
812.4000;0.0847;-0.9797;
812.7000;0.0733;-1.0068;
813.0000;0.0814;-0.9819;
813.3000;0.0733;-0.9955;
813.6000;0.0692;-0.9955;
813.9000;0.0765;-0.9819;
814.2000;0.0749;-0.9774;
814.5000;0.0757;-0.9774;
814.8000;0.0749;-0.9910;
815.1000;0.0790;-0.9774;
815.4000;0.0651;-1.0159;
815.7000;0.0724;-1.0023;
816.0000;0.0757;-0.9887;
816.3000;0.0741;-0.9910;
816.6000;0.0781;-0.9910;
816.9000;0.0700;-1.0136;
817.2000;0.0733;-0.9978;
817.5000;0.0724;-1.0000;
817.8000;0.0790;-0.9797;
818.1000;0.0830;-0.9661;
818.4000;0.0757;-0.9887;
818.7000;0.0773;-0.9797;
819.0000;0.0781;-0.9774;
819.3000;0.0765;-0.9932;
819.6000;0.0724;-0.9932;
819.9000;0.0741;-0.9910;
820.2000;0.0724;-0.9842;
820.5000;0.0708;-0.9932;
820.8000;0.0724;-0.9910;
821.1000;0.0724;-0.9978;
821.4000;0.0773;-0.9842;
821.7000;0.0716;-0.9910;
822.0000;0.0741;-0.9887;
822.3000;0.0757;-0.9887;
822.6000;0.0749;-0.9978;
822.9000;0.0741;-0.9910;
823.2000;0.0757;-0.9865;
823.5000;0.0733;-0.9842;
823.8000;0.0741;-0.9842;
824.1000;0.0749;-0.9819;
824.4000;0.0757;-0.9887;
824.7000;0.0733;-1.0000;
825.0000;0.0700;-0.9910;
825.3000;0.0733;-0.9797;
825.6000;0.0716;-0.9774;
825.9000;0.0757;-0.9729;
826.2000;0.0724;-0.9865;
826.5000;0.0724;-0.9887;
826.8000;0.0790;-0.9706;
827.1000;0.0733;-0.9842;
827.4000;0.0716;-1.0000;
827.7000;0.0716;-0.9932;
828.0000;0.0781;-0.9638;
828.3000;0.0741;-0.9729;
828.6000;0.0724;-0.9955;
828.9000;0.0765;-0.9887;
829.2000;0.0741;-0.9978;
829.5000;0.0724;-1.0068;
829.8000;0.0781;-0.9932;
830.1000;0.0733;-1.0136;
830.4000;0.0733;-1.0068;
830.7000;0.0716;-1.0113;
831.0000;0.0765;-0.9932;
831.3000;0.0733;-1.0068;
831.6000;0.0814;-0.9842;
831.9000;0.0749;-1.0023;
832.2000;0.0724;-1.0113;
832.5000;0.0749;-1.0000;
832.8000;0.0724;-1.0068;
833.1000;0.0741;-1.0091;
833.4000;0.0733;-1.0046;
833.7000;0.0757;-1.0000;
834.0000;0.0773;-1.0068;
834.3000;0.0716;-1.0181;
834.6000;0.0757;-1.0113;
834.9000;0.0830;-0.9932;
835.2000;0.0724;-1.0136;
835.5000;0.0757;-1.0091;
835.8000;0.0749;-1.0046;
836.1000;0.0724;-1.0113;
836.4000;0.0733;-1.0091;
836.7000;0.0741;-1.0000;
837.0000;0.0749;-0.9955;
837.3000;0.0749;-0.9932;
837.6000;0.0676;-1.0023;
837.9000;0.0716;-0.9978;
838.2000;0.0733;-1.0000;
838.5000;0.0708;-1.0000;
838.8000;0.0741;-0.9932;
839.1000;0.0749;-0.9932;
839.4000;0.0749;-0.9932;
839.7000;0.0733;-1.0068;
840.0000;0.0741;-1.0000;
840.3000;0.0741;-0.9887;
840.6000;0.0741;-0.9797;
840.9000;0.0749;-0.9819;
841.2000;0.0733;-0.9819;
841.5000;0.0724;-0.9819;
841.8000;0.0716;-0.9865;
842.1000;0.0806;-0.9797;
842.4000;0.0741;-0.9955;
842.7000;0.0716;-1.0000;
843.0000;0.0814;-0.9684;
843.3000;0.0692;-1.0000;
843.6000;0.0733;-0.9932;
843.9000;0.0692;-0.9978;
844.2000;0.0635;-1.0136;
844.5000;0.0724;-0.9887;
844.8000;0.0692;-1.0023;
845.1000;0.0716;-0.9978;
845.4000;0.0749;-0.9910;
845.7000;0.0773;-0.9865;
846.0000;0.0741;-0.9955;
846.3000;0.0749;-0.9865;
846.6000;0.0765;-0.9774;
846.9000;0.0838;-0.9616;
847.2000;0.0871;-0.9593;
847.5000;0.0741;-0.9978;
847.8000;0.0716;-1.0046;
848.1000;0.0741;-0.9955;
848.4000;0.0724;-0.9932;
848.7000;0.0716;-0.9955;
849.0000;0.0749;-0.9910;
849.3000;0.0749;-0.9910;
849.6000;0.0773;-0.9887;
849.9000;0.0749;-0.9865;
850.2000;0.0741;-0.9842;
850.5000;0.0733;-0.9955;
850.8000;0.0692;-1.0091;
851.1000;0.0790;-0.9774;
851.4000;0.0733;-0.9955;
851.7000;0.0724;-0.9910;
852.0000;0.0806;-0.9684;
852.3000;0.0741;-0.9887;
852.6000;0.0798;-0.9819;
852.9000;0.0692;-1.0046;
853.2000;0.0757;-0.9865;
853.5000;0.0716;-1.0000;
853.8000;0.0716;-0.9978;
854.1000;0.0724;-0.9887;
854.4000;0.0781;-0.9751;
854.7000;0.0765;-0.9842;
855.0000;0.0749;-0.9955;
855.3000;0.0724;-0.9978;
855.6000;0.0733;-0.9865;
855.9000;0.0716;-0.9887;
856.2000;0.0733;-0.9774;
856.5000;0.0724;-0.9751;
856.8000;0.0724;-0.9729;
857.1000;0.0741;-0.9774;
857.4000;0.0757;-0.9684;
857.7000;0.0708;-0.9887;
858.0000;0.0749;-0.9887;
858.3000;0.0716;-0.9955;
858.6000;0.0733;-0.9887;
858.9000;0.0749;-0.9819;
859.2000;0.0749;-0.9729;
859.5000;0.0920;-0.9322;
859.8000;0.0635;-1.0136;
860.1000;0.0724;-0.9887;
860.4000;0.0700;-0.9932;
860.7000;0.0733;-0.9774;
861.0000;0.0733;-0.9819;
861.3000;0.0741;-0.9751;
861.6000;0.0798;-0.9661;
861.9000;0.0733;-0.9797;
862.2000;0.0741;-0.9729;
862.5000;0.0700;-0.9819;
862.8000;0.0757;-0.9638;
863.1000;0.0716;-0.9774;
863.4000;0.0749;-0.9842;
863.7000;0.0749;-0.9774;
864.0000;0.0716;-0.9910;
864.3000;0.0716;-0.9887;
864.6000;0.0700;-0.9955;
864.9000;0.0773;-0.9774;
865.2000;0.0733;-0.9865;
865.5000;0.0733;-0.9819;
865.8000;0.0765;-0.9819;
866.1000;0.0765;-0.9797;
866.4000;0.0741;-0.9751;
866.7000;0.0822;-0.9593;
867.0000;0.0667;-0.9887;
867.3000;0.0765;-0.9661;
867.6000;0.0757;-0.9593;
867.9000;0.0724;-0.9706;
868.2000;0.0790;-0.9548;
868.5000;0.0733;-0.9751;
868.8000;0.0733;-0.9819;
869.1000;0.0716;-0.9887;
869.4000;0.0708;-0.9932;
869.7000;0.0700;-0.9910;
870.0000;0.0724;-0.9842;
870.3000;0.0741;-0.9819;
870.6000;0.0700;-0.9932;
870.9000;0.0724;-0.9910;
871.2000;0.0716;-0.9978;
871.5000;0.0733;-0.9910;
871.8000;0.0741;-0.9865;
872.1000;0.0733;-0.9797;
872.4000;0.0741;-0.9842;
872.7000;0.0733;-0.9819;
873.0000;0.0724;-0.9751;
873.3000;0.0741;-0.9706;
873.6000;0.0741;-0.9661;
873.9000;0.0757;-0.9616;
874.2000;0.0863;-0.9389;
874.5000;0.0724;-0.9684;
874.8000;0.0733;-0.9638;
875.1000;0.0741;-0.9638;
875.4000;0.0733;-0.9684;
875.7000;0.0741;-0.9751;
876.0000;0.0716;-0.9819;
876.3000;0.0741;-0.9706;
876.6000;0.0733;-0.9684;
876.9000;0.0733;-0.9751;
877.2000;0.0700;-0.9797;
877.5000;0.0765;-0.9616;
877.8000;0.0757;-0.9616;
878.1000;0.0741;-0.9593;
878.4000;0.0830;-0.9435;
878.7000;0.0708;-0.9819;
879.0000;0.0716;-0.9774;
879.3000;0.0790;-0.9706;
879.6000;0.0708;-0.9932;
879.9000;0.0733;-0.9774;
880.2000;0.0741;-0.9774;
880.5000;0.0749;-0.9774;
880.8000;0.0733;-0.9751;
881.1000;0.0757;-0.9774;
881.4000;0.0749;-0.9865;
881.7000;0.0749;-0.9729;
882.0000;0.0724;-0.9797;
882.3000;0.0741;-0.9751;
882.6000;0.0749;-0.9751;
882.9000;0.0741;-0.9729;
883.2000;0.0749;-0.9684;
883.5000;0.0700;-0.9819;
883.8000;0.0838;-0.9503;
884.1000;0.0741;-0.9751;
884.4000;0.0822;-0.9570;
884.7000;0.0749;-0.9729;
885.0000;0.0733;-0.9819;
885.3000;0.0749;-0.9729;
885.6000;0.0627;-0.9978;
885.9000;0.0724;-0.9797;
886.2000;0.0733;-0.9729;
886.5000;0.0716;-0.9797;
886.8000;0.0749;-0.9729;
887.1000;0.0724;-0.9932;
887.4000;0.0741;-0.9887;
887.7000;0.0741;-0.9842;
888.0000;0.0724;-0.9955;
888.3000;0.0757;-0.9932;
888.6000;0.0757;-0.9932;
888.9000;0.0757;-1.0000;
889.2000;0.0765;-1.0000;
889.5000;0.0773;-1.0023;
889.8000;0.0716;-1.0113;
890.1000;0.0724;-1.0046;
890.4000;0.0757;-0.9842;
890.7000;0.0749;-0.9842;
891.0000;0.0708;-0.9887;
891.3000;0.0724;-0.9955;
891.6000;0.0733;-0.9865;
891.9000;0.0741;-0.9955;
892.2000;0.0790;-0.9932;
892.5000;0.0716;-1.0091;
892.8000;0.0781;-0.9932;
893.1000;0.0757;-1.0023;
893.4000;0.0749;-0.9955;
893.7000;0.0733;-1.0023;
894.0000;0.0757;-0.9932;
894.3000;0.0757;-0.9865;
894.6000;0.0716;-0.9887;
894.9000;0.0594;-1.0227;
895.2000;0.0757;-0.9774;
895.5000;0.0733;-0.9684;
895.8000;0.0724;-0.9751;
896.1000;0.0708;-0.9842;
896.4000;0.0724;-0.9751;
896.7000;0.0724;-0.9706;
897.0000;0.0757;-0.9525;
897.3000;0.0741;-0.9616;
897.6000;0.0781;-0.9616;
897.9000;0.0741;-0.9819;
898.2000;0.0741;-0.9865;
898.5000;0.0724;-0.9932;
898.8000;0.0741;-0.9887;
899.1000;0.0757;-0.9887;
899.4000;0.0716;-1.0023;
899.7000;0.0708;-1.0046;
900.0000;0.0716;-1.0046;
900.3000;0.0749;-0.9910;
900.6000;0.0700;-1.0068;
900.9000;0.0741;-1.0091;
901.2000;0.0757;-0.9955;
901.5000;0.0733;-1.0023;
901.8000;0.0765;-0.9887;
902.1000;0.0749;-0.9887;
902.4000;0.0716;-0.9978;
902.7000;0.0692;-1.0046;
903.0000;0.0781;-0.9751;
903.3000;0.0749;-0.9865;
903.6000;0.0724;-0.9932;
903.9000;0.0724;-0.9932;
904.2000;0.0814;-0.9684;
904.5000;0.0757;-0.9842;
904.8000;0.0773;-0.9797;
905.1000;0.0757;-0.9797;
905.4000;0.0733;-0.9910;
905.7000;0.0749;-0.9932;
906.0000;0.0724;-1.0068;
906.3000;0.0757;-0.9932;
906.6000;0.0757;-0.9910;
906.9000;0.0773;-0.9842;
907.2000;0.0757;-0.9887;
907.5000;0.0643;-1.0136;
907.8000;0.0741;-0.9887;
908.1000;0.0741;-0.9819;
908.4000;0.0724;-0.9819;
908.7000;0.0790;-0.9706;
909.0000;0.0741;-0.9865;
909.3000;0.0733;-0.9842;
909.6000;0.0749;-0.9819;
909.9000;0.0741;-0.9865;
910.2000;0.0741;-0.9751;
910.5000;0.0749;-0.9774;
910.8000;0.0724;-0.9751;
911.1000;0.0741;-0.9706;
911.4000;0.0716;-0.9819;
911.7000;0.0757;-0.9774;
912.0000;0.0749;-0.9729;
912.3000;0.0741;-0.9729;
912.6000;0.0749;-0.9706;
912.9000;0.0700;-0.9797;
913.2000;0.0741;-0.9661;
913.5000;0.0724;-0.9774;
913.8000;0.0773;-0.9616;
914.1000;0.0724;-0.9706;
914.4000;0.0749;-0.9638;
914.7000;0.0716;-0.9751;
915.0000;0.0741;-0.9638;
915.3000;0.0724;-0.9729;
915.6000;0.0733;-0.9751;
915.9000;0.0716;-0.9751;
916.2000;0.0733;-0.9774;
916.5000;0.0716;-0.9774;
916.8000;0.0798;-0.9593;
917.1000;0.0773;-0.9706;
917.4000;0.0790;-0.9593;
917.7000;0.0716;-0.9774;
918.0000;0.0781;-0.9638;
918.3000;0.0741;-0.9684;
918.6000;0.0724;-0.9819;
918.9000;0.0733;-0.9706;
919.2000;0.0741;-0.9706;
919.5000;0.0749;-0.9684;
919.8000;0.0781;-0.9593;
920.1000;0.0749;-0.9593;
920.4000;0.0708;-0.9706;
920.7000;0.0724;-0.9684;
921.0000;0.0733;-0.9706;
921.3000;0.0708;-0.9842;
921.6000;0.0741;-0.9751;
921.9000;0.0667;-0.9932;
922.2000;0.0765;-0.9661;
922.5000;0.0733;-0.9661;
922.8000;0.0765;-0.9570;
923.1000;0.0814;-0.9480;
923.4000;0.0716;-0.9684;
923.7000;0.0741;-0.9570;
924.0000;0.0733;-0.9684;
924.3000;0.0741;-0.9706;
924.6000;0.0733;-0.9774;
924.9000;0.0814;-0.9570;
925.2000;0.0733;-0.9774;
925.5000;0.0814;-0.9684;
925.8000;0.0733;-0.9887;
926.1000;0.0757;-0.9865;
926.4000;0.0716;-0.9887;
926.7000;0.0708;-0.9910;
927.0000;0.0741;-1.0000;
927.3000;0.0733;-1.0068;
927.6000;0.0676;-1.0113;
927.9000;0.0749;-0.9955;
928.2000;0.0741;-0.9932;
928.5000;0.0757;-0.9865;
928.8000;0.0724;-1.0023;
929.1000;0.0733;-1.0000;
929.4000;0.0651;-1.0159;
929.7000;0.0781;-0.9774;
930.0000;0.0692;-1.0023;
930.3000;0.0733;-0.9910;
930.6000;0.0749;-0.9842;
930.9000;0.0733;-0.9887;
931.2000;0.0749;-0.9865;
931.5000;0.0716;-0.9978;
931.8000;0.0724;-0.9910;
932.1000;0.0716;-1.0000;
932.4000;0.0765;-0.9955;
932.7000;0.0749;-0.9955;
933.0000;0.0814;-0.9751;
933.3000;0.0741;-0.9910;
933.6000;0.0741;-0.9887;
933.9000;0.0765;-0.9774;
934.2000;0.0651;-1.0068;
934.5000;0.0749;-0.9842;
934.8000;0.0830;-0.9593;
935.1000;0.0741;-0.9887;
935.4000;0.0733;-0.9955;
935.7000;0.0781;-0.9910;
936.0000;0.0749;-1.0068;
936.3000;0.0741;-0.9978;
936.6000;0.0749;-0.9910;
936.9000;0.0708;-1.0023;
937.2000;0.0716;-0.9978;
937.5000;0.0724;-1.0023;
937.8000;0.0749;-1.0023;
938.1000;0.0741;-1.0046;
938.4000;0.0757;-0.9978;
938.7000;0.0749;-0.9910;
939.0000;0.0749;-0.9842;
939.3000;0.0716;-0.9865;
939.6000;0.0773;-0.9887;
939.9000;0.0749;-0.9910;
940.2000;0.0586;-1.0136;
940.5000;0.0708;-0.9751;
940.8000;0.0741;-0.9706;
941.1000;0.0749;-0.9774;
941.4000;0.0895;-0.9457;
941.7000;0.0757;-0.9797;
942.0000;0.0757;-0.9887;
942.3000;0.0733;-1.0000;
942.6000;0.0716;-1.0068;
942.9000;0.0757;-1.0046;
943.2000;0.0716;-1.0204;
943.5000;0.0741;-1.0000;
943.8000;0.0733;-0.9932;
944.1000;0.0749;-0.9865;
944.4000;0.0700;-0.9910;
944.7000;0.0724;-0.9819;
945.0000;0.0733;-0.9865;
945.3000;0.0733;-0.9865;
945.6000;0.0749;-0.9932;
945.9000;0.0757;-0.9932;
946.2000;0.0716;-1.0000;
946.5000;0.0733;-0.9978;
946.8000;0.0757;-1.0000;
947.1000;0.0724;-1.0091;
947.4000;0.0733;-1.0068;
947.7000;0.0790;-0.9887;
948.0000;0.0684;-1.0136;
948.3000;0.0741;-1.0000;
948.6000;0.0749;-0.9978;
948.9000;0.0724;-1.0000;
949.2000;0.0733;-1.0023;
949.5000;0.0708;-1.0091;
949.8000;0.0749;-1.0000;
950.1000;0.0814;-0.9842;
950.4000;0.0643;-1.0272;
950.7000;0.0700;-1.0023;
951.0000;0.0838;-0.9774;
951.3000;0.0749;-0.9932;
951.6000;0.0692;-1.0023;
951.9000;0.0716;-1.0046;
952.2000;0.0724;-1.0046;
952.5000;0.0741;-1.0000;
952.8000;0.0765;-0.9955;
953.1000;0.0765;-0.9910;
953.4000;0.0749;-0.9932;
953.7000;0.0741;-0.9887;
954.0000;0.0676;-1.0091;
954.3000;0.0716;-1.0000;
954.6000;0.0806;-0.9797;
954.9000;0.0741;-0.9887;
955.2000;0.0733;-1.0000;
955.5000;0.0716;-0.9955;
955.8000;0.0733;-1.0000;
956.1000;0.0684;-1.0113;
956.4000;0.0749;-0.9978;
956.7000;0.0724;-1.0113;
957.0000;0.0667;-1.0113;
957.3000;0.0733;-0.9932;
957.6000;0.0741;-0.9865;
957.9000;0.0765;-0.9797;
958.2000;0.0741;-0.9774;
958.5000;0.0765;-0.9706;
958.8000;0.0692;-0.9978;
959.1000;0.0749;-0.9774;
959.4000;0.0733;-0.9797;
959.7000;0.0757;-0.9729;
960.0000;0.0741;-0.9706;
960.3000;0.0733;-0.9706;
960.6000;0.0724;-0.9706;
960.9000;0.0651;-0.9978;
961.2000;0.0684;-0.9978;
961.5000;0.0724;-0.9910;
961.8000;0.0781;-0.9729;
962.1000;0.0724;-0.9932;
962.4000;0.0733;-0.9955;
962.7000;0.0765;-0.9842;
963.0000;0.0716;-0.9955;
963.3000;0.0749;-0.9842;
963.6000;0.0749;-0.9910;
963.9000;0.0716;-0.9955;
964.2000;0.0676;-1.0136;
964.5000;0.0733;-0.9955;
964.8000;0.0741;-0.9955;
965.1000;0.0733;-0.9955;
965.4000;0.0749;-1.0023;
965.7000;0.0741;-1.0046;
966.0000;0.0733;-1.0068;
966.3000;0.0733;-1.0000;
966.6000;0.0741;-0.9978;
966.9000;0.0716;-1.0000;
967.2000;0.0716;-1.0023;
967.5000;0.0716;-1.0091;
967.8000;0.0765;-0.9978;
968.1000;0.0757;-0.9955;
968.4000;0.0749;-1.0000;
968.7000;0.0716;-1.0000;
969.0000;0.0741;-1.0023;
969.3000;0.0749;-0.9955;
969.6000;0.0741;-1.0000;
969.9000;0.0749;-1.0023;
970.2000;0.0749;-1.0068;
970.5000;0.0708;-1.0113;
970.8000;0.0724;-1.0136;
971.1000;0.0733;-1.0159;
971.4000;0.0716;-1.0227;
971.7000;0.0765;-1.0113;
972.0000;0.0716;-1.0294;
972.3000;0.0716;-1.0294;
972.6000;0.0749;-1.0159;
972.9000;0.0749;-1.0181;
973.2000;0.0749;-1.0204;
973.5000;0.0741;-1.0227;
973.8000;0.0741;-1.0272;
974.1000;0.0741;-1.0249;
974.4000;0.0749;-1.0227;
974.7000;0.0765;-1.0204;
975.0000;0.0798;-1.0204;
975.3000;0.0757;-1.0204;
975.6000;0.0749;-1.0181;
975.9000;0.0749;-1.0113;
976.2000;0.0724;-1.0136;
976.5000;0.0659;-1.0294;
976.8000;0.0733;-1.0091;
977.1000;0.0757;-0.9978;
977.4000;0.0716;-1.0091;
977.7000;0.0578;-1.0453;
978.0000;0.0708;-1.0113;
978.3000;0.0749;-0.9955;
978.6000;0.0667;-1.0204;
978.9000;0.0733;-1.0113;
979.2000;0.0757;-0.9978;
979.5000;0.0855;-0.9729;
979.8000;0.0684;-1.0159;
980.1000;0.0733;-1.0068;
980.4000;0.0749;-1.0068;
980.7000;0.0708;-1.0204;
981.0000;0.0651;-1.0408;
981.3000;0.0733;-1.0159;
981.6000;0.0724;-1.0181;
981.9000;0.0716;-1.0227;
982.2000;0.0741;-1.0113;
982.5000;0.0781;-1.0046;
982.8000;0.0757;-1.0046;
983.1000;0.0757;-1.0023;
983.4000;0.0749;-1.0046;
983.7000;0.0765;-1.0023;
984.0000;0.0724;-1.0046;
984.3000;0.0741;-1.0068;
984.6000;0.0749;-1.0046;
984.9000;0.0733;-1.0204;
985.2000;0.0716;-1.0204;
985.5000;0.0741;-1.0091;
985.8000;0.0741;-1.0068;
986.1000;0.0733;-1.0091;
986.4000;0.0757;-1.0091;
986.7000;0.0781;-1.0091;
987.0000;0.0749;-1.0227;
987.3000;0.0724;-1.0294;
987.6000;0.0741;-1.0181;
987.9000;0.0749;-1.0159;
988.2000;0.0765;-1.0068;
988.5000;0.0733;-1.0159;
988.8000;0.0757;-1.0091;
989.1000;0.0716;-1.0159;
989.4000;0.0757;-1.0159;
989.7000;0.0733;-1.0181;
990.0000;0.0749;-1.0181;
990.3000;0.0733;-1.0249;
990.6000;0.0724;-1.0294;
990.9000;0.0741;-1.0091;
991.2000;0.0749;-1.0000;
991.5000;0.0912;-0.9638;
991.8000;0.0659;-1.0249;
992.1000;0.0757;-1.0159;
992.4000;0.0733;-1.0249;
992.7000;0.0676;-1.0475;
993.0000;0.0773;-1.0249;
993.3000;0.0749;-1.0294;
993.6000;0.0733;-1.0227;
993.9000;0.0635;-1.0430;
994.2000;0.0765;-1.0091;
994.5000;0.0798;-1.0046;
994.8000;0.0733;-1.0204;
995.1000;0.0741;-1.0136;
995.4000;0.0716;-1.0181;
995.7000;0.0733;-1.0294;
996.0000;0.0724;-1.0362;
996.3000;0.0724;-1.0249;
996.6000;0.0733;-1.0249;
996.9000;0.0749;-1.0113;
997.2000;0.0716;-1.0113;
997.5000;0.0651;-1.0272;
997.8000;0.0716;-1.0113;
998.1000;0.0733;-1.0136;
998.4000;0.0790;-1.0023;
998.7000;0.0749;-1.0113;
999.0000;0.0863;-0.9797;
999.3000;0.0855;-0.9819;
999.6000;0.0765;-1.0000;
999.9000;0.0724;-1.0091;
1000.2000;0.0724;-1.0136;
1000.5000;0.0790;-0.9955;
1000.8000;0.0741;-1.0136;
1001.1000;0.0765;-1.0113;
1001.4000;0.0684;-1.0272;
1001.7000;0.0741;-1.0136;
1002.0000;0.0765;-1.0000;
1002.3000;0.0773;-0.9910;
1002.6000;0.0822;-0.9797;
1002.9000;0.0733;-0.9955;
1003.2000;0.0741;-0.9978;
1003.5000;0.0724;-1.0091;
1003.8000;0.0757;-1.0023;
1004.1000;0.0724;-1.0136;
1004.4000;0.0749;-1.0023;
1004.7000;0.0741;-0.9978;
1005.0000;0.0724;-0.9978;
1005.3000;0.0749;-0.9865;
1005.6000;0.0700;-1.0000;
1005.9000;0.0790;-0.9887;
1006.2000;0.0749;-1.0046;
1006.5000;0.0724;-1.0159;
1006.8000;0.0733;-1.0091;
1007.1000;0.0733;-1.0046;
1007.4000;0.0741;-1.0023;
1007.7000;0.0749;-1.0023;
1008.0000;0.0749;-1.0000;
1008.3000;0.0733;-1.0046;
1008.6000;0.0749;-1.0068;
1008.9000;0.0676;-1.0249;
1009.2000;0.0724;-1.0068;
1009.5000;0.0708;-1.0046;
1009.8000;0.0757;-0.9887;
1010.1000;0.0724;-0.9978;
1010.4000;0.0741;-0.9978;
1010.7000;0.0716;-0.9978;
1011.0000;0.0716;-1.0000;
1011.3000;0.0724;-1.0068;
1011.6000;0.0676;-1.0159;
1011.9000;0.0733;-1.0000;
1012.2000;0.0733;-1.0023;
1012.5000;0.0724;-0.9978;
1012.8000;0.0716;-1.0046;
1013.1000;0.0724;-1.0091;
1013.4000;0.0724;-1.0068;
1013.7000;0.0692;-1.0113;
1014.0000;0.0733;-1.0091;
1014.3000;0.0724;-1.0113;
1014.6000;0.0724;-1.0136;
1014.9000;0.0733;-1.0159;
1015.2000;0.0741;-1.0136;
1015.5000;0.0700;-1.0136;
1015.8000;0.0684;-1.0091;
1016.1000;0.0627;-1.0204;
1016.4000;0.0757;-0.9865;
1016.7000;0.0724;-0.9932;
1017.0000;0.0733;-0.9955;
1017.3000;0.0733;-1.0023;
1017.6000;0.0790;-0.9797;
1017.9000;0.0741;-0.9887;
1018.2000;0.0741;-0.9932;
1018.5000;0.0733;-0.9955;
1018.8000;0.0708;-1.0046;
1019.1000;0.0741;-0.9955;
1019.4000;0.0757;-0.9955;
1019.7000;0.0741;-0.9978;
1020.0000;0.0733;-1.0046;
1020.3000;0.0773;-0.9887;
1020.6000;0.0733;-1.0091;
1020.9000;0.0741;-1.0000;
1021.2000;0.0741;-1.0068;
1021.5000;0.0684;-1.0159;
1021.8000;0.0724;-1.0113;
1022.1000;0.0757;-1.0000;
1022.4000;0.0733;-1.0000;
1022.7000;0.0733;-1.0068;
1023.0000;0.0765;-0.9978;
1023.3000;0.0724;-1.0046;
1023.6000;0.0749;-0.9910;
1023.9000;0.0741;-0.9887;
1024.2000;0.0733;-0.9887;
1024.5000;0.0790;-0.9729;
1024.8000;0.0659;-1.0068;
1025.1000;0.0749;-0.9978;
1025.4000;0.0733;-1.0068;
1025.7000;0.0733;-1.0023;
1026.0000;0.0806;-0.9819;
1026.3000;0.0757;-0.9955;
1026.6000;0.0790;-0.9797;
1026.9000;0.0692;-1.0091;
1027.2000;0.0733;-1.0046;
1027.5000;0.0700;-1.0091;
1027.8000;0.0765;-0.9910;
1028.1000;0.0733;-0.9887;
1028.4000;0.0749;-0.9932;
1028.7000;0.0716;-1.0091;
1029.0000;0.0733;-0.9932;
1029.3000;0.0749;-0.9819;
1029.6000;0.0757;-0.9819;
1029.9000;0.0692;-0.9978;
1030.2000;0.0749;-0.9842;
1030.5000;0.0724;-0.9932;
1030.8000;0.0733;-0.9819;
1031.1000;0.0830;-0.9570;
1031.4000;0.0741;-0.9955;
1031.7000;0.0741;-0.9978;
1032.0000;0.0822;-0.9729;
1032.3000;0.0724;-0.9955;
1032.6000;0.0724;-0.9978;
1032.9000;0.0749;-0.9887;
1033.2000;0.0757;-0.9751;
1033.5000;0.0716;-0.9932;
1033.8000;0.0724;-0.9978;
1034.1000;0.0741;-0.9978;
1034.4000;0.0749;-0.9910;
1034.7000;0.0659;-1.0113;
1035.0000;0.0724;-1.0023;
1035.3000;0.0790;-0.9774;
1035.6000;0.0749;-0.9797;
1035.9000;0.0741;-0.9819;
1036.2000;0.0733;-0.9842;
1036.5000;0.0724;-0.9910;
1036.8000;0.0716;-0.9955;
1037.1000;0.0708;-0.9978;
1037.4000;0.0733;-0.9887;
1037.7000;0.0765;-0.9819;
1038.0000;0.0757;-0.9887;
1038.3000;0.0765;-0.9865;
1038.6000;0.0733;-0.9887;
1038.9000;0.0741;-0.9955;
1039.2000;0.0733;-0.9978;
1039.5000;0.0879;-0.9593;
1039.8000;0.0741;-1.0046;
1040.1000;0.0757;-1.0091;
1040.4000;0.0741;-1.0113;
1040.7000;0.0757;-1.0091;
1041.0000;0.0741;-1.0136;
1041.3000;0.0757;-1.0046;
1041.6000;0.0814;-0.9865;
1041.9000;0.0757;-1.0091;
1042.2000;0.0733;-1.0000;
1042.5000;0.0814;-0.9751;
1042.8000;0.0741;-0.9910;
1043.1000;0.0741;-0.9955;
1043.4000;0.0700;-0.9978;
1043.7000;0.0724;-0.9932;
1044.0000;0.0741;-0.9887;
1044.3000;0.0749;-0.9932;
1044.6000;0.0733;-0.9978;
1044.9000;0.0724;-0.9955;
1045.2000;0.0733;-0.9842;
1045.5000;0.0733;-0.9842;
1045.8000;0.0741;-0.9842;
1046.1000;0.0667;-0.9978;
1046.4000;0.0667;-1.0046;
1046.7000;0.0733;-0.9932;
1047.0000;0.0733;-0.9978;
1047.3000;0.0733;-1.0023;
1047.6000;0.0741;-0.9978;
1047.9000;0.0765;-0.9910;
1048.2000;0.0651;-1.0227;
1048.5000;0.0741;-1.0113;
1048.8000;0.0667;-1.0181;
1049.1000;0.0749;-0.9910;
1049.4000;0.0757;-1.0000;
1049.7000;0.0733;-1.0091;
1050.0000;0.0716;-1.0091;
1050.3000;0.0741;-0.9978;
1050.6000;0.0733;-0.9955;
1050.9000;0.0708;-1.0068;
1051.2000;0.0741;-1.0023;
1051.5000;0.0733;-1.0046;
1051.8000;0.0757;-1.0000;
1052.1000;0.0741;-1.0136;
1052.4000;0.0749;-1.0091;
1052.7000;0.0741;-1.0113;
1053.0000;0.0708;-1.0204;
1053.3000;0.0741;-1.0136;
1053.6000;0.0749;-1.0181;
1053.9000;0.0716;-1.0204;
1054.2000;0.0708;-1.0227;
1054.5000;0.0733;-1.0136;
1054.8000;0.0847;-0.9774;
1055.1000;0.0733;-1.0046;
1055.4000;0.0700;-1.0136;
1055.7000;0.0667;-1.0181;
1056.0000;0.0741;-1.0000;
1056.3000;0.0733;-1.0068;
1056.6000;0.0733;-1.0046;
1056.9000;0.0716;-1.0023;
1057.2000;0.0749;-1.0000;
1057.5000;0.0741;-0.9955;
1057.8000;0.0741;-1.0000;
1058.1000;0.0765;-0.9819;
1058.4000;0.0667;-1.0000;
1058.7000;0.0733;-0.9932;
1059.0000;0.0733;-0.9978;
1059.3000;0.0838;-0.9797;
1059.6000;0.0765;-1.0023;
1059.9000;0.0733;-1.0091;
1060.2000;0.0741;-1.0068;
1060.5000;0.0741;-1.0068;
1060.8000;0.0741;-1.0091;
1061.1000;0.0724;-1.0159;
1061.4000;0.0741;-1.0136;
1061.7000;0.0733;-1.0113;
1062.0000;0.0741;-1.0136;
1062.3000;0.0741;-1.0046;
1062.6000;0.0741;-1.0046;
1062.9000;0.0733;-1.0000;
1063.2000;0.0765;-0.9932;
1063.5000;0.0781;-0.9819;
1063.8000;0.0757;-0.9932;
1064.1000;0.0749;-0.9910;
1064.4000;0.0708;-1.0046;
1064.7000;0.0716;-1.0000;
1065.0000;0.0773;-0.9887;
1065.3000;0.0741;-0.9910;
1065.6000;0.0741;-0.9865;
1065.9000;0.0733;-0.9865;
1066.2000;0.0733;-1.0000;
1066.5000;0.0741;-1.0000;
1066.8000;0.0757;-0.9955;
1067.1000;0.0757;-0.9932;
1067.4000;0.0733;-0.9932;
1067.7000;0.0733;-0.9865;
1068.0000;0.0741;-0.9887;
1068.3000;0.0773;-0.9774;
1068.6000;0.0724;-0.9774;
1068.9000;0.0724;-0.9797;
1069.2000;0.0765;-0.9661;
1069.5000;0.0749;-0.9661;
1069.8000;0.0798;-0.9638;
1070.1000;0.0749;-0.9797;
1070.4000;0.0741;-0.9842;
1070.7000;0.0741;-0.9910;
1071.0000;0.0733;-0.9932;
1071.3000;0.0741;-1.0000;
1071.6000;0.0773;-0.9887;
1071.9000;0.0749;-0.9978;
1072.2000;0.0724;-0.9955;
1072.5000;0.0733;-0.9955;
1072.8000;0.0602;-1.0317;
1073.1000;0.0733;-1.0000;
1073.4000;0.0733;-0.9978;
1073.7000;0.0814;-0.9887;
1074.0000;0.0765;-1.0091;
1074.3000;0.0741;-1.0113;
1074.6000;0.0749;-1.0046;
1074.9000;0.0757;-1.0023;
1075.2000;0.0741;-1.0068;
1075.5000;0.0724;-1.0091;
1075.8000;0.0724;-1.0181;
1076.1000;0.0741;-1.0159;
1076.4000;0.0749;-1.0091;
1076.7000;0.0781;-0.9978;
1077.0000;0.0749;-1.0000;
1077.3000;0.0757;-0.9955;
1077.6000;0.0757;-1.0023;
1077.9000;0.0798;-0.9910;
1078.2000;0.0733;-1.0023;
1078.5000;0.0749;-1.0000;
1078.8000;0.0773;-0.9955;
1079.1000;0.0749;-0.9955;
1079.4000;0.0733;-1.0091;
1079.7000;0.0757;-1.0068;
1080.0000;0.0765;-1.0023;
1080.3000;0.0749;-1.0023;
1080.6000;0.0733;-1.0136;
1080.9000;0.0749;-1.0159;
1081.2000;0.0684;-1.0362;
1081.5000;0.0879;-0.9797;
1081.8000;0.0676;-1.0272;
1082.1000;0.0757;-1.0023;
1082.4000;0.0757;-0.9978;
1082.7000;0.0716;-0.9978;
1083.0000;0.0741;-0.9842;
1083.3000;0.0741;-0.9955;
1083.6000;0.0733;-0.9910;
1083.9000;0.0749;-0.9887;
1084.2000;0.0741;-0.9978;
1084.5000;0.0667;-1.0068;
1084.8000;0.0757;-0.9819;
1085.1000;0.0733;-0.9910;
1085.4000;0.0749;-0.9978;
1085.7000;0.0741;-1.0046;
1086.0000;0.0741;-1.0113;
1086.3000;0.0773;-1.0000;
1086.6000;0.0741;-1.0113;
1086.9000;0.0733;-1.0204;
1087.2000;0.0749;-1.0204;
1087.5000;0.0676;-1.0430;
1087.8000;0.0749;-1.0204;
1088.1000;0.0716;-1.0294;
1088.4000;0.0716;-1.0159;
1088.7000;0.0733;-1.0091;
1089.0000;0.0733;-1.0136;
1089.3000;0.0724;-1.0068;
1089.6000;0.0749;-0.9955;
1089.9000;0.0749;-0.9955;
1090.2000;0.0741;-0.9887;
1090.5000;0.0749;-0.9955;
1090.8000;0.0724;-1.0091;
1091.1000;0.0716;-1.0091;
1091.4000;0.0741;-1.0000;
1091.7000;0.0708;-1.0113;
1092.0000;0.0708;-1.0181;
1092.3000;0.0724;-1.0249;
1092.6000;0.0781;-1.0113;
1092.9000;0.0814;-1.0068;
1093.2000;0.0733;-1.0227;
1093.5000;0.0790;-1.0023;
1093.8000;0.0667;-1.0294;
1094.1000;0.0749;-1.0000;
1094.4000;0.0733;-1.0046;
1094.7000;0.0741;-1.0000;
1095.0000;0.0733;-1.0046;
1095.3000;0.0733;-0.9978;
1095.6000;0.0659;-1.0227;
1095.9000;0.0724;-1.0181;
1096.2000;0.0611;-1.0475;
1096.5000;0.0749;-1.0159;
1096.8000;0.0724;-1.0227;
1097.1000;0.0724;-1.0204;
1097.4000;0.0724;-1.0272;
1097.7000;0.0741;-1.0294;
1098.0000;0.0716;-1.0408;
1098.3000;0.0724;-1.0475;
1098.6000;0.0741;-1.0362;
1098.9000;0.0741;-1.0362;
1099.2000;0.0741;-1.0362;
1099.5000;0.0724;-1.0408;
1099.8000;0.0798;-1.0204;
1100.1000;0.0741;-1.0385;
1100.4000;0.0749;-1.0362;
1100.7000;0.0635;-1.0656;
1101.0000;0.0741;-1.0385;
1101.3000;0.0741;-1.0294;
1101.6000;0.0724;-1.0340;
1101.9000;0.0733;-1.0385;
1102.2000;0.0716;-1.0498;
1102.5000;0.0708;-1.0453;
1102.8000;0.0700;-1.0566;
1103.1000;0.0733;-1.0453;
1103.4000;0.0733;-1.0385;
1103.7000;0.0733;-1.0385;
1104.0000;0.0749;-1.0317;
1104.3000;0.0716;-1.0317;
1104.6000;0.0724;-1.0362;
1104.9000;0.0847;-1.0046;
1105.2000;0.0741;-1.0294;
1105.5000;0.0773;-1.0204;
1105.8000;0.0724;-1.0272;
1106.1000;0.0724;-1.0249;
1106.4000;0.0757;-1.0136;
1106.7000;0.0733;-1.0227;
1107.0000;0.0822;-0.9978;
1107.3000;0.0724;-1.0159;
1107.6000;0.0741;-1.0113;
1107.9000;0.0733;-1.0068;
1108.2000;0.0733;-1.0091;
1108.5000;0.0749;-1.0068;
1108.8000;0.0749;-1.0046;
1109.1000;0.0781;-1.0000;
1109.4000;0.0676;-1.0204;
1109.7000;0.0733;-1.0000;
1110.0000;0.0765;-0.9955;
1110.3000;0.0733;-1.0046;
1110.6000;0.0781;-0.9955;
1110.9000;0.0806;-0.9887;
1111.2000;0.0733;-1.0181;
1111.5000;0.0741;-1.0159;
1111.8000;0.0749;-1.0249;
1112.1000;0.0741;-1.0317;
1112.4000;0.0741;-1.0362;
1112.7000;0.0749;-1.0385;
1113.0000;0.0733;-1.0430;
1113.3000;0.0716;-1.0521;
1113.6000;0.0724;-1.0408;
1113.9000;0.0733;-1.0294;
1114.2000;0.0733;-1.0317;
1114.5000;0.0667;-1.0498;
1114.8000;0.0765;-1.0249;
1115.1000;0.0733;-1.0249;
1115.4000;0.0781;-1.0091;
1115.7000;0.0716;-1.0227;
1116.0000;0.0790;-1.0068;
1116.3000;0.0741;-1.0227;
1116.6000;0.0806;-0.9955;
1116.9000;0.0724;-1.0091;
1117.2000;0.0716;-1.0068;
1117.5000;0.0716;-1.0023;
1117.8000;0.0708;-1.0068;
1118.1000;0.0733;-1.0068;
1118.4000;0.0692;-1.0023;
1118.7000;0.0716;-1.0000;
1119.0000;0.0724;-0.9955;
1119.3000;0.0749;-0.9910;
1119.6000;0.0676;-1.0204;
1119.9000;0.0724;-1.0091;
1120.2000;0.0757;-0.9978;
1120.5000;0.0602;-1.0294;
1120.8000;0.0741;-0.9978;
1121.1000;0.0733;-1.0046;
1121.4000;0.0716;-1.0023;
1121.7000;0.0741;-1.0091;
1122.0000;0.0708;-1.0181;
1122.3000;0.0684;-1.0294;
1122.6000;0.0733;-1.0249;
1122.9000;0.0733;-1.0272;
1123.2000;0.0733;-1.0249;
1123.5000;0.0724;-1.0204;
1123.8000;0.0749;-1.0181;
1124.1000;0.0724;-1.0249;
1124.4000;0.0716;-1.0249;
1124.7000;0.0749;-1.0091;
1125.0000;0.0741;-1.0136;
1125.3000;0.0733;-1.0068;
1125.6000;0.0741;-1.0000;
1125.9000;0.0749;-0.9955;
1126.2000;0.0741;-0.9955;
1126.5000;0.0749;-0.9978;
1126.8000;0.0757;-0.9978;
1127.1000;0.0708;-1.0136;
1127.4000;0.0724;-1.0023;
1127.7000;0.0716;-1.0000;
1128.0000;0.0724;-0.9978;
1128.3000;0.0733;-1.0000;
1128.6000;0.0733;-0.9955;
1128.9000;0.0733;-0.9955;
1129.2000;0.0741;-0.9978;
1129.5000;0.0741;-0.9910;
1129.8000;0.0724;-0.9932;
1130.1000;0.0692;-1.0023;
1130.4000;0.0733;-0.9978;
1130.7000;0.0838;-0.9751;
1131.0000;0.0773;-1.0000;
1131.3000;0.0716;-1.0068;
1131.6000;0.0724;-1.0068;
1131.9000;0.0741;-1.0046;
1132.2000;0.0733;-1.0000;
1132.5000;0.0790;-0.9910;
1132.8000;0.0749;-1.0023;
1133.1000;0.0700;-1.0136;
1133.4000;0.0724;-1.0091;
1133.7000;0.0651;-1.0227;
1134.0000;0.0741;-1.0091;
1134.3000;0.0741;-1.0023;
1134.6000;0.0716;-1.0091;
1134.9000;0.0733;-1.0113;
1135.2000;0.0741;-1.0113;
1135.5000;0.0773;-1.0000;
1135.8000;0.0700;-1.0113;
1136.1000;0.0716;-1.0091;
1136.4000;0.0733;-1.0046;
1136.7000;0.0724;-1.0113;
1137.0000;0.0781;-0.9978;
1137.3000;0.0733;-1.0046;
1137.6000;0.0724;-1.0113;
1137.9000;0.0692;-1.0159;
1138.2000;0.0733;-1.0000;
1138.5000;0.0757;-0.9932;
1138.8000;0.0741;-0.9978;
1139.1000;0.0741;-0.9910;
1139.4000;0.0790;-0.9774;
1139.7000;0.0724;-0.9955;
1140.0000;0.0724;-0.9955;
1140.3000;0.0692;-1.0023;
1140.6000;0.0708;-0.9932;
1140.9000;0.0749;-0.9932;
1141.2000;0.0659;-1.0136;
1141.5000;0.0749;-0.9955;
1141.8000;0.0741;-0.9955;
1142.1000;0.0733;-1.0023;
1142.4000;0.0724;-1.0068;
1142.7000;0.0838;-0.9797;
1143.0000;0.0765;-0.9978;
1143.3000;0.0733;-1.0159;
1143.6000;0.0741;-1.0091;
1143.9000;0.0749;-1.0068;
1144.2000;0.0733;-1.0068;
1144.5000;0.0733;-1.0046;
1144.8000;0.0741;-1.0000;
1145.1000;0.0733;-1.0091;
1145.4000;0.0708;-1.0159;
1145.7000;0.0733;-1.0136;
1146.0000;0.0749;-1.0023;
1146.3000;0.0724;-1.0136;
1146.6000;0.0708;-1.0091;
1146.9000;0.0733;-1.0023;
1147.2000;0.0765;-1.0000;
1147.5000;0.0765;-1.0068;
1147.8000;0.0700;-1.0249;
1148.1000;0.0692;-1.0249;
1148.4000;0.0798;-0.9955;
1148.7000;0.0684;-1.0227;
1149.0000;0.0733;-1.0181;
1149.3000;0.0716;-1.0181;
1149.6000;0.0733;-1.0136;
1149.9000;0.0611;-1.0408;
1150.2000;0.0733;-1.0181;
1150.5000;0.0765;-1.0068;
1150.8000;0.0765;-1.0046;
1151.1000;0.0700;-1.0317;
1151.4000;0.0838;-1.0000;
1151.7000;0.0757;-1.0159;
1152.0000;0.0716;-1.0294;
1152.3000;0.0806;-1.0068;
1152.6000;0.0724;-1.0272;
1152.9000;0.0716;-1.0272;
1153.2000;0.0724;-1.0249;
1153.5000;0.0724;-1.0294;
1153.8000;0.0741;-1.0272;
1154.1000;0.0765;-1.0227;
1154.4000;0.0733;-1.0294;
1154.7000;0.0757;-1.0272;
1155.0000;0.0741;-1.0294;
1155.3000;0.0733;-1.0340;
1155.6000;0.0733;-1.0294;
1155.9000;0.0716;-1.0362;
1156.2000;0.0757;-1.0272;
1156.5000;0.0643;-1.0521;
1156.8000;0.0716;-1.0294;
1157.1000;0.0733;-1.0227;
1157.4000;0.0741;-1.0249;
1157.7000;0.0749;-1.0272;
1158.0000;0.0724;-1.0227;
1158.3000;0.0733;-1.0227;
1158.6000;0.0676;-1.0294;
1158.9000;0.0716;-1.0227;
1159.2000;0.0724;-1.0181;
1159.5000;0.0716;-1.0204;
1159.8000;0.0724;-1.0091;
1160.1000;0.0741;-1.0023;
1160.4000;0.0724;-1.0046;
1160.7000;0.0733;-1.0113;
1161.0000;0.0773;-0.9978;
1161.3000;0.0724;-1.0023;
1161.6000;0.0741;-1.0068;
1161.9000;0.0716;-1.0113;
1162.2000;0.0765;-1.0068;
1162.5000;0.0749;-1.0181;
1162.8000;0.0716;-1.0272;
1163.1000;0.0733;-1.0204;
1163.4000;0.0757;-1.0136;
1163.7000;0.0741;-1.0227;
1164.0000;0.0724;-1.0272;
1164.3000;0.0741;-1.0294;
1164.6000;0.0692;-1.0385;
1164.9000;0.0749;-1.0204;
1165.2000;0.0716;-1.0294;
1165.5000;0.0733;-1.0227;
1165.8000;0.0741;-1.0159;
1166.1000;0.0749;-1.0181;
1166.4000;0.0733;-1.0227;
1166.7000;0.0667;-1.0385;
1167.0000;0.0749;-1.0204;
1167.3000;0.0716;-1.0340;
1167.6000;0.0749;-1.0272;
1167.9000;0.0684;-1.0340;
1168.2000;0.0741;-1.0181;
1168.5000;0.0749;-1.0204;
1168.8000;0.0716;-1.0227;
1169.1000;0.0733;-1.0113;
1169.4000;0.0749;-1.0204;
1169.7000;0.0724;-1.0294;
1170.0000;0.0708;-1.0272;
1170.3000;0.0749;-1.0249;
1170.6000;0.0733;-1.0294;
1170.9000;0.0724;-1.0294;
1171.2000;0.0733;-1.0317;
1171.5000;0.0716;-1.0294;
1171.8000;0.0700;-1.0317;
1172.1000;0.0733;-1.0159;
1172.4000;0.0716;-1.0340;
1172.7000;0.0733;-1.0272;
1173.0000;0.0708;-1.0294;
1173.3000;0.0708;-1.0272;
1173.6000;0.0765;-1.0091;
1173.9000;0.0790;-1.0000;
1174.2000;0.0733;-1.0113;
1174.5000;0.0757;-1.0068;
1174.8000;0.0749;-1.0091;
1175.1000;0.0741;-1.0023;
1175.4000;0.0667;-1.0136;
1175.7000;0.0724;-1.0113;
1176.0000;0.0733;-1.0000;
1176.3000;0.0733;-0.9910;
1176.6000;0.0659;-1.0159;
1176.9000;0.0749;-1.0023;
1177.2000;0.0724;-1.0091;
1177.5000;0.0773;-0.9932;
1177.8000;0.0749;-1.0113;
1178.1000;0.0733;-1.0181;
1178.4000;0.0708;-1.0249;
1178.7000;0.0757;-1.0068;
1179.0000;0.0733;-1.0204;
1179.3000;0.0757;-1.0204;
1179.6000;0.0814;-1.0000;
1179.9000;0.0741;-1.0204;
1180.2000;0.0757;-1.0227;
1180.5000;0.0700;-1.0317;
1180.8000;0.0733;-1.0181;
1181.1000;0.0741;-1.0068;
1181.4000;0.0724;-1.0091;
1181.7000;0.0741;-1.0068;
1182.0000;0.0781;-1.0068;
1182.3000;0.0749;-1.0023;
1182.6000;0.0676;-1.0159;
1182.9000;0.0741;-0.9932;
1183.2000;0.0733;-0.9910;
1183.5000;0.0692;-1.0023;
1183.8000;0.0741;-0.9910;
1184.1000;0.0765;-0.9842;
1184.4000;0.0651;-1.0159;
1184.7000;0.0733;-0.9932;
1185.0000;0.0667;-1.0136;
1185.3000;0.0757;-0.9932;
1185.6000;0.0741;-1.0023;
1185.9000;0.0733;-1.0068;
1186.2000;0.0830;-0.9910;
1186.5000;0.0749;-0.9955;
1186.8000;0.0741;-1.0023;
1187.1000;0.0708;-1.0159;
1187.4000;0.0741;-1.0091;
1187.7000;0.0830;-0.9865;
1188.0000;0.0724;-1.0068;
1188.3000;0.0733;-1.0023;
1188.6000;0.0830;-0.9797;
1188.9000;0.0749;-1.0068;
1189.2000;0.0749;-1.0113;
1189.5000;0.0724;-1.0136;
1189.8000;0.0741;-1.0068;
1190.1000;0.0741;-1.0000;
1190.4000;0.0733;-0.9910;
1190.7000;0.0733;-0.9910;
1191.0000;0.0733;-0.9955;
1191.3000;0.0749;-0.9978;
1191.6000;0.0724;-1.0113;
1191.9000;0.0708;-1.0159;
1192.2000;0.0724;-1.0091;
1192.5000;0.0741;-1.0023;
1192.8000;0.0733;-1.0000;
1193.1000;0.0749;-0.9865;
1193.4000;0.0733;-0.9955;
1193.7000;0.0741;-0.9955;
1194.0000;0.0741;-0.9887;
1194.3000;0.0741;-1.0023;
1194.6000;0.0749;-1.0023;
1194.9000;0.0676;-1.0159;
1195.2000;0.0733;-0.9978;
1195.5000;0.0724;-0.9955;
1195.8000;0.0733;-0.9932;
1196.1000;0.0708;-0.9978;
1196.4000;0.0741;-0.9932;
1196.7000;0.0684;-1.0113;
1197.0000;0.0855;-0.9729;
1197.3000;0.0733;-1.0091;
1197.6000;0.0733;-1.0113;
1197.9000;0.0781;-1.0091;
1198.2000;0.0741;-1.0159;
1198.5000;0.0749;-1.0113;
1198.8000;0.0733;-1.0159;
1199.1000;0.0708;-1.0159;
1199.4000;0.0749;-1.0046;
1199.7000;0.0741;-0.9955;
1200.0000;0.0757;-0.9751;
1200.3000;0.0749;-0.9751;
1200.6000;0.0773;-0.9819;
1200.9000;0.0716;-1.0000;
1201.2000;0.0724;-0.9932;
1201.5000;0.0635;-1.0159;
1201.8000;0.0798;-0.9751;
1202.1000;0.0741;-0.9887;
1202.4000;0.0724;-0.9955;
1202.7000;0.0741;-0.9978;
1203.0000;0.0765;-1.0000;
1203.3000;0.0757;-1.0023;
1203.6000;0.0741;-1.0023;
1203.9000;0.0724;-1.0046;
1204.2000;0.0724;-0.9978;
1204.5000;0.0724;-0.9978;
1204.8000;0.0749;-0.9955;
1205.1000;0.0724;-1.0068;
1205.4000;0.0708;-1.0159;
1205.7000;0.0749;-1.0113;
1206.0000;0.0733;-1.0068;
1206.3000;0.0733;-1.0046;
1206.6000;0.0773;-0.9978;
1206.9000;0.0692;-1.0159;
1207.2000;0.0749;-1.0023;
1207.5000;0.0733;-1.0046;
1207.8000;0.0765;-0.9955;
1208.1000;0.0757;-0.9910;
1208.4000;0.0814;-0.9751;
1208.7000;0.0684;-1.0046;
1209.0000;0.0716;-1.0113;
1209.3000;0.0659;-1.0204;
1209.6000;0.0708;-1.0000;
1209.9000;0.0716;-1.0046;
1210.2000;0.0684;-1.0159;
1210.5000;0.0798;-0.9978;
1210.8000;0.0749;-1.0113;
1211.1000;0.0716;-1.0272;
1211.4000;0.0724;-1.0227;
1211.7000;0.0781;-0.9978;
1212.0000;0.0684;-1.0272;
1212.3000;0.0733;-1.0181;
1212.6000;0.0773;-1.0046;
1212.9000;0.0733;-1.0091;
1213.2000;0.0667;-1.0136;
1213.5000;0.0757;-1.0000;
1213.8000;0.0676;-1.0136;
1214.1000;0.0741;-1.0068;
1214.4000;0.0724;-1.0068;
1214.7000;0.0871;-0.9593;
1215.0000;0.0708;-1.0023;
1215.3000;0.0733;-0.9955;
1215.6000;0.0700;-1.0068;
1215.9000;0.0716;-1.0000;
1216.2000;0.0708;-0.9955;
1216.5000;0.0733;-1.0000;
1216.8000;0.0733;-1.0000;
1217.1000;0.0724;-1.0091;
1217.4000;0.0741;-1.0136;
1217.7000;0.0733;-1.0113;
1218.0000;0.0676;-1.0294;
1218.3000;0.0741;-1.0136;
1218.6000;0.0716;-1.0136;
1218.9000;0.0716;-1.0181;
1219.2000;0.0855;-0.9910;
1219.5000;0.0741;-1.0159;
1219.8000;0.0708;-1.0204;
1220.1000;0.0733;-1.0136;
1220.4000;0.0733;-1.0227;
1220.7000;0.0651;-1.0453;
1221.0000;0.0733;-1.0204;
1221.3000;0.0757;-1.0023;
1221.6000;0.0659;-1.0204;
1221.9000;0.0741;-1.0046;
1222.2000;0.0733;-1.0023;
1222.5000;0.0749;-1.0068;
1222.8000;0.0733;-1.0181;
1223.1000;0.0749;-1.0113;
1223.4000;0.0765;-1.0068;
1223.7000;0.0659;-1.0249;
1224.0000;0.0749;-1.0068;
1224.3000;0.0724;-1.0136;
1224.6000;0.0733;-1.0091;
1224.9000;0.0733;-1.0068;
1225.2000;0.0757;-0.9932;
1225.5000;0.0765;-1.0000;
1225.8000;0.0733;-0.9978;
1226.1000;0.0757;-1.0023;
1226.4000;0.0733;-1.0046;
1226.7000;0.0708;-1.0113;
1227.0000;0.0741;-1.0091;
1227.3000;0.0757;-1.0068;
1227.6000;0.0733;-1.0159;
1227.9000;0.0700;-1.0181;
1228.2000;0.0781;-0.9955;
1228.5000;0.0765;-0.9978;
1228.8000;0.0741;-0.9955;
1229.1000;0.0741;-0.9932;
1229.4000;0.0716;-0.9932;
1229.7000;0.0749;-0.9932;
1230.0000;0.0765;-0.9865;
1230.3000;0.0733;-0.9842;
1230.6000;0.0757;-0.9887;
1230.9000;0.0773;-0.9932;
1231.2000;0.0741;-1.0000;
1231.5000;0.0676;-1.0181;
1231.8000;0.0667;-1.0204;
1232.1000;0.0749;-1.0068;
1232.4000;0.0749;-1.0113;
1232.7000;0.0716;-1.0181;
1233.0000;0.0716;-1.0181;
1233.3000;0.0700;-1.0249;
1233.6000;0.0676;-1.0249;
1233.9000;0.0741;-1.0023;
1234.2000;0.0716;-1.0068;
1234.5000;0.0716;-1.0046;
1234.8000;0.0684;-1.0159;
1235.1000;0.0724;-1.0000;
1235.4000;0.0741;-1.0068;
1235.7000;0.0667;-1.0249;
1236.0000;0.0733;-1.0113;
1236.3000;0.0757;-1.0068;
1236.6000;0.0724;-1.0136;
1236.9000;0.0757;-1.0000;
1237.2000;0.0765;-0.9887;
1237.5000;0.0708;-0.9932;
1237.8000;0.0741;-0.9910;
1238.1000;0.0741;-0.9910;
1238.4000;0.0741;-0.9932;
1238.7000;0.0749;-0.9932;
1239.0000;0.0708;-1.0023;
1239.3000;0.0733;-0.9887;
1239.6000;0.0708;-1.0046;
1239.9000;0.0749;-0.9887;
1240.2000;0.0749;-0.9819;
1240.5000;0.0765;-0.9819;
1240.8000;0.0716;-1.0046;
1241.1000;0.0733;-0.9955;
1241.4000;0.0741;-0.9955;
1241.7000;0.0733;-0.9910;
1242.0000;0.0659;-0.9978;
1242.3000;0.0749;-0.9751;
1242.6000;0.0733;-0.9887;
1242.9000;0.0733;-0.9887;
1243.2000;0.0659;-1.0136;
1243.5000;0.0749;-0.9910;
1243.8000;0.0635;-1.0249;
1244.1000;0.0733;-1.0068;
1244.4000;0.0741;-1.0068;
1244.7000;0.0733;-1.0113;
1245.0000;0.0562;-1.0521;
1245.3000;0.0708;-1.0113;
1245.6000;0.0749;-0.9978;
1245.9000;0.0724;-1.0113;
1246.2000;0.0749;-0.9978;
1246.5000;0.0724;-0.9978;
1246.8000;0.0716;-1.0068;
1247.1000;0.0716;-1.0000;
1247.4000;0.0724;-0.9978;
1247.7000;0.0700;-1.0068;
1248.0000;0.0716;-1.0091;
1248.3000;0.0741;-0.9978;
1248.6000;0.0798;-0.9774;
1248.9000;0.0733;-0.9910;
1249.2000;0.0822;-0.9638;
1249.5000;0.0741;-0.9932;
1249.8000;0.0741;-0.9887;
1250.1000;0.0627;-1.0204;
1250.4000;0.0733;-0.9978;
1250.7000;0.0724;-1.0113;
1251.0000;0.0773;-0.9978;
1251.3000;0.0716;-1.0046;
1251.6000;0.0659;-1.0227;
1251.9000;0.0716;-1.0023;
1252.2000;0.0716;-1.0113;
1252.5000;0.0749;-1.0068;
1252.8000;0.0708;-1.0159;
1253.1000;0.0733;-1.0136;
1253.4000;0.0733;-1.0159;
1253.7000;0.0757;-1.0181;
1254.0000;0.0724;-1.0159;
1254.3000;0.0741;-1.0113;
1254.6000;0.0733;-1.0091;
1254.9000;0.0733;-1.0181;
1255.2000;0.0733;-1.0091;
1255.5000;0.0716;-1.0204;
1255.8000;0.0716;-1.0159;
1256.1000;0.0773;-0.9955;
1256.4000;0.0733;-1.0046;
1256.7000;0.0741;-1.0000;
1257.0000;0.0635;-1.0249;
1257.3000;0.0733;-0.9978;
1257.6000;0.0724;-1.0000;
1257.9000;0.0716;-1.0068;
1258.2000;0.0700;-1.0159;
1258.5000;0.0733;-1.0046;
1258.8000;0.0659;-1.0272;
1259.1000;0.0749;-1.0068;
1259.4000;0.0700;-1.0181;
1259.7000;0.0741;-1.0068;
1260.0000;0.0676;-1.0181;
1260.3000;0.0757;-1.0023;
1260.6000;0.0765;-1.0000;
1260.9000;0.0741;-1.0091;
1261.2000;0.0716;-1.0091;
1261.5000;0.0741;-1.0046;
1261.8000;0.0733;-1.0000;
1262.1000;0.0602;-1.0362;
1262.4000;0.0741;-1.0046;
1262.7000;0.0733;-1.0113;
1263.0000;0.0708;-1.0204;
1263.3000;0.0724;-1.0181;
1263.6000;0.0749;-1.0091;
1263.9000;0.0749;-1.0136;
1264.2000;0.0741;-1.0136;
1264.5000;0.0733;-1.0181;
1264.8000;0.0724;-1.0181;
1265.1000;0.0733;-1.0136;
1265.4000;0.0765;-1.0046;
1265.7000;0.0757;-1.0000;
1266.0000;0.0733;-1.0068;
1266.3000;0.0741;-1.0023;
1266.6000;0.0733;-1.0023;
1266.9000;0.0724;-1.0068;
1267.2000;0.0814;-0.9797;
1267.5000;0.0830;-0.9797;
1267.8000;0.0733;-1.0023;
1268.1000;0.0757;-1.0023;
1268.4000;0.0838;-0.9842;
1268.7000;0.0708;-1.0113;
1269.0000;0.0716;-1.0046;
1269.3000;0.0570;-1.0362;
1269.6000;0.0741;-0.9819;
1269.9000;0.0733;-0.9842;
1270.2000;0.0741;-0.9706;
1270.5000;0.0749;-0.9819;
1270.8000;0.0749;-0.9910;
1271.1000;0.0749;-0.9955;
1271.4000;0.0855;-0.9706;
1271.7000;0.0749;-0.9865;
1272.0000;0.0741;-0.9865;
1272.3000;0.0765;-0.9751;
1272.6000;0.0733;-0.9865;
1272.9000;0.0838;-0.9661;
1273.2000;0.0749;-0.9819;
1273.5000;0.0724;-0.9887;
1273.8000;0.0741;-0.9842;
1274.1000;0.0749;-0.9910;
1274.4000;0.0684;-1.0046;
1274.7000;0.0643;-1.0113;
1275.0000;0.0757;-0.9887;
1275.3000;0.0724;-0.9978;
1275.6000;0.0741;-0.9910;
1275.9000;0.0716;-0.9955;
1276.2000;0.0765;-0.9865;
1276.5000;0.0716;-0.9955;
1276.8000;0.0733;-0.9932;
1277.1000;0.0863;-0.9548;
1277.4000;0.0700;-0.9932;
1277.7000;0.0749;-0.9774;
1278.0000;0.0724;-0.9797;
1278.3000;0.0838;-0.9593;
1278.6000;0.0757;-0.9865;
1278.9000;0.0716;-0.9978;
1279.2000;0.0749;-0.9910;
1279.5000;0.0724;-0.9932;
1279.8000;0.0716;-0.9955;
1280.1000;0.0716;-1.0046;
1280.4000;0.0700;-1.0113;
1280.7000;0.0733;-1.0091;
1281.0000;0.0781;-1.0000;
1281.3000;0.0724;-1.0159;
1281.6000;0.0627;-1.0543;
1281.9000;0.0757;-1.0159;
1282.2000;0.0733;-1.0294;
1282.5000;0.0724;-1.0294;
1282.8000;0.0749;-1.0181;
1283.1000;0.0708;-1.0294;
1283.4000;0.0724;-1.0204;
1283.7000;0.0741;-1.0068;
1284.0000;0.0733;-1.0068;
1284.3000;0.0716;-1.0113;
1284.6000;0.0724;-1.0113;
1284.9000;0.0757;-0.9978;
1285.2000;0.0733;-1.0023;
1285.5000;0.0757;-0.9978;
1285.8000;0.0773;-0.9932;
1286.1000;0.0708;-1.0068;
1286.4000;0.0741;-1.0068;
1286.7000;0.0749;-1.0068;
1287.0000;0.0724;-1.0068;
1287.3000;0.0733;-1.0091;
1287.6000;0.0741;-1.0136;
1287.9000;0.0773;-1.0023;
1288.2000;0.0781;-1.0068;
1288.5000;0.0749;-1.0227;
1288.8000;0.0676;-1.0385;
1289.1000;0.0757;-1.0181;
1289.4000;0.0806;-1.0046;
1289.7000;0.0692;-1.0385;
1290.0000;0.0741;-1.0249;
1290.3000;0.0724;-1.0249;
1290.6000;0.0741;-1.0272;
1290.9000;0.0741;-1.0204;
1291.2000;0.0684;-1.0294;
1291.5000;0.0790;-0.9932;
1291.8000;0.0643;-1.0249;
1292.1000;0.0733;-1.0046;
1292.4000;0.0724;-1.0000;
1292.7000;0.0741;-0.9932;
1293.0000;0.0741;-1.0023;
1293.3000;0.0749;-1.0023;
1293.6000;0.0757;-0.9978;
1293.9000;0.0733;-1.0023;
1294.2000;0.0733;-1.0000;
1294.5000;0.0724;-1.0113;
1294.8000;0.0781;-1.0046;
1295.1000;0.0733;-1.0136;
1295.4000;0.0765;-1.0068;
1295.7000;0.0757;-1.0091;
1296.0000;0.0773;-1.0000;
1296.3000;0.0724;-1.0091;
1296.6000;0.0667;-1.0159;
1296.9000;0.0838;-0.9751;
1297.2000;0.0733;-1.0023;
1297.5000;0.0708;-1.0113;
1297.8000;0.0733;-1.0000;
1298.1000;0.0733;-1.0000;
1298.4000;0.0806;-0.9865;
1298.7000;0.0627;-1.0408;
1299.0000;0.0716;-1.0046;
1299.3000;0.0708;-1.0023;
1299.6000;0.0757;-0.9910;
1299.9000;0.0741;-0.9887;
1300.2000;0.0765;-0.9751;
1300.5000;0.0798;-0.9706;
1300.8000;0.0724;-0.9932;
1301.1000;0.0765;-0.9842;
1301.4000;0.0765;-0.9819;
1301.7000;0.0700;-1.0000;
1302.0000;0.0724;-1.0046;
1302.3000;0.0814;-0.9887;
1302.6000;0.0716;-1.0227;
1302.9000;0.0692;-1.0294;
1303.2000;0.0757;-1.0136;
1303.5000;0.0765;-1.0023;
1303.8000;0.0749;-1.0159;
1304.1000;0.0700;-1.0227;
1304.4000;0.0692;-1.0204;
1304.7000;0.0757;-1.0000;
1305.0000;0.0749;-1.0000;
1305.3000;0.0724;-1.0091;
1305.6000;0.0700;-1.0294;
1305.9000;0.0708;-1.0249;
1306.2000;0.0741;-1.0091;
1306.5000;0.0716;-1.0091;
1306.8000;0.0716;-1.0091;
1307.1000;0.0676;-1.0249;
1307.4000;0.0724;-1.0181;
1307.7000;0.0724;-1.0113;
1308.0000;0.0700;-1.0046;
1308.3000;0.0741;-0.9955;
1308.6000;0.0741;-0.9910;
1308.9000;0.0724;-1.0023;
1309.2000;0.0757;-0.9955;
1309.5000;0.0724;-1.0113;
1309.8000;0.0749;-1.0091;
1310.1000;0.0700;-1.0204;
1310.4000;0.0724;-1.0249;
1310.7000;0.0790;-1.0046;
1311.0000;0.0847;-0.9955;
1311.3000;0.0757;-1.0181;
1311.6000;0.0733;-1.0204;
1311.9000;0.0667;-1.0362;
1312.2000;0.0749;-1.0136;
1312.5000;0.0708;-1.0204;
1312.8000;0.0741;-1.0136;
1313.1000;0.0781;-1.0113;
1313.4000;0.0773;-1.0068;
1313.7000;0.0822;-0.9955;
1314.0000;0.0708;-1.0204;
1314.3000;0.0741;-1.0159;
1314.6000;0.0757;-1.0091;
1314.9000;0.0700;-1.0227;
1315.2000;0.0749;-1.0023;
1315.5000;0.0716;-1.0068;
1315.8000;0.0733;-1.0000;
1316.1000;0.0749;-0.9978;
1316.4000;0.0838;-0.9819;
1316.7000;0.0749;-1.0181;
1317.0000;0.0724;-1.0113;
1317.3000;0.0594;-1.0430;
1317.6000;0.0692;-1.0204;
1317.9000;0.0724;-1.0068;
1318.2000;0.0724;-1.0136;
1318.5000;0.0724;-1.0204;
1318.8000;0.0749;-1.0091;
1319.1000;0.0806;-0.9842;
1319.4000;0.0822;-0.9751;
1319.7000;0.0733;-0.9978;
1320.0000;0.0684;-1.0136;
1320.3000;0.0708;-1.0091;
1320.6000;0.0790;-0.9910;
1320.9000;0.0741;-1.0023;
1321.2000;0.0724;-1.0091;
1321.5000;0.0822;-0.9797;
1321.8000;0.0733;-0.9978;
1322.1000;0.0716;-0.9955;
1322.4000;0.0757;-0.9932;
1322.7000;0.0667;-1.0294;
1323.0000;0.0611;-1.0430;
1323.3000;0.0749;-1.0091;
1323.6000;0.0716;-1.0294;
1323.9000;0.0733;-1.0249;
1324.2000;0.0741;-1.0159;
1324.5000;0.0724;-1.0227;
1324.8000;0.0724;-1.0317;
1325.1000;0.0757;-1.0046;
1325.4000;0.0765;-1.0046;
1325.7000;0.0765;-1.0000;
1326.0000;0.0724;-1.0136;
1326.3000;0.0781;-1.0023;
1326.6000;0.0733;-1.0046;
1326.9000;0.0733;-1.0023;
1327.2000;0.0700;-1.0068;
1327.5000;0.0806;-0.9865;
1327.8000;0.0659;-1.0227;
1328.1000;0.0716;-1.0204;
1328.4000;0.0733;-1.0159;
1328.7000;0.0667;-1.0272;
1329.0000;0.0733;-1.0113;
1329.3000;0.0716;-1.0091;
1329.6000;0.0716;-1.0068;
1329.9000;0.0749;-0.9865;
1330.2000;0.0757;-0.9910;
1330.5000;0.0741;-0.9910;
1330.8000;0.0749;-1.0023;
1331.1000;0.0741;-1.0023;
1331.4000;0.0749;-0.9978;
1331.7000;0.0733;-0.9932;
1332.0000;0.0692;-1.0068;
1332.3000;0.0733;-1.0000;
1332.6000;0.0724;-1.0023;
1332.9000;0.0757;-0.9978;
1333.2000;0.0733;-0.9955;
1333.5000;0.0724;-0.9955;
1333.8000;0.0651;-1.0113;
1334.1000;0.0749;-0.9887;
1334.4000;0.0708;-1.0091;
1334.7000;0.0741;-1.0023;
1335.0000;0.0716;-1.0113;
1335.3000;0.0798;-0.9910;
1335.6000;0.0716;-1.0113;
1335.9000;0.0716;-1.0023;
1336.2000;0.0757;-0.9865;
1336.5000;0.0781;-0.9842;
1336.8000;0.0716;-1.0023;
1337.1000;0.0733;-1.0000;
1337.4000;0.0733;-1.0000;
1337.7000;0.0757;-0.9910;
1338.0000;0.0757;-0.9932;
1338.3000;0.0733;-0.9910;
1338.6000;0.0700;-0.9978;
1338.9000;0.0733;-0.9842;
1339.2000;0.0781;-0.9819;
1339.5000;0.0871;-0.9638;
1339.8000;0.0716;-1.0068;
1340.1000;0.0741;-1.0023;
1340.4000;0.0676;-1.0249;
1340.7000;0.0724;-1.0000;
1341.0000;0.0749;-0.9932;
1341.3000;0.0692;-1.0091;
1341.6000;0.0724;-1.0091;
1341.9000;0.0667;-1.0272;
1342.2000;0.0708;-1.0181;
1342.5000;0.0741;-0.9978;
1342.8000;0.0741;-1.0046;
1343.1000;0.0765;-0.9955;
1343.4000;0.0724;-1.0000;
1343.7000;0.0749;-1.0023;
1344.0000;0.0781;-1.0000;
1344.3000;0.0749;-1.0113;
1344.6000;0.0741;-1.0068;
1344.9000;0.0724;-1.0113;
1345.2000;0.0578;-1.0498;
1345.5000;0.0741;-1.0181;
1345.8000;0.0741;-1.0227;
1346.1000;0.0724;-1.0294;
1346.4000;0.0733;-1.0294;
1346.7000;0.0659;-1.0475;
1347.0000;0.0765;-1.0249;
1347.3000;0.0716;-1.0317;
1347.6000;0.0749;-1.0272;
1347.9000;0.0733;-1.0317;
1348.2000;0.0724;-1.0362;
1348.5000;0.0716;-1.0362;
1348.8000;0.0692;-1.0385;
1349.1000;0.0741;-1.0294;
1349.4000;0.0757;-1.0294;
1349.7000;0.0733;-1.0272;
1350.0000;0.0733;-1.0249;
1350.3000;0.0733;-1.0249;
1350.6000;0.0716;-1.0362;
1350.9000;0.0724;-1.0317;
1351.2000;0.0741;-1.0159;
1351.5000;0.0757;-1.0000;
1351.8000;0.0667;-1.0249;
1352.1000;0.0708;-1.0136;
1352.4000;0.0733;-1.0136;
1352.7000;0.0733;-1.0159;
1353.0000;0.0765;-1.0136;
1353.3000;0.0741;-1.0204;
1353.6000;0.0724;-1.0227;
1353.9000;0.0733;-1.0136;
1354.2000;0.0741;-1.0136;
1354.5000;0.0749;-1.0113;
1354.8000;0.0659;-1.0385;
1355.1000;0.0733;-1.0272;
1355.4000;0.0716;-1.0317;
1355.7000;0.0741;-1.0294;
1356.0000;0.0733;-1.0317;
1356.3000;0.0749;-1.0204;
1356.6000;0.0733;-1.0181;
1356.9000;0.0724;-1.0159;
1357.2000;0.0733;-1.0136;
1357.5000;0.0749;-1.0091;
1357.8000;0.0708;-1.0272;
1358.1000;0.0749;-1.0136;
1358.4000;0.0749;-1.0000;
1358.7000;0.0586;-1.0317;
1359.0000;0.0724;-0.9978;
1359.3000;0.0659;-1.0181;
1359.6000;0.0733;-1.0023;
1359.9000;0.0733;-1.0113;
1360.2000;0.0643;-1.0272;
1360.5000;0.0757;-1.0046;
1360.8000;0.0741;-1.0091;
1361.1000;0.0724;-1.0113;
1361.4000;0.0757;-1.0068;
1361.7000;0.0716;-1.0136;
1362.0000;0.0757;-1.0046;
1362.3000;0.0716;-1.0136;
1362.6000;0.0757;-1.0000;
1362.9000;0.0741;-1.0068;
1363.2000;0.0716;-1.0091;
1363.5000;0.0724;-1.0159;
1363.8000;0.0733;-1.0023;
1364.1000;0.0757;-1.0000;
1364.4000;0.0757;-0.9932;
1364.7000;0.0733;-0.9955;
1365.0000;0.0757;-1.0000;
1365.3000;0.0741;-1.0046;
1365.6000;0.0716;-1.0068;
1365.9000;0.0700;-1.0113;
1366.2000;0.0733;-1.0046;
1366.5000;0.0741;-0.9978;
1366.8000;0.0741;-1.0000;
1367.1000;0.0724;-0.9978;
1367.4000;0.0708;-0.9978;
1367.7000;0.0667;-1.0046;
1368.0000;0.0733;-1.0000;
1368.3000;0.0724;-0.9978;
1368.6000;0.0741;-1.0000;
1368.9000;0.0716;-1.0046;
1369.2000;0.0716;-0.9978;
1369.5000;0.0708;-1.0023;
1369.8000;0.0733;-0.9910;
1370.1000;0.0676;-1.0113;
1370.4000;0.0733;-0.9978;
1370.7000;0.0716;-0.9955;
1371.0000;0.0741;-0.9932;
1371.3000;0.0708;-1.0046;
1371.6000;0.0741;-1.0000;
1371.9000;0.0773;-0.9955;
1372.2000;0.0716;-1.0113;
1372.5000;0.0733;-1.0046;
1372.8000;0.0773;-1.0000;
1373.1000;0.0733;-1.0091;
1373.4000;0.0741;-1.0113;
1373.7000;0.0733;-1.0113;
1374.0000;0.0798;-0.9887;
1374.3000;0.0757;-0.9978;
1374.6000;0.0765;-0.9978;
1374.9000;0.0733;-1.0000;
1375.2000;0.0741;-0.9887;
1375.5000;0.0716;-0.9887;
1375.8000;0.0667;-1.0113;
1376.1000;0.0757;-0.9932;
1376.4000;0.0733;-1.0046;
1376.7000;0.0798;-0.9955;
1377.0000;0.0716;-1.0091;
1377.3000;0.0724;-1.0113;
1377.6000;0.0757;-1.0023;
1377.9000;0.0724;-1.0113;
1378.2000;0.0757;-1.0046;
1378.5000;0.0716;-1.0136;
1378.8000;0.0749;-1.0091;
1379.1000;0.0749;-1.0000;
1379.4000;0.0708;-1.0113;
1379.7000;0.0724;-1.0113;
1380.0000;0.0741;-1.0091;
1380.3000;0.0716;-1.0159;
1380.6000;0.0749;-1.0181;
1380.9000;0.0765;-1.0113;
1381.2000;0.0724;-1.0113;
1381.5000;0.0724;-1.0113;
1381.8000;0.0757;-1.0023;
1382.1000;0.0749;-1.0000;
1382.4000;0.0724;-1.0023;
1382.7000;0.0724;-1.0000;
1383.0000;0.0643;-1.0204;
1383.3000;0.0741;-1.0023;
1383.6000;0.0724;-1.0046;
1383.9000;0.0724;-1.0113;
1384.2000;0.0692;-1.0159;
1384.5000;0.0741;-0.9978;
1384.8000;0.0765;-1.0023;
1385.1000;0.0684;-1.0294;
1385.4000;0.0684;-1.0385;
1385.7000;0.0733;-1.0227;
1386.0000;0.0716;-1.0181;
1386.3000;0.0684;-1.0430;
1386.6000;0.0724;-1.0340;
1386.9000;0.0733;-1.0159;
1387.2000;0.0757;-1.0091;
1387.5000;0.0733;-1.0136;
1387.8000;0.0716;-1.0113;
1388.1000;0.0667;-1.0227;
1388.4000;0.0692;-1.0136;
1388.7000;0.0741;-0.9932;
1389.0000;0.0741;-0.9865;
1389.3000;0.0741;-0.9910;
1389.6000;0.0798;-0.9774;
1389.9000;0.0741;-0.9978;
1390.2000;0.0741;-1.0091;
1390.5000;0.0724;-1.0091;
1390.8000;0.0700;-1.0227;
1391.1000;0.0781;-1.0023;
1391.4000;0.0773;-1.0091;
1391.7000;0.0724;-1.0272;
1392.0000;0.0716;-1.0272;
1392.3000;0.0724;-1.0294;
1392.6000;0.0863;-0.9887;
1392.9000;0.0733;-1.0362;
1393.2000;0.0659;-1.0498;
1393.5000;0.0773;-1.0317;
1393.8000;0.0724;-1.0453;
1394.1000;0.0733;-1.0340;
1394.4000;0.0708;-1.0294;
1394.7000;0.0676;-1.0430;
1395.0000;0.0830;-1.0023;
1395.3000;0.0733;-1.0227;
1395.6000;0.0741;-1.0227;
1395.9000;0.0741;-1.0204;
1396.2000;0.0716;-1.0091;
1396.5000;0.0757;-1.0113;
1396.8000;0.0733;-1.0227;
1397.1000;0.0733;-1.0159;
1397.4000;0.0741;-1.0159;
1397.7000;0.0724;-1.0227;
1398.0000;0.0733;-1.0227;
1398.3000;0.0733;-1.0227;
1398.6000;0.0708;-1.0227;
1398.9000;0.0773;-0.9978;
1399.2000;0.0667;-1.0227;
1399.5000;0.0741;-1.0023;
1399.8000;0.0733;-1.0068;
