time/ms;Fluo/V;P700 deltaI/I x10³;
-199.8000;0.0692;-1.0724;
-199.5000;0.0806;-1.0475;
-199.2000;0.0814;-1.0453;
-198.9000;0.0798;-1.0498;
-198.6000;0.0773;-1.0634;
-198.3000;0.0806;-1.0634;
-198.0000;0.0806;-1.0679;
-197.7000;0.0765;-1.0815;
-197.4000;0.0798;-1.0679;
-197.1000;0.0798;-1.0611;
-196.8000;0.0830;-1.0543;
-196.5000;0.0741;-1.0702;
-196.2000;0.0806;-1.0498;
-195.9000;0.0838;-1.0498;
-195.6000;0.0814;-1.0679;
-195.3000;0.0814;-1.0656;
-195.0000;0.0790;-1.0770;
-194.7000;0.0798;-1.0679;
-194.4000;0.0814;-1.0566;
-194.1000;0.0790;-1.0634;
-193.8000;0.0659;-1.0951;
-193.5000;0.0765;-1.0770;
-193.2000;0.0806;-1.0611;
-192.9000;0.0741;-1.0905;
-192.6000;0.0806;-1.0679;
-192.3000;0.0806;-1.0724;
-192.0000;0.0806;-1.0679;
-191.7000;0.0814;-1.0679;
-191.4000;0.0773;-1.0815;
-191.1000;0.0798;-1.0702;
-190.8000;0.0822;-1.0702;
-190.5000;0.0806;-1.0770;
-190.2000;0.0790;-1.0815;
-189.9000;0.0830;-1.0679;
-189.6000;0.0724;-1.0973;
-189.3000;0.0790;-1.0860;
-189.0000;0.0806;-1.0770;
-188.7000;0.0806;-1.0792;
-188.4000;0.0806;-1.0837;
-188.1000;0.0822;-1.0815;
-187.8000;0.0798;-1.0905;
-187.5000;0.0806;-1.0837;
-187.2000;0.0806;-1.0770;
-186.9000;0.0928;-1.0475;
-186.6000;0.0806;-1.0634;
-186.3000;0.0798;-1.0521;
-186.0000;0.0814;-1.0589;
-185.7000;0.0814;-1.0589;
-185.4000;0.0781;-1.0679;
-185.1000;0.0806;-1.0702;
-184.8000;0.0790;-1.0770;
-184.5000;0.0814;-1.0770;
-184.2000;0.0790;-1.0837;
-183.9000;0.0798;-1.0815;
-183.6000;0.0814;-1.0815;
-183.3000;0.0806;-1.0792;
-183.0000;0.0814;-1.0883;
-182.7000;0.0814;-1.0792;
-182.4000;0.0806;-1.0815;
-182.1000;0.0798;-1.0792;
-181.8000;0.0741;-1.1018;
-181.5000;0.0749;-1.1018;
-181.2000;0.0830;-1.0905;
-180.9000;0.0781;-1.0973;
-180.6000;0.0781;-1.0996;
-180.3000;0.0790;-1.0973;
-180.0000;0.0806;-1.0951;
-179.7000;0.0790;-1.0996;
-179.4000;0.0830;-1.0883;
-179.1000;0.0830;-1.0883;
-178.8000;0.0822;-1.0837;
-178.5000;0.0838;-1.0837;
-178.2000;0.0781;-1.0905;
-177.9000;0.0838;-1.0679;
-177.6000;0.0822;-1.0702;
-177.3000;0.0830;-1.0724;
-177.0000;0.0814;-1.0770;
-176.7000;0.0798;-1.0951;
-176.4000;0.0830;-1.0883;
-176.1000;0.0790;-1.0996;
-175.8000;0.0822;-1.0837;
-175.5000;0.0790;-1.0837;
-175.2000;0.0814;-1.0837;
-174.9000;0.0871;-1.0724;
-174.6000;0.0814;-1.0770;
-174.3000;0.0863;-1.0634;
-174.0000;0.0814;-1.0815;
-173.7000;0.0822;-1.0815;
-173.4000;0.0847;-1.0747;
-173.1000;0.0814;-1.0860;
-172.8000;0.0822;-1.0747;
-172.5000;0.0814;-1.0815;
-172.2000;0.0798;-1.0928;
-171.9000;0.0814;-1.0815;
-171.6000;0.0822;-1.0837;
-171.3000;0.0798;-1.0883;
-171.0000;0.0863;-1.0770;
-170.7000;0.0814;-1.0860;
-170.4000;0.0806;-1.0860;
-170.1000;0.0806;-1.0815;
-169.8000;0.0822;-1.0860;
-169.5000;0.0822;-1.0860;
-169.2000;0.0838;-1.0770;
-168.9000;0.0822;-1.0792;
-168.6000;0.0798;-1.0837;
-168.3000;0.0838;-1.0815;
-168.0000;0.0798;-1.0883;
-167.7000;0.0798;-1.0792;
-167.4000;0.0806;-1.0792;
-167.1000;0.0781;-1.0860;
-166.8000;0.0798;-1.0837;
-166.5000;0.0790;-1.0792;
-166.2000;0.0806;-1.0679;
-165.9000;0.0790;-1.0702;
-165.6000;0.0716;-1.0973;
-165.3000;0.0822;-1.0747;
-165.0000;0.0887;-1.0589;
-164.7000;0.0814;-1.0679;
-164.4000;0.0790;-1.0724;
-164.1000;0.0822;-1.0611;
-163.8000;0.0847;-1.0543;
-163.5000;0.0830;-1.0521;
-163.2000;0.0838;-1.0521;
-162.9000;0.0863;-1.0453;
-162.6000;0.0814;-1.0589;
-162.3000;0.0806;-1.0498;
-162.0000;0.0814;-1.0521;
-161.7000;0.0830;-1.0521;
-161.4000;0.0814;-1.0521;
-161.1000;0.0814;-1.0566;
-160.8000;0.0806;-1.0634;
-160.5000;0.0806;-1.0634;
-160.2000;0.0757;-1.0724;
-159.9000;0.0798;-1.0724;
-159.6000;0.0798;-1.0837;
-159.3000;0.0830;-1.0815;
-159.0000;0.0798;-1.0837;
-158.7000;0.0659;-1.1109;
-158.4000;0.0757;-1.0815;
-158.1000;0.0781;-1.0770;
-157.8000;0.0790;-1.0702;
-157.5000;0.0814;-1.0679;
-157.2000;0.0757;-1.0770;
-156.9000;0.0806;-1.0702;
-156.6000;0.0733;-1.0792;
-156.3000;0.0773;-1.0656;
-156.0000;0.0798;-1.0611;
-155.7000;0.0790;-1.0656;
-155.4000;0.0790;-1.0724;
-155.1000;0.0822;-1.0679;
-154.8000;0.0814;-1.0770;
-154.5000;0.0806;-1.0928;
-154.2000;0.0724;-1.1177;
-153.9000;0.0814;-1.0928;
-153.6000;0.0798;-1.0928;
-153.3000;0.0814;-1.0973;
-153.0000;0.0716;-1.1222;
-152.7000;0.0806;-1.0951;
-152.4000;0.0798;-1.0928;
-152.1000;0.0806;-1.0815;
-151.8000;0.0798;-1.0883;
-151.5000;0.0814;-1.0883;
-151.2000;0.0806;-1.0905;
-150.9000;0.0806;-1.0860;
-150.6000;0.0790;-1.0883;
-150.3000;0.0830;-1.0815;
-150.0000;0.0847;-1.0860;
-149.7000;0.0814;-1.0860;
-149.4000;0.0741;-1.0951;
-149.1000;0.0838;-1.0770;
-148.8000;0.0838;-1.0747;
-148.5000;0.0871;-1.0498;
-148.2000;0.0790;-1.0679;
-147.9000;0.0822;-1.0656;
-147.6000;0.0798;-1.0770;
-147.3000;0.0790;-1.0770;
-147.0000;0.0822;-1.0611;
-146.7000;0.0806;-1.0702;
-146.4000;0.0814;-1.0634;
-146.1000;0.0814;-1.0679;
-145.8000;0.0781;-1.0792;
-145.5000;0.0692;-1.0951;
-145.2000;0.0830;-1.0589;
-144.9000;0.0830;-1.0566;
-144.6000;0.0822;-1.0611;
-144.3000;0.0798;-1.0679;
-144.0000;0.0700;-1.0973;
-143.7000;0.0838;-1.0543;
-143.4000;0.0814;-1.0566;
-143.1000;0.0790;-1.0611;
-142.8000;0.0822;-1.0589;
-142.5000;0.0806;-1.0634;
-142.2000;0.0822;-1.0611;
-141.9000;0.0936;-1.0408;
-141.6000;0.0798;-1.0792;
-141.3000;0.0830;-1.0815;
-141.0000;0.0781;-1.0928;
-140.7000;0.0692;-1.1177;
-140.4000;0.0790;-1.0815;
-140.1000;0.0790;-1.0747;
-139.8000;0.0806;-1.0656;
-139.5000;0.0814;-1.0634;
-139.2000;0.0814;-1.0679;
-138.9000;0.0814;-1.0747;
-138.6000;0.0855;-1.0634;
-138.3000;0.0806;-1.0724;
-138.0000;0.0806;-1.0656;
-137.7000;0.0814;-1.0634;
-137.4000;0.0814;-1.0543;
-137.1000;0.0814;-1.0543;
-136.8000;0.0814;-1.0656;
-136.5000;0.0822;-1.0679;
-136.2000;0.0733;-1.0837;
-135.9000;0.0814;-1.0611;
-135.6000;0.0716;-1.0905;
-135.3000;0.0749;-1.0928;
-135.0000;0.0790;-1.0837;
-134.7000;0.0830;-1.0589;
-134.4000;0.0863;-1.0475;
-134.1000;0.0847;-1.0453;
-133.8000;0.0814;-1.0566;
-133.5000;0.0806;-1.0792;
-133.2000;0.0830;-1.0747;
-132.9000;0.0798;-1.0837;
-132.6000;0.0757;-1.0973;
-132.3000;0.0716;-1.0996;
-132.0000;0.0790;-1.0883;
-131.7000;0.0806;-1.0837;
-131.4000;0.0822;-1.0792;
-131.1000;0.0814;-1.0747;
-130.8000;0.0806;-1.0815;
-130.5000;0.0806;-1.0770;
-130.2000;0.0822;-1.0724;
-129.9000;0.0863;-1.0656;
-129.6000;0.0814;-1.0770;
-129.3000;0.0814;-1.0860;
-129.0000;0.0830;-1.0815;
-128.7000;0.0765;-1.0860;
-128.4000;0.0830;-1.0543;
-128.1000;0.0814;-1.0566;
-127.8000;0.0781;-1.0656;
-127.5000;0.0798;-1.0589;
-127.2000;0.0806;-1.0521;
-126.9000;0.0790;-1.0408;
-126.6000;0.0830;-1.0385;
-126.3000;0.0773;-1.0408;
-126.0000;0.0822;-1.0385;
-125.7000;0.0814;-1.0408;
-125.4000;0.0822;-1.0385;
-125.1000;0.0798;-1.0475;
-124.8000;0.0855;-1.0430;
-124.5000;0.0733;-1.0702;
-124.2000;0.0814;-1.0475;
-123.9000;0.0806;-1.0589;
-123.6000;0.0847;-1.0543;
-123.3000;0.0806;-1.0611;
-123.0000;0.0790;-1.0634;
-122.7000;0.0765;-1.0679;
-122.4000;0.0773;-1.0747;
-122.1000;0.0814;-1.0702;
-121.8000;0.0733;-1.0883;
-121.5000;0.0790;-1.0634;
-121.2000;0.0912;-1.0317;
-120.9000;0.0757;-1.0702;
-120.6000;0.0716;-1.0837;
-120.3000;0.0822;-1.0521;
-120.0000;0.0830;-1.0475;
-119.7000;0.0781;-1.0566;
-119.4000;0.0781;-1.0611;
-119.1000;0.0863;-1.0430;
-118.8000;0.0822;-1.0521;
-118.5000;0.0830;-1.0543;
-118.2000;0.0798;-1.0656;
-117.9000;0.0871;-1.0543;
-117.6000;0.0822;-1.0679;
-117.3000;0.0830;-1.0656;
-117.0000;0.0806;-1.0679;
-116.7000;0.0692;-1.0905;
-116.4000;0.0814;-1.0589;
-116.1000;0.0724;-1.0883;
-115.8000;0.0847;-1.0475;
-115.5000;0.0822;-1.0521;
-115.2000;0.0871;-1.0543;
-114.9000;0.0806;-1.0747;
-114.6000;0.0822;-1.0589;
-114.3000;0.0847;-1.0498;
-114.0000;0.0838;-1.0408;
-113.7000;0.0806;-1.0498;
-113.4000;0.0798;-1.0543;
-113.1000;0.0838;-1.0543;
-112.8000;0.0855;-1.0543;
-112.5000;0.0781;-1.0634;
-112.2000;0.0944;-1.0362;
-111.9000;0.0798;-1.0656;
-111.6000;0.0830;-1.0475;
-111.3000;0.0838;-1.0408;
-111.0000;0.0814;-1.0498;
-110.7000;0.0838;-1.0453;
-110.4000;0.0822;-1.0498;
-110.1000;0.0724;-1.0770;
-109.8000;0.0773;-1.0634;
-109.5000;0.0814;-1.0589;
-109.2000;0.0847;-1.0498;
-108.9000;0.0822;-1.0521;
-108.6000;0.0871;-1.0385;
-108.3000;0.0806;-1.0589;
-108.0000;0.0806;-1.0521;
-107.7000;0.0822;-1.0475;
-107.4000;0.0806;-1.0430;
-107.1000;0.0806;-1.0430;
-106.8000;0.0822;-1.0340;
-106.5000;0.0773;-1.0475;
-106.2000;0.0855;-1.0362;
-105.9000;0.0806;-1.0453;
-105.6000;0.0838;-1.0385;
-105.3000;0.0847;-1.0385;
-105.0000;0.0814;-1.0430;
-104.7000;0.0822;-1.0498;
-104.4000;0.0887;-1.0408;
-104.1000;0.0806;-1.0679;
-103.8000;0.0830;-1.0611;
-103.5000;0.0724;-1.0883;
-103.2000;0.0830;-1.0634;
-102.9000;0.0806;-1.0656;
-102.6000;0.0830;-1.0521;
-102.3000;0.0798;-1.0589;
-102.0000;0.0798;-1.0566;
-101.7000;0.0798;-1.0521;
-101.4000;0.0798;-1.0521;
-101.1000;0.0798;-1.0543;
-100.8000;0.0773;-1.0611;
-100.5000;0.0814;-1.0566;
-100.2000;0.0847;-1.0430;
-99.9000;0.0781;-1.0611;
-99.6000;0.0838;-1.0521;
-99.3000;0.0790;-1.0656;
-99.0000;0.0781;-1.0634;
-98.7000;0.0716;-1.0815;
-98.4000;0.0822;-1.0543;
-98.1000;0.0838;-1.0543;
-97.8000;0.0855;-1.0656;
-97.5000;0.0822;-1.0724;
-97.2000;0.0830;-1.0724;
-96.9000;0.0798;-1.0815;
-96.6000;0.0830;-1.0634;
-96.3000;0.0830;-1.0679;
-96.0000;0.0757;-1.0860;
-95.7000;0.0798;-1.0770;
-95.4000;0.0806;-1.0792;
-95.1000;0.0814;-1.0747;
-94.8000;0.0790;-1.0747;
-94.5000;0.0838;-1.0611;
-94.2000;0.0781;-1.0792;
-93.9000;0.0790;-1.0724;
-93.6000;0.0798;-1.0770;
-93.3000;0.0806;-1.0837;
-93.0000;0.0806;-1.0883;
-92.7000;0.0798;-1.0928;
-92.4000;0.0822;-1.0928;
-92.1000;0.0822;-1.0883;
-91.8000;0.0790;-1.0928;
-91.5000;0.0822;-1.0792;
-91.2000;0.0773;-1.0928;
-90.9000;0.0806;-1.0837;
-90.6000;0.0790;-1.0860;
-90.3000;0.0806;-1.0747;
-90.0000;0.0790;-1.0770;
-89.7000;0.0790;-1.0679;
-89.4000;0.0749;-1.0860;
-89.1000;0.0822;-1.0679;
-88.8000;0.0830;-1.0724;
-88.5000;0.0806;-1.0792;
-88.2000;0.0822;-1.0792;
-87.9000;0.0814;-1.0770;
-87.6000;0.0798;-1.0747;
-87.3000;0.0814;-1.0634;
-87.0000;0.0773;-1.0770;
-86.7000;0.0798;-1.0702;
-86.4000;0.0806;-1.0634;
-86.1000;0.0806;-1.0656;
-85.8000;0.0822;-1.0589;
-85.5000;0.0838;-1.0543;
-85.2000;0.0838;-1.0589;
-84.9000;0.0806;-1.0656;
-84.6000;0.0806;-1.0634;
-84.3000;0.0806;-1.0611;
-84.0000;0.0814;-1.0656;
-83.7000;0.0806;-1.0656;
-83.4000;0.0814;-1.0747;
-83.1000;0.0822;-1.0815;
-82.8000;0.0806;-1.0905;
-82.5000;0.0969;-1.0475;
-82.2000;0.0798;-1.0792;
-81.9000;0.0798;-1.0770;
-81.6000;0.0838;-1.0770;
-81.3000;0.0822;-1.0656;
-81.0000;0.0781;-1.0656;
-80.7000;0.0806;-1.0521;
-80.4000;0.0773;-1.0679;
-80.1000;0.0798;-1.0634;
-79.8000;0.0814;-1.0611;
-79.5000;0.0822;-1.0611;
-79.2000;0.0814;-1.0611;
-78.9000;0.0822;-1.0634;
-78.6000;0.0773;-1.0679;
-78.3000;0.0822;-1.0475;
-78.0000;0.0814;-1.0475;
-77.7000;0.0806;-1.0453;
-77.4000;0.0822;-1.0408;
-77.1000;0.0798;-1.0475;
-76.8000;0.0904;-1.0272;
-76.5000;0.0790;-1.0656;
-76.2000;0.0790;-1.0679;
-75.9000;0.0790;-1.0724;
-75.6000;0.0798;-1.0702;
-75.3000;0.0806;-1.0656;
-75.0000;0.0830;-1.0543;
-74.7000;0.0814;-1.0611;
-74.4000;0.0798;-1.0702;
-74.1000;0.0790;-1.0747;
-73.8000;0.0830;-1.0611;
-73.5000;0.0830;-1.0634;
-73.2000;0.0830;-1.0611;
-72.9000;0.0765;-1.0679;
-72.6000;0.0806;-1.0634;
-72.3000;0.0822;-1.0566;
-72.0000;0.0806;-1.0521;
-71.7000;0.0830;-1.0498;
-71.4000;0.0781;-1.0521;
-71.1000;0.0806;-1.0408;
-70.8000;0.0798;-1.0521;
-70.5000;0.0781;-1.0679;
-70.2000;0.0822;-1.0679;
-69.9000;0.0895;-1.0362;
-69.6000;0.0822;-1.0634;
-69.3000;0.0814;-1.0566;
-69.0000;0.0830;-1.0611;
-68.7000;0.0895;-1.0430;
-68.4000;0.0830;-1.0589;
-68.1000;0.0692;-1.0996;
-67.8000;0.0822;-1.0634;
-67.5000;0.0871;-1.0543;
-67.2000;0.0806;-1.0634;
-66.9000;0.0806;-1.0589;
-66.6000;0.0806;-1.0679;
-66.3000;0.0806;-1.0679;
-66.0000;0.0814;-1.0679;
-65.7000;0.0830;-1.0656;
-65.4000;0.0724;-1.0905;
-65.1000;0.0822;-1.0634;
-64.8000;0.0871;-1.0453;
-64.5000;0.0814;-1.0611;
-64.2000;0.0863;-1.0498;
-63.9000;0.0822;-1.0566;
-63.6000;0.0822;-1.0543;
-63.3000;0.0814;-1.0589;
-63.0000;0.0773;-1.0747;
-62.7000;0.0773;-1.0634;
-62.4000;0.0806;-1.0566;
-62.1000;0.0781;-1.0589;
-61.8000;0.0798;-1.0430;
-61.5000;0.0806;-1.0453;
-61.2000;0.0790;-1.0475;
-60.9000;0.0838;-1.0385;
-60.6000;0.0830;-1.0453;
-60.3000;0.0806;-1.0385;
-60.0000;0.0741;-1.0521;
-59.7000;0.0806;-1.0385;
-59.4000;0.0822;-1.0317;
-59.1000;0.0830;-1.0340;
-58.8000;0.0798;-1.0408;
-58.5000;0.0798;-1.0385;
-58.2000;0.0798;-1.0453;
-57.9000;0.0838;-1.0272;
-57.6000;0.0822;-1.0317;
-57.3000;0.0781;-1.0475;
-57.0000;0.0822;-1.0385;
-56.7000;0.0798;-1.0498;
-56.4000;0.0798;-1.0453;
-56.1000;0.0798;-1.0362;
-55.8000;0.0700;-1.0634;
-55.5000;0.0814;-1.0340;
-55.2000;0.0790;-1.0430;
-54.9000;0.0814;-1.0362;
-54.6000;0.0806;-1.0362;
-54.3000;0.0806;-1.0408;
-54.0000;0.0806;-1.0408;
-53.7000;0.0847;-1.0317;
-53.4000;0.0838;-1.0340;
-53.1000;0.0806;-1.0430;
-52.8000;0.0822;-1.0430;
-52.5000;0.0781;-1.0521;
-52.2000;0.0814;-1.0385;
-51.9000;0.0830;-1.0385;
-51.6000;0.0871;-1.0181;
-51.3000;0.0781;-1.0408;
-51.0000;0.0773;-1.0453;
-50.7000;0.0741;-1.0521;
-50.4000;0.0806;-1.0317;
-50.1000;0.0781;-1.0430;
-49.8000;0.0806;-1.0408;
-49.5000;0.0798;-1.0475;
-49.2000;0.0790;-1.0498;
-48.9000;0.0822;-1.0408;
-48.6000;0.0708;-1.0702;
-48.3000;0.0806;-1.0566;
-48.0000;0.0822;-1.0566;
-47.7000;0.0708;-1.0747;
-47.4000;0.0814;-1.0566;
-47.1000;0.0855;-1.0430;
-46.8000;0.0790;-1.0543;
-46.5000;0.0830;-1.0430;
-46.2000;0.0830;-1.0453;
-45.9000;0.0781;-1.0566;
-45.6000;0.0822;-1.0430;
-45.3000;0.0822;-1.0362;
-45.0000;0.0790;-1.0475;
-44.7000;0.0806;-1.0475;
-44.4000;0.0838;-1.0430;
-44.1000;0.0838;-1.0453;
-43.8000;0.0724;-1.0702;
-43.5000;0.0773;-1.0543;
-43.2000;0.0936;-1.0113;
-42.9000;0.0822;-1.0430;
-42.6000;0.0733;-1.0679;
-42.3000;0.0912;-1.0227;
-42.0000;0.0806;-1.0430;
-41.7000;0.0781;-1.0521;
-41.4000;0.0822;-1.0385;
-41.1000;0.0798;-1.0430;
-40.8000;0.0814;-1.0430;
-40.5000;0.0790;-1.0498;
-40.2000;0.0781;-1.0566;
-39.9000;0.0798;-1.0521;
-39.6000;0.0790;-1.0611;
-39.3000;0.0855;-1.0543;
-39.0000;0.0790;-1.0611;
-38.7000;0.0798;-1.0679;
-38.4000;0.0790;-1.0679;
-38.1000;0.0814;-1.0634;
-37.8000;0.0773;-1.0724;
-37.5000;0.0765;-1.0724;
-37.2000;0.0806;-1.0702;
-36.9000;0.0822;-1.0634;
-36.6000;0.0822;-1.0589;
-36.3000;0.0814;-1.0679;
-36.0000;0.0814;-1.0611;
-35.7000;0.0798;-1.0611;
-35.4000;0.0814;-1.0611;
-35.1000;0.0830;-1.0589;
-34.8000;0.0790;-1.0611;
-34.5000;0.0830;-1.0475;
-34.2000;0.0814;-1.0430;
-33.9000;0.0814;-1.0340;
-33.6000;0.0798;-1.0408;
-33.3000;0.0822;-1.0340;
-33.0000;0.0765;-1.0430;
-32.7000;0.0806;-1.0340;
-32.4000;0.0806;-1.0362;
-32.1000;0.0822;-1.0340;
-31.8000;0.0814;-1.0408;
-31.5000;0.0781;-1.0453;
-31.2000;0.0773;-1.0475;
-30.9000;0.0798;-1.0408;
-30.6000;0.0822;-1.0362;
-30.3000;0.0781;-1.0430;
-30.0000;0.0790;-1.0430;
-29.7000;0.0781;-1.0408;
-29.4000;0.0781;-1.0385;
-29.1000;0.0838;-1.0317;
-28.8000;0.0806;-1.0340;
-28.5000;0.0847;-1.0294;
-28.2000;0.0798;-1.0317;
-27.9000;0.0863;-1.0113;
-27.6000;0.0879;-1.0068;
-27.3000;0.0798;-1.0317;
-27.0000;0.0790;-1.0362;
-26.7000;0.0822;-1.0317;
-26.4000;0.0798;-1.0453;
-26.1000;0.0781;-1.0498;
-25.8000;0.0904;-1.0227;
-25.5000;0.0814;-1.0408;
-25.2000;0.0790;-1.0385;
-24.9000;0.0830;-1.0362;
-24.6000;0.0790;-1.0475;
-24.3000;0.0806;-1.0430;
-24.0000;0.0855;-1.0340;
-23.7000;0.0822;-1.0272;
-23.4000;0.0781;-1.0385;
-23.1000;0.0798;-1.0430;
-22.8000;0.0790;-1.0362;
-22.5000;0.0806;-1.0294;
-22.2000;0.0814;-1.0317;
-21.9000;0.0822;-1.0272;
-21.6000;0.0724;-1.0498;
-21.3000;0.0806;-1.0385;
-21.0000;0.0749;-1.0521;
-20.7000;0.0798;-1.0408;
-20.4000;0.0830;-1.0385;
-20.1000;0.0757;-1.0656;
-19.8000;0.0798;-1.0634;
-19.5000;0.0814;-1.0656;
-19.2000;0.0773;-1.0770;
-18.9000;0.0798;-1.0656;
-18.6000;0.0904;-1.0362;
-18.3000;0.0961;-1.0181;
-18.0000;0.0830;-1.0453;
-17.7000;0.0822;-1.0453;
-17.4000;0.0724;-1.0679;
-17.1000;0.0806;-1.0498;
-16.8000;0.0814;-1.0453;
-16.5000;0.0749;-1.0634;
-16.2000;0.0822;-1.0453;
-15.9000;0.0765;-1.0521;
-15.6000;0.0781;-1.0589;
-15.3000;0.0814;-1.0589;
-15.0000;0.0814;-1.0634;
-14.7000;0.0814;-1.0589;
-14.4000;0.0798;-1.0589;
-14.1000;0.0806;-1.0521;
-13.8000;0.0806;-1.0589;
-13.5000;0.0814;-1.0566;
-13.2000;0.0773;-1.0679;
-12.9000;0.0814;-1.0566;
-12.6000;0.0814;-1.0498;
-12.3000;0.0790;-1.0543;
-12.0000;0.0928;-1.0181;
-11.7000;0.0806;-1.0589;
-11.4000;0.0814;-1.0453;
-11.1000;0.0814;-1.0475;
-10.8000;0.0814;-1.0408;
-10.5000;0.0790;-1.0408;
-10.2000;0.0781;-1.0430;
-9.9000;0.0806;-1.0408;
-9.6000;0.0855;-1.0340;
-9.3000;0.0659;-1.0815;
-9.0000;0.0790;-1.0566;
-8.7000;0.0814;-1.0475;
-8.4000;0.0798;-1.0566;
-8.1000;0.0798;-1.0498;
-7.8000;0.0798;-1.0566;
-7.5000;0.0806;-1.0589;
-7.2000;0.0798;-1.0566;
-6.9000;0.0814;-1.0498;
-6.6000;0.0838;-1.0340;
-6.3000;0.0814;-1.0475;
-6.0000;0.0830;-1.0543;
-5.7000;0.0838;-1.0475;
-5.4000;0.0798;-1.0521;
-5.1000;0.0806;-1.0566;
-4.8000;0.0765;-1.0611;
-4.5000;0.0814;-1.0408;
-4.2000;0.0790;-1.0453;
-3.9000;0.0822;-1.0317;
-3.6000;0.0790;-1.0430;
-3.3000;0.0814;-1.0408;
-3.0000;0.0798;-1.0498;
-2.7000;0.0822;-1.0521;
-2.4000;0.0814;-1.0498;
-2.1000;0.0798;-1.0611;
-1.8000;0.0790;-1.0611;
-1.5000;0.0830;-1.0498;
-1.2000;0.0814;-1.0521;
-0.9000;0.0879;-1.0249;
-0.6000;0.0790;-1.0385;
-0.3000;0.0781;-1.0385;
0.0000;0.0781;-1.0385;
0.3000;0.0830;-1.0340;
0.6000;0.0830;-1.0317;
0.9000;0.0830;-1.0385;
1.2000;0.0855;-1.0272;
1.5000;0.0847;-1.0249;
1.8000;0.0863;-1.0136;
2.1000;0.0887;-0.9978;
2.4000;0.0904;-0.9842;
2.7000;0.0895;-0.9751;
3.0000;0.0863;-0.9751;
3.3000;0.0879;-0.9729;
3.6000;0.0912;-0.9593;
3.9000;0.0879;-0.9661;
4.2000;0.0871;-0.9751;
4.5000;0.0871;-0.9729;
4.8000;0.0887;-0.9729;
5.1000;0.0904;-0.9684;
5.4000;0.0912;-0.9616;
5.7000;0.0847;-0.9887;
6.0000;0.0912;-0.9593;
6.3000;0.0887;-0.9706;
6.6000;0.0871;-0.9706;
6.9000;0.0847;-0.9661;
7.2000;0.0912;-0.9570;
7.5000;0.0904;-0.9593;
7.8000;0.0928;-0.9480;
8.1000;0.0887;-0.9457;
8.4000;0.0887;-0.9457;
8.7000;0.0928;-0.9457;
9.0000;0.0985;-0.9322;
9.3000;0.0912;-0.9525;
9.6000;0.0879;-0.9593;
9.9000;0.0863;-0.9638;
10.2000;0.0895;-0.9548;
10.5000;0.0920;-0.9525;
10.8000;0.0855;-0.9729;
11.1000;0.0871;-0.9570;
11.4000;0.0904;-0.9503;
11.7000;0.0798;-0.9729;
12.0000;0.0928;-0.9480;
12.3000;0.0928;-0.9503;
12.6000;0.0977;-0.9322;
12.9000;0.0928;-0.9435;
13.2000;0.0928;-0.9435;
13.5000;0.0993;-0.9254;
13.8000;0.0895;-0.9593;
14.1000;0.0904;-0.9503;
14.4000;0.0895;-0.9548;
14.7000;0.0920;-0.9503;
15.0000;0.0912;-0.9457;
15.3000;0.0895;-0.9480;
15.6000;0.0912;-0.9457;
15.9000;0.0912;-0.9503;
16.2000;0.0928;-0.9525;
16.5000;0.0904;-0.9616;
16.8000;0.0912;-0.9570;
17.1000;0.0847;-0.9706;
17.4000;0.0879;-0.9616;
17.7000;0.0879;-0.9661;
18.0000;0.0895;-0.9616;
18.3000;0.0879;-0.9570;
18.6000;0.0928;-0.9435;
18.9000;0.0904;-0.9525;
19.2000;0.0904;-0.9480;
19.5000;0.0887;-0.9503;
19.8000;0.0944;-0.9503;
20.1000;0.0887;-0.9638;
20.4000;0.0895;-0.9616;
20.7000;0.0879;-0.9638;
21.0000;0.0928;-0.9593;
21.3000;0.0855;-0.9797;
21.6000;0.0904;-0.9706;
21.9000;0.0895;-0.9684;
22.2000;0.0838;-0.9797;
22.5000;0.0895;-0.9684;
22.8000;0.0904;-0.9751;
23.1000;0.0920;-0.9684;
23.4000;0.0895;-0.9684;
23.7000;0.0895;-0.9706;
24.0000;0.0895;-0.9593;
24.3000;0.0904;-0.9570;
24.6000;0.0920;-0.9548;
24.9000;0.0887;-0.9616;
25.2000;0.0912;-0.9525;
25.5000;0.0928;-0.9503;
25.8000;0.0887;-0.9616;
26.1000;0.0912;-0.9525;
26.4000;0.0928;-0.9480;
26.7000;0.0912;-0.9503;
27.0000;0.0912;-0.9616;
27.3000;0.0895;-0.9706;
27.6000;0.0928;-0.9570;
27.9000;0.0855;-0.9751;
28.2000;0.0895;-0.9570;
28.5000;0.0863;-0.9706;
28.8000;0.0912;-0.9638;
29.1000;0.0944;-0.9570;
29.4000;0.0912;-0.9684;
29.7000;0.0912;-0.9638;
30.0000;0.0912;-0.9638;
30.3000;0.0912;-0.9616;
30.6000;0.0952;-0.9503;
30.9000;0.0936;-0.9638;
31.2000;0.0904;-0.9593;
31.5000;0.0887;-0.9661;
31.8000;0.0928;-0.9480;
32.1000;0.0920;-0.9480;
32.4000;0.0904;-0.9435;
32.7000;0.0936;-0.9412;
33.0000;0.0928;-0.9457;
33.3000;0.0912;-0.9503;
33.6000;0.0928;-0.9525;
33.9000;0.0904;-0.9616;
34.2000;0.0912;-0.9616;
34.5000;0.0977;-0.9525;
34.8000;0.0920;-0.9661;
35.1000;0.0928;-0.9593;
35.4000;0.0912;-0.9548;
35.7000;0.0936;-0.9480;
36.0000;0.0920;-0.9548;
36.3000;0.0969;-0.9616;
36.6000;0.1009;-0.9412;
36.9000;0.0928;-0.9570;
37.2000;0.0944;-0.9525;
37.5000;0.0887;-0.9570;
37.8000;0.0920;-0.9525;
38.1000;0.0879;-0.9661;
38.4000;0.0904;-0.9525;
38.7000;0.0928;-0.9548;
39.0000;0.0993;-0.9322;
39.3000;0.0912;-0.9548;
39.6000;0.0912;-0.9480;
39.9000;0.0920;-0.9435;
40.2000;0.0895;-0.9457;
40.5000;0.0928;-0.9435;
40.8000;0.0928;-0.9525;
41.1000;0.0928;-0.9548;
41.4000;0.0928;-0.9525;
41.7000;0.0936;-0.9503;
42.0000;0.0944;-0.9412;
42.3000;0.0928;-0.9457;
42.6000;0.0928;-0.9480;
42.9000;0.0912;-0.9570;
43.2000;0.0920;-0.9548;
43.5000;0.0977;-0.9412;
43.8000;0.0912;-0.9548;
44.1000;0.0863;-0.9638;
44.4000;0.0985;-0.9299;
44.7000;0.0920;-0.9457;
45.0000;0.0928;-0.9525;
45.3000;0.0985;-0.9389;
45.6000;0.0887;-0.9661;
45.9000;0.0920;-0.9503;
46.2000;0.0895;-0.9593;
46.5000;0.0895;-0.9684;
46.8000;0.0928;-0.9525;
47.1000;0.0928;-0.9503;
47.4000;0.0912;-0.9570;
47.7000;0.0920;-0.9616;
48.0000;0.0952;-0.9570;
48.3000;0.0928;-0.9638;
48.6000;0.0887;-0.9729;
48.9000;0.0863;-0.9797;
49.2000;0.0871;-0.9706;
49.5000;0.0871;-0.9638;
49.8000;0.0936;-0.9435;
50.1000;0.0952;-0.9344;
50.4000;0.0993;-0.9254;
50.7000;0.0944;-0.9503;
51.0000;0.0879;-0.9774;
51.3000;0.0920;-0.9706;
51.6000;0.0936;-0.9774;
51.9000;0.0977;-0.9570;
52.2000;0.0952;-0.9616;
52.5000;0.0985;-0.9548;
52.8000;0.0863;-0.9887;
53.1000;0.0936;-0.9751;
53.4000;0.0952;-0.9684;
53.7000;0.0952;-0.9661;
54.0000;0.0928;-0.9706;
54.3000;0.0936;-0.9548;
54.6000;0.0895;-0.9638;
54.9000;0.0871;-0.9729;
55.2000;0.0961;-0.9457;
55.5000;0.0887;-0.9593;
55.8000;0.0993;-0.9276;
56.1000;0.0895;-0.9525;
56.4000;0.0928;-0.9435;
56.7000;0.0895;-0.9593;
57.0000;0.0961;-0.9503;
57.3000;0.0952;-0.9525;
57.6000;0.0928;-0.9593;
57.9000;0.0928;-0.9570;
58.2000;0.0928;-0.9661;
58.5000;0.0920;-0.9593;
58.8000;0.0920;-0.9661;
59.1000;0.0920;-0.9729;
59.4000;0.0928;-0.9751;
59.7000;0.0977;-0.9638;
60.0000;0.0912;-0.9774;
60.3000;0.0928;-0.9684;
60.6000;0.0920;-0.9593;
60.9000;0.0928;-0.9525;
61.2000;0.0928;-0.9548;
61.5000;0.0961;-0.9457;
61.8000;0.0928;-0.9503;
62.1000;0.0928;-0.9435;
62.4000;0.0936;-0.9389;
62.7000;0.0936;-0.9299;
63.0000;0.0952;-0.9276;
63.3000;0.0936;-0.9344;
63.6000;0.0936;-0.9322;
63.9000;0.0904;-0.9435;
64.2000;0.0920;-0.9412;
64.5000;0.0814;-0.9616;
64.8000;0.0936;-0.9254;
65.1000;0.0928;-0.9322;
65.4000;0.0952;-0.9208;
65.7000;0.0887;-0.9480;
66.0000;0.0912;-0.9480;
66.3000;0.0920;-0.9480;
66.6000;0.0920;-0.9412;
66.9000;0.0936;-0.9457;
67.2000;0.0895;-0.9661;
67.5000;0.0952;-0.9503;
67.8000;0.0952;-0.9480;
68.1000;0.0920;-0.9525;
68.4000;0.0928;-0.9503;
68.7000;0.0887;-0.9570;
69.0000;0.0912;-0.9480;
69.3000;0.0904;-0.9480;
69.6000;0.0895;-0.9480;
69.9000;0.0936;-0.9412;
70.2000;0.0920;-0.9548;
70.5000;0.0920;-0.9548;
70.8000;0.0936;-0.9457;
71.1000;0.0944;-0.9389;
71.4000;0.0952;-0.9389;
71.7000;0.0912;-0.9570;
72.0000;0.0928;-0.9570;
72.3000;0.0936;-0.9570;
72.6000;0.0961;-0.9457;
72.9000;0.0928;-0.9480;
73.2000;0.0912;-0.9435;
73.5000;0.0838;-0.9661;
73.8000;0.0928;-0.9480;
74.1000;0.0928;-0.9412;
74.4000;0.0863;-0.9570;
74.7000;0.0944;-0.9367;
75.0000;0.0928;-0.9322;
75.3000;0.0912;-0.9231;
75.6000;0.0920;-0.9231;
75.9000;0.0928;-0.9231;
76.2000;0.0985;-0.9095;
76.5000;0.0936;-0.9208;
76.8000;0.0993;-0.9186;
77.1000;0.0895;-0.9344;
77.4000;0.0977;-0.9208;
77.7000;0.0830;-0.9616;
78.0000;0.0928;-0.9389;
78.3000;0.0920;-0.9435;
78.6000;0.0961;-0.9367;
78.9000;0.0928;-0.9480;
79.2000;0.0920;-0.9457;
79.5000;0.0912;-0.9412;
79.8000;0.0952;-0.9299;
80.1000;0.0928;-0.9322;
80.4000;0.0920;-0.9367;
80.7000;0.0912;-0.9457;
81.0000;0.0952;-0.9367;
81.3000;0.0904;-0.9570;
81.6000;0.0912;-0.9570;
81.9000;0.0952;-0.9480;
82.2000;0.0912;-0.9593;
82.5000;0.0920;-0.9616;
82.8000;0.0920;-0.9593;
83.1000;0.0920;-0.9593;
83.4000;0.0936;-0.9616;
83.7000;0.0920;-0.9593;
84.0000;0.0912;-0.9593;
84.3000;0.0961;-0.9344;
84.6000;0.0936;-0.9435;
84.9000;0.0936;-0.9548;
85.2000;0.0936;-0.9503;
85.5000;0.0920;-0.9457;
85.8000;0.0944;-0.9367;
86.1000;0.0952;-0.9412;
86.4000;0.0920;-0.9503;
86.7000;0.0920;-0.9412;
87.0000;0.0912;-0.9525;
87.3000;0.0944;-0.9503;
87.6000;0.0969;-0.9480;
87.9000;0.0912;-0.9570;
88.2000;0.0814;-0.9774;
88.5000;0.0936;-0.9457;
88.8000;0.0952;-0.9412;
89.1000;0.0969;-0.9299;
89.4000;0.0969;-0.9322;
89.7000;0.0904;-0.9616;
90.0000;0.0944;-0.9525;
90.3000;0.0838;-0.9819;
90.6000;0.0961;-0.9389;
90.9000;0.0904;-0.9480;
91.2000;0.0961;-0.9344;
91.5000;0.0985;-0.9208;
91.8000;0.0944;-0.9322;
92.1000;0.0912;-0.9480;
92.4000;0.0936;-0.9525;
92.7000;0.0920;-0.9570;
93.0000;0.0944;-0.9480;
93.3000;0.0904;-0.9503;
93.6000;0.0879;-0.9525;
93.9000;0.0912;-0.9503;
94.2000;0.0871;-0.9570;
94.5000;0.0920;-0.9457;
94.8000;0.0912;-0.9525;
95.1000;0.0928;-0.9503;
95.4000;0.0936;-0.9480;
95.7000;0.0920;-0.9570;
96.0000;0.0920;-0.9457;
96.3000;0.0928;-0.9389;
96.6000;0.0936;-0.9344;
96.9000;0.0920;-0.9344;
97.2000;0.0912;-0.9412;
97.5000;0.0847;-0.9706;
97.8000;0.0920;-0.9480;
98.1000;0.0912;-0.9435;
98.4000;0.0912;-0.9412;
98.7000;0.0904;-0.9412;
99.0000;0.0904;-0.9412;
99.3000;0.0928;-0.9276;
99.6000;0.0904;-0.9276;
99.9000;0.0920;-0.9276;
100.2000;0.0961;-0.9254;
100.5000;0.0936;-0.9389;
100.8000;0.0993;-0.9208;
101.1000;0.1074;-0.8846;
101.4000;0.0961;-0.9118;
101.7000;0.0952;-0.9208;
102.0000;0.0912;-0.9344;
102.3000;0.0936;-0.9412;
102.6000;0.0822;-0.9706;
102.9000;0.0936;-0.9367;
103.2000;0.0920;-0.9389;
103.5000;0.0928;-0.9367;
103.8000;0.0936;-0.9344;
104.1000;0.0912;-0.9344;
104.4000;0.0936;-0.9367;
104.7000;0.0944;-0.9322;
105.0000;0.0895;-0.9412;
105.3000;0.0944;-0.9299;
105.6000;0.0952;-0.9276;
105.9000;0.0928;-0.9367;
106.2000;0.0912;-0.9412;
106.5000;0.0928;-0.9344;
106.8000;0.0936;-0.9389;
107.1000;0.0912;-0.9435;
107.4000;0.0952;-0.9435;
107.7000;0.0936;-0.9457;
108.0000;0.0920;-0.9525;
108.3000;0.0944;-0.9457;
108.6000;0.0952;-0.9367;
108.9000;0.0936;-0.9367;
109.2000;0.0887;-0.9503;
109.5000;0.0904;-0.9503;
109.8000;0.0912;-0.9457;
110.1000;0.0895;-0.9548;
110.4000;0.0936;-0.9435;
110.7000;0.0936;-0.9457;
111.0000;0.0928;-0.9503;
111.3000;0.0936;-0.9525;
111.6000;0.0920;-0.9503;
111.9000;0.0969;-0.9367;
112.2000;0.0952;-0.9367;
112.5000;0.0952;-0.9389;
112.8000;0.0855;-0.9706;
113.1000;0.0895;-0.9570;
113.4000;0.0928;-0.9435;
113.7000;0.0985;-0.9231;
114.0000;0.0879;-0.9548;
114.3000;0.0855;-0.9593;
114.6000;0.0952;-0.9389;
114.9000;0.0855;-0.9638;
115.2000;0.0912;-0.9480;
115.5000;0.0952;-0.9525;
115.8000;0.1172;-0.8982;
116.1000;0.0944;-0.9480;
116.4000;0.0912;-0.9525;
116.7000;0.0944;-0.9435;
117.0000;0.0944;-0.9480;
117.3000;0.0944;-0.9503;
117.6000;0.0904;-0.9548;
117.9000;0.0969;-0.9480;
118.2000;0.0944;-0.9389;
118.5000;0.0920;-0.9435;
118.8000;0.0920;-0.9367;
119.1000;0.0944;-0.9344;
119.4000;0.0928;-0.9389;
119.7000;0.0961;-0.9344;
120.0000;0.0944;-0.9344;
120.3000;0.0944;-0.9344;
120.6000;0.0806;-0.9684;
120.9000;0.0977;-0.9254;
121.2000;0.0920;-0.9367;
121.5000;0.0944;-0.9367;
121.8000;0.0798;-0.9684;
122.1000;0.0920;-0.9457;
122.4000;0.0928;-0.9480;
122.7000;0.0961;-0.9435;
123.0000;0.0977;-0.9457;
123.3000;0.0936;-0.9570;
123.6000;0.1009;-0.9322;
123.9000;0.0969;-0.9570;
124.2000;0.0887;-0.9706;
124.5000;0.0920;-0.9570;
124.8000;0.0944;-0.9480;
125.1000;0.0961;-0.9457;
125.4000;0.0920;-0.9480;
125.7000;0.0936;-0.9435;
126.0000;0.0912;-0.9412;
126.3000;0.0920;-0.9389;
126.6000;0.0920;-0.9412;
126.9000;0.0936;-0.9389;
127.2000;0.0936;-0.9367;
127.5000;0.0920;-0.9412;
127.8000;0.0920;-0.9457;
128.1000;0.0936;-0.9435;
128.4000;0.0928;-0.9435;
128.7000;0.1009;-0.9141;
129.0000;0.0928;-0.9367;
129.3000;0.0936;-0.9367;
129.6000;0.0887;-0.9480;
129.9000;0.0936;-0.9389;
130.2000;0.0944;-0.9344;
130.5000;0.0920;-0.9322;
130.8000;0.0887;-0.9389;
131.1000;0.0904;-0.9389;
131.4000;0.0944;-0.9276;
131.7000;0.0912;-0.9367;
132.0000;0.0912;-0.9344;
132.3000;0.0936;-0.9344;
132.6000;0.0936;-0.9322;
132.9000;0.0904;-0.9367;
133.2000;0.0969;-0.9208;
133.5000;0.0920;-0.9208;
133.8000;0.0944;-0.9186;
134.1000;0.0920;-0.9254;
134.4000;0.0904;-0.9231;
134.7000;0.0936;-0.9208;
135.0000;0.0928;-0.9344;
135.3000;0.0928;-0.9412;
135.6000;0.0936;-0.9457;
135.9000;0.0952;-0.9389;
136.2000;0.0928;-0.9480;
136.5000;0.0977;-0.9344;
136.8000;0.0928;-0.9503;
137.1000;0.0928;-0.9525;
137.4000;0.0928;-0.9480;
137.7000;0.0912;-0.9525;
138.0000;0.0928;-0.9457;
138.3000;0.0952;-0.9367;
138.6000;0.0936;-0.9412;
138.9000;0.0920;-0.9457;
139.2000;0.0928;-0.9389;
139.5000;0.0912;-0.9412;
139.8000;0.1018;-0.9095;
140.1000;0.0936;-0.9231;
140.4000;0.0928;-0.9254;
140.7000;0.0936;-0.9231;
141.0000;0.0928;-0.9231;
141.3000;0.0944;-0.9344;
141.6000;0.0928;-0.9322;
141.9000;0.0952;-0.9186;
142.2000;0.0936;-0.9186;
142.5000;0.0936;-0.9163;
142.8000;0.0944;-0.9276;
143.1000;0.0912;-0.9367;
143.4000;0.0944;-0.9322;
143.7000;0.0944;-0.9276;
144.0000;0.0944;-0.9299;
144.3000;0.0928;-0.9367;
144.6000;0.0920;-0.9412;
144.9000;0.0961;-0.9367;
145.2000;0.0904;-0.9548;
145.5000;0.0993;-0.9389;
145.8000;0.0912;-0.9638;
146.1000;0.0928;-0.9593;
146.4000;0.0944;-0.9503;
146.7000;0.0912;-0.9548;
147.0000;0.0871;-0.9684;
147.3000;0.0920;-0.9457;
147.6000;0.0944;-0.9412;
147.9000;0.1026;-0.9163;
148.2000;0.0936;-0.9389;
148.5000;0.0904;-0.9412;
148.8000;0.0912;-0.9367;
149.1000;0.0928;-0.9299;
149.4000;0.0895;-0.9435;
149.7000;0.0920;-0.9344;
150.0000;0.0944;-0.9367;
150.3000;0.0952;-0.9322;
150.6000;0.0895;-0.9389;
150.9000;0.0871;-0.9480;
151.2000;0.0928;-0.9389;
151.5000;0.0961;-0.9389;
151.8000;0.0904;-0.9412;
152.1000;0.0977;-0.9231;
152.4000;0.0928;-0.9322;
152.7000;0.0928;-0.9254;
153.0000;0.0969;-0.9186;
153.3000;0.0920;-0.9299;
153.6000;0.0928;-0.9367;
153.9000;0.0936;-0.9344;
154.2000;0.0928;-0.9367;
154.5000;0.0847;-0.9480;
154.8000;0.0928;-0.9276;
155.1000;0.1009;-0.9027;
155.4000;0.0928;-0.9254;
155.7000;0.0928;-0.9299;
156.0000;0.0904;-0.9254;
156.3000;0.0920;-0.9231;
156.6000;0.0928;-0.9186;
156.9000;0.0928;-0.9208;
157.2000;0.0936;-0.9208;
157.5000;0.0928;-0.9276;
157.8000;0.0920;-0.9322;
158.1000;0.0936;-0.9299;
158.4000;0.0944;-0.9254;
158.7000;0.0928;-0.9276;
159.0000;0.0944;-0.9299;
159.3000;0.0952;-0.9208;
159.6000;0.0920;-0.9231;
159.9000;0.0912;-0.9276;
160.2000;0.1050;-0.8846;
160.5000;0.0847;-0.9367;
160.8000;0.0936;-0.9118;
161.1000;0.0936;-0.9208;
161.4000;0.0952;-0.9186;
161.7000;0.0928;-0.9276;
162.0000;0.0944;-0.9118;
162.3000;0.0928;-0.9050;
162.6000;0.0920;-0.9005;
162.9000;0.0928;-0.8982;
163.2000;0.0879;-0.9276;
163.5000;0.0912;-0.9231;
163.8000;0.0912;-0.9322;
164.1000;0.0912;-0.9322;
164.4000;0.0936;-0.9276;
164.7000;0.0936;-0.9299;
165.0000;0.0920;-0.9254;
165.3000;0.0944;-0.9118;
165.6000;0.0936;-0.9141;
165.9000;0.0912;-0.9231;
166.2000;0.0928;-0.9186;
166.5000;0.0838;-0.9503;
166.8000;0.0928;-0.9299;
167.1000;0.0920;-0.9412;
167.4000;0.0920;-0.9435;
167.7000;0.0944;-0.9389;
168.0000;0.0904;-0.9525;
168.3000;0.0952;-0.9276;
168.6000;0.0928;-0.9412;
168.9000;0.0912;-0.9367;
169.2000;0.0944;-0.9344;
169.5000;0.0879;-0.9457;
169.8000;0.0928;-0.9412;
170.1000;0.0944;-0.9367;
170.4000;0.0912;-0.9480;
170.7000;0.0920;-0.9412;
171.0000;0.0928;-0.9367;
171.3000;0.0969;-0.9254;
171.6000;0.0969;-0.9276;
171.9000;0.0920;-0.9435;
172.2000;0.0936;-0.9389;
172.5000;0.0928;-0.9389;
172.8000;0.0879;-0.9525;
173.1000;0.0928;-0.9412;
173.4000;0.0944;-0.9344;
173.7000;0.0928;-0.9344;
174.0000;0.0952;-0.9276;
174.3000;0.0969;-0.9344;
174.6000;0.0952;-0.9344;
174.9000;0.0928;-0.9412;
175.2000;0.0936;-0.9457;
175.5000;0.0912;-0.9503;
175.8000;0.0920;-0.9435;
176.1000;0.0920;-0.9457;
176.4000;0.0944;-0.9412;
176.7000;0.0936;-0.9435;
177.0000;0.0920;-0.9503;
177.3000;0.0920;-0.9480;
177.6000;0.0920;-0.9525;
177.9000;0.0952;-0.9457;
178.2000;0.0944;-0.9480;
178.5000;0.0928;-0.9503;
178.8000;0.0936;-0.9503;
179.1000;0.0855;-0.9729;
179.4000;0.0969;-0.9435;
179.7000;0.0936;-0.9457;
180.0000;0.0912;-0.9525;
180.3000;0.0928;-0.9457;
180.6000;0.0944;-0.9435;
180.9000;0.0928;-0.9412;
181.2000;0.0936;-0.9389;
181.5000;0.0904;-0.9367;
181.8000;0.0936;-0.9344;
182.1000;0.0863;-0.9616;
182.4000;0.1001;-0.9231;
182.7000;0.0928;-0.9367;
183.0000;0.0936;-0.9457;
183.3000;0.0944;-0.9367;
183.6000;0.0928;-0.9367;
183.9000;0.0928;-0.9457;
184.2000;0.1009;-0.9254;
184.5000;0.0879;-0.9593;
184.8000;0.0936;-0.9480;
185.1000;0.0961;-0.9367;
185.4000;0.0928;-0.9412;
185.7000;0.0952;-0.9367;
186.0000;0.0944;-0.9367;
186.3000;0.0920;-0.9525;
186.6000;0.0936;-0.9525;
186.9000;0.0936;-0.9503;
187.2000;0.0928;-0.9503;
187.5000;0.0920;-0.9480;
187.8000;0.0952;-0.9389;
188.1000;0.0952;-0.9344;
188.4000;0.0928;-0.9457;
188.7000;0.0928;-0.9412;
189.0000;0.0912;-0.9525;
189.3000;0.0928;-0.9525;
189.6000;0.0912;-0.9548;
189.9000;0.0920;-0.9503;
190.2000;0.0912;-0.9548;
190.5000;0.0928;-0.9525;
190.8000;0.0936;-0.9548;
191.1000;0.0895;-0.9616;
191.4000;0.0904;-0.9638;
191.7000;0.0928;-0.9638;
192.0000;0.0904;-0.9638;
192.3000;0.0920;-0.9548;
192.6000;0.0863;-0.9729;
192.9000;0.0936;-0.9548;
193.2000;0.0928;-0.9570;
193.5000;0.0912;-0.9684;
193.8000;0.0928;-0.9684;
194.1000;0.0912;-0.9706;
194.4000;0.0912;-0.9684;
194.7000;0.0969;-0.9412;
195.0000;0.0920;-0.9525;
195.3000;0.0928;-0.9457;
195.6000;0.0961;-0.9322;
195.9000;0.0912;-0.9435;
196.2000;0.0993;-0.9208;
196.5000;0.0920;-0.9367;
196.8000;0.0879;-0.9570;
197.1000;0.0936;-0.9389;
197.4000;0.0912;-0.9525;
197.7000;0.0928;-0.9367;
198.0000;0.0920;-0.9367;
198.3000;0.0936;-0.9322;
198.6000;0.1091;-0.9027;
198.9000;0.0944;-0.9367;
199.2000;0.0887;-0.9435;
199.5000;0.0952;-0.9344;
199.8000;0.0928;-0.9435;
200.1000;0.0936;-0.9412;
200.4000;0.1009;-0.9163;
200.7000;0.0920;-0.9322;
201.0000;0.1034;-0.9027;
201.3000;0.0936;-0.9367;
201.6000;0.1066;-0.9073;
201.9000;0.0936;-0.9367;
202.2000;0.0928;-0.9480;
202.5000;0.0928;-0.9548;
202.8000;0.0912;-0.9480;
203.1000;0.0969;-0.9435;
203.4000;0.0912;-0.9480;
203.7000;0.0944;-0.9457;
204.0000;0.0928;-0.9457;
204.3000;0.0887;-0.9548;
204.6000;0.0912;-0.9435;
204.9000;0.0936;-0.9299;
205.2000;0.0944;-0.9254;
205.5000;0.0895;-0.9322;
205.8000;0.0928;-0.9299;
206.1000;0.0944;-0.9299;
206.4000;0.0969;-0.9367;
206.7000;0.0920;-0.9435;
207.0000;0.0936;-0.9435;
207.3000;0.0936;-0.9457;
207.6000;0.0936;-0.9412;
207.9000;0.0920;-0.9503;
208.2000;0.0961;-0.9457;
208.5000;0.0952;-0.9503;
208.8000;0.0928;-0.9525;
209.1000;0.1009;-0.9322;
209.4000;0.0928;-0.9503;
209.7000;0.0936;-0.9435;
210.0000;0.0895;-0.9503;
210.3000;0.0830;-0.9638;
210.6000;0.0920;-0.9412;
210.9000;0.0928;-0.9344;
211.2000;0.0977;-0.9208;
211.5000;0.0912;-0.9367;
211.8000;0.0952;-0.9344;
212.1000;0.0920;-0.9412;
212.4000;0.0904;-0.9412;
212.7000;0.0936;-0.9412;
213.0000;0.0928;-0.9389;
213.3000;0.0912;-0.9503;
213.6000;0.0936;-0.9480;
213.9000;0.0920;-0.9435;
214.2000;0.0936;-0.9367;
214.5000;0.0887;-0.9548;
214.8000;0.0920;-0.9435;
215.1000;0.0912;-0.9457;
215.4000;0.0952;-0.9367;
215.7000;0.0969;-0.9186;
216.0000;0.0936;-0.9208;
216.3000;0.0928;-0.9299;
216.6000;0.0928;-0.9276;
216.9000;0.0912;-0.9367;
217.2000;0.0928;-0.9299;
217.5000;0.0912;-0.9412;
217.8000;0.0920;-0.9435;
218.1000;0.0904;-0.9525;
218.4000;0.0928;-0.9503;
218.7000;0.0961;-0.9480;
219.0000;0.0895;-0.9593;
219.3000;0.0912;-0.9570;
219.6000;0.0847;-0.9661;
219.9000;0.0944;-0.9276;
220.2000;0.0952;-0.9322;
220.5000;0.0928;-0.9412;
220.8000;0.0904;-0.9503;
221.1000;0.0936;-0.9503;
221.4000;0.0920;-0.9480;
221.7000;0.0863;-0.9638;
222.0000;0.0863;-0.9593;
222.3000;0.0977;-0.9367;
222.6000;0.0887;-0.9570;
222.9000;0.0969;-0.9389;
223.2000;0.0887;-0.9525;
223.5000;0.0887;-0.9593;
223.8000;0.0944;-0.9457;
224.1000;0.0920;-0.9480;
224.4000;0.0887;-0.9638;
224.7000;0.1034;-0.9344;
225.0000;0.0928;-0.9638;
225.3000;0.0993;-0.9435;
225.6000;0.0904;-0.9593;
225.9000;0.0912;-0.9548;
226.2000;0.0830;-0.9751;
226.5000;0.0895;-0.9593;
226.8000;0.0920;-0.9435;
227.1000;0.0773;-0.9819;
227.4000;0.0871;-0.9570;
227.7000;0.0952;-0.9435;
228.0000;0.0920;-0.9503;
228.3000;0.0961;-0.9412;
228.6000;0.0920;-0.9525;
228.9000;0.0928;-0.9457;
229.2000;0.0944;-0.9480;
229.5000;0.0855;-0.9751;
229.8000;0.0920;-0.9548;
230.1000;0.0944;-0.9367;
230.4000;0.0920;-0.9412;
230.7000;0.0936;-0.9480;
231.0000;0.0871;-0.9706;
231.3000;0.0928;-0.9435;
231.6000;0.0895;-0.9503;
231.9000;0.0928;-0.9457;
232.2000;0.0928;-0.9435;
232.5000;0.0920;-0.9435;
232.8000;0.0944;-0.9412;
233.1000;0.0928;-0.9480;
233.4000;0.0969;-0.9435;
233.7000;0.0944;-0.9480;
234.0000;0.0928;-0.9435;
234.3000;0.0920;-0.9367;
234.6000;0.0920;-0.9389;
234.9000;0.0928;-0.9480;
235.2000;0.0912;-0.9457;
235.5000;0.0936;-0.9412;
235.8000;0.0928;-0.9503;
236.1000;0.0936;-0.9412;
236.4000;0.0936;-0.9457;
236.7000;0.0936;-0.9525;
237.0000;0.0928;-0.9548;
237.3000;0.0928;-0.9548;
237.6000;0.0879;-0.9661;
237.9000;0.0928;-0.9548;
238.2000;0.0904;-0.9593;
238.5000;0.1018;-0.9299;
238.8000;0.0944;-0.9435;
239.1000;0.0936;-0.9457;
239.4000;0.0944;-0.9389;
239.7000;0.0928;-0.9389;
240.0000;0.0928;-0.9367;
240.3000;0.0895;-0.9503;
240.6000;0.0879;-0.9548;
240.9000;0.0920;-0.9367;
241.2000;0.0912;-0.9412;
241.5000;0.0920;-0.9344;
241.8000;0.0920;-0.9389;
242.1000;0.0895;-0.9457;
242.4000;0.0895;-0.9457;
242.7000;0.0928;-0.9344;
243.0000;0.0904;-0.9435;
243.3000;0.0936;-0.9367;
243.6000;0.0798;-0.9774;
243.9000;0.0920;-0.9525;
244.2000;0.0952;-0.9480;
244.5000;0.0830;-0.9684;
244.8000;0.0920;-0.9525;
245.1000;0.0920;-0.9480;
245.4000;0.0879;-0.9684;
245.7000;0.0863;-0.9729;
246.0000;0.0985;-0.9435;
246.3000;0.0895;-0.9797;
246.6000;0.0904;-0.9706;
246.9000;0.0920;-0.9616;
247.2000;0.0952;-0.9435;
247.5000;0.0879;-0.9548;
247.8000;0.0928;-0.9435;
248.1000;0.0936;-0.9322;
248.4000;0.0928;-0.9276;
248.7000;0.0944;-0.9254;
249.0000;0.0928;-0.9457;
249.3000;0.0920;-0.9480;
249.6000;0.0920;-0.9480;
249.9000;0.0961;-0.9457;
250.2000;0.0944;-0.9457;
250.5000;0.0977;-0.9389;
250.8000;0.0855;-0.9616;
251.1000;0.0993;-0.9231;
251.4000;0.0863;-0.9525;
251.7000;0.0904;-0.9344;
252.0000;0.0928;-0.9344;
252.3000;0.0952;-0.9299;
252.6000;0.0936;-0.9322;
252.9000;0.0920;-0.9389;
253.2000;0.0928;-0.9412;
253.5000;0.0928;-0.9435;
253.8000;0.0928;-0.9457;
254.1000;0.0912;-0.9548;
254.4000;0.0928;-0.9593;
254.7000;0.0952;-0.9525;
255.0000;0.0895;-0.9684;
255.3000;0.0920;-0.9684;
255.6000;0.0928;-0.9616;
255.9000;0.0920;-0.9593;
256.2000;0.0912;-0.9593;
256.5000;0.0912;-0.9570;
256.8000;0.0928;-0.9503;
257.1000;0.0920;-0.9503;
257.4000;0.0895;-0.9570;
257.7000;0.0928;-0.9503;
258.0000;0.0952;-0.9480;
258.3000;0.0936;-0.9389;
258.6000;0.0912;-0.9480;
258.9000;0.0952;-0.9389;
259.2000;0.0961;-0.9299;
259.5000;0.0944;-0.9344;
259.8000;0.0920;-0.9322;
260.1000;0.0944;-0.9254;
260.4000;0.0961;-0.9208;
260.7000;0.0936;-0.9186;
261.0000;0.0928;-0.9186;
261.3000;0.0928;-0.9276;
261.6000;0.0920;-0.9389;
261.9000;0.0912;-0.9389;
262.2000;0.0952;-0.9322;
262.5000;0.0920;-0.9367;
262.8000;0.0928;-0.9344;
263.1000;0.0952;-0.9322;
263.4000;0.0952;-0.9389;
263.7000;0.0920;-0.9457;
264.0000;0.0895;-0.9570;
264.3000;0.0887;-0.9503;
264.6000;0.0952;-0.9299;
264.9000;0.0928;-0.9389;
265.2000;0.0904;-0.9457;
265.5000;0.0895;-0.9503;
265.8000;0.0936;-0.9367;
266.1000;0.0904;-0.9503;
266.4000;0.0936;-0.9344;
266.7000;0.0920;-0.9367;
267.0000;0.0887;-0.9389;
267.3000;0.0920;-0.9299;
267.6000;0.0944;-0.9118;
267.9000;0.1074;-0.8869;
268.2000;0.1009;-0.9073;
268.5000;0.0928;-0.9344;
268.8000;0.0928;-0.9344;
269.1000;0.0944;-0.9344;
269.4000;0.0936;-0.9412;
269.7000;0.0936;-0.9367;
270.0000;0.0928;-0.9435;
270.3000;0.0928;-0.9389;
270.6000;0.0912;-0.9367;
270.9000;0.0928;-0.9389;
271.2000;0.0920;-0.9412;
271.5000;0.0912;-0.9412;
271.8000;0.0912;-0.9344;
272.1000;0.0936;-0.9163;
272.4000;0.0895;-0.9322;
272.7000;0.0904;-0.9299;
273.0000;0.0838;-0.9503;
273.3000;0.0961;-0.9276;
273.6000;0.0887;-0.9367;
273.9000;0.0936;-0.9231;
274.2000;0.0944;-0.9208;
274.5000;0.0944;-0.9208;
274.8000;0.0912;-0.9322;
275.1000;0.0928;-0.9299;
275.4000;0.0928;-0.9276;
275.7000;0.0904;-0.9367;
276.0000;0.0912;-0.9389;
276.3000;0.0993;-0.9208;
276.6000;0.0928;-0.9344;
276.9000;0.0928;-0.9367;
277.2000;0.0895;-0.9480;
277.5000;0.0887;-0.9480;
277.8000;0.0887;-0.9412;
278.1000;0.0790;-0.9729;
278.4000;0.0928;-0.9389;
278.7000;0.0944;-0.9254;
279.0000;0.0904;-0.9344;
279.3000;0.1042;-0.8982;
279.6000;0.0936;-0.9208;
279.9000;0.0920;-0.9389;
280.2000;0.0969;-0.9322;
280.5000;0.0879;-0.9503;
280.8000;0.0912;-0.9412;
281.1000;0.0920;-0.9322;
281.4000;0.0904;-0.9344;
281.7000;0.0912;-0.9322;
282.0000;0.0928;-0.9276;
282.3000;0.0928;-0.9276;
282.6000;0.0904;-0.9344;
282.9000;0.0912;-0.9322;
283.2000;0.0944;-0.9322;
283.5000;0.0952;-0.9322;
283.8000;0.0904;-0.9457;
284.1000;0.0928;-0.9367;
284.4000;0.1001;-0.9163;
284.7000;0.0936;-0.9412;
285.0000;0.0928;-0.9367;
285.3000;0.0904;-0.9322;
285.6000;0.0838;-0.9525;
285.9000;0.0879;-0.9412;
286.2000;0.0920;-0.9276;
286.5000;0.0904;-0.9344;
286.8000;0.0920;-0.9254;
287.1000;0.0920;-0.9208;
287.4000;0.0904;-0.9367;
287.7000;0.0928;-0.9435;
288.0000;0.0904;-0.9457;
288.3000;0.0944;-0.9344;
288.6000;0.0952;-0.9276;
288.9000;0.0944;-0.9276;
289.2000;0.0936;-0.9322;
289.5000;0.0944;-0.9254;
289.8000;0.1050;-0.9027;
290.1000;0.0944;-0.9276;
290.4000;0.0904;-0.9367;
290.7000;0.0912;-0.9367;
291.0000;0.0895;-0.9389;
291.3000;0.0895;-0.9457;
291.6000;0.0936;-0.9480;
291.9000;0.0928;-0.9503;
292.2000;0.0993;-0.9276;
292.5000;0.0928;-0.9412;
292.8000;0.0912;-0.9480;
293.1000;0.0936;-0.9389;
293.4000;0.0895;-0.9570;
293.7000;0.0936;-0.9593;
294.0000;0.0944;-0.9525;
294.3000;0.0928;-0.9480;
294.6000;0.1034;-0.9186;
294.9000;0.0920;-0.9435;
295.2000;0.0936;-0.9412;
295.5000;0.0879;-0.9616;
295.8000;0.0912;-0.9616;
296.1000;0.0920;-0.9570;
296.4000;0.0952;-0.9457;
296.7000;0.0920;-0.9503;
297.0000;0.0920;-0.9457;
297.3000;0.0912;-0.9412;
297.6000;0.0928;-0.9389;
297.9000;0.0838;-0.9638;
298.2000;0.0912;-0.9480;
298.5000;0.0936;-0.9412;
298.8000;0.0952;-0.9389;
299.1000;0.0944;-0.9389;
299.4000;0.0912;-0.9457;
299.7000;0.0936;-0.9435;
300.0000;0.0936;-0.9389;
300.3000;0.1018;-0.9163;
300.6000;0.0952;-0.9389;
300.9000;0.0977;-0.9276;
301.2000;0.0928;-0.9367;
301.5000;0.0952;-0.9254;
301.8000;0.0920;-0.9299;
302.1000;0.1009;-0.9141;
302.4000;0.0952;-0.9389;
302.7000;0.0944;-0.9367;
303.0000;0.0830;-0.9638;
303.3000;0.0863;-0.9638;
303.6000;0.0936;-0.9570;
303.9000;0.0961;-0.9503;
304.2000;0.0928;-0.9570;
304.5000;0.0912;-0.9548;
304.8000;0.0936;-0.9412;
305.1000;0.0920;-0.9322;
305.4000;0.0936;-0.9276;
305.7000;0.0912;-0.9254;
306.0000;0.0928;-0.9141;
306.3000;0.0928;-0.9254;
306.6000;0.0936;-0.9322;
306.9000;0.0936;-0.9412;
307.2000;0.0928;-0.9503;
307.5000;0.0928;-0.9503;
307.8000;0.0912;-0.9412;
308.1000;0.0936;-0.9367;
308.4000;0.0912;-0.9389;
308.7000;0.0904;-0.9412;
309.0000;0.0895;-0.9525;
309.3000;0.0969;-0.9389;
309.6000;0.0936;-0.9480;
309.9000;0.0895;-0.9570;
310.2000;0.0920;-0.9525;
310.5000;0.0944;-0.9435;
310.8000;0.0944;-0.9412;
311.1000;0.0936;-0.9389;
311.4000;0.0838;-0.9570;
311.7000;0.0944;-0.9344;
312.0000;0.0928;-0.9457;
312.3000;0.0944;-0.9412;
312.6000;0.0985;-0.9322;
312.9000;0.0920;-0.9548;
313.2000;0.0936;-0.9457;
313.5000;0.0895;-0.9638;
313.8000;0.1001;-0.9367;
314.1000;0.0920;-0.9525;
314.4000;0.0928;-0.9480;
314.7000;0.0928;-0.9525;
315.0000;0.0912;-0.9616;
315.3000;0.0928;-0.9548;
315.6000;0.0912;-0.9525;
315.9000;0.0887;-0.9616;
316.2000;0.0920;-0.9548;
316.5000;0.0855;-0.9729;
316.8000;0.0887;-0.9616;
317.1000;0.0928;-0.9548;
317.4000;0.0928;-0.9525;
317.7000;0.0798;-0.9797;
318.0000;0.0969;-0.9344;
318.3000;0.0920;-0.9548;
318.6000;0.0895;-0.9684;
318.9000;0.1018;-0.9322;
319.2000;0.1001;-0.9276;
319.5000;0.0936;-0.9457;
319.8000;0.0920;-0.9480;
320.1000;0.0944;-0.9457;
320.4000;0.0936;-0.9503;
320.7000;0.0895;-0.9503;
321.0000;0.0928;-0.9344;
321.3000;0.0952;-0.9231;
321.6000;0.0928;-0.9344;
321.9000;0.0944;-0.9344;
322.2000;0.0928;-0.9322;
322.5000;0.0944;-0.9208;
322.8000;0.0912;-0.9299;
323.1000;0.0928;-0.9322;
323.4000;0.0936;-0.9480;
323.7000;0.0904;-0.9616;
324.0000;0.0928;-0.9570;
324.3000;0.0863;-0.9661;
324.6000;0.0895;-0.9503;
324.9000;0.0920;-0.9525;
325.2000;0.0944;-0.9503;
325.5000;0.0944;-0.9457;
325.8000;0.0904;-0.9480;
326.1000;0.0944;-0.9322;
326.4000;0.0944;-0.9299;
326.7000;0.0944;-0.9299;
327.0000;0.0985;-0.9231;
327.3000;0.0936;-0.9322;
327.6000;0.0920;-0.9389;
327.9000;0.0920;-0.9435;
328.2000;0.0952;-0.9367;
328.5000;0.0928;-0.9435;
328.8000;0.0928;-0.9480;
329.1000;0.0920;-0.9367;
329.4000;0.0961;-0.9254;
329.7000;0.0928;-0.9299;
330.0000;0.0928;-0.9344;
330.3000;0.0904;-0.9503;
330.6000;0.1001;-0.9163;
330.9000;0.0920;-0.9367;
331.2000;0.0912;-0.9457;
331.5000;0.0912;-0.9457;
331.8000;0.0920;-0.9457;
332.1000;0.0928;-0.9367;
332.4000;0.0904;-0.9435;
332.7000;0.0920;-0.9389;
333.0000;0.0928;-0.9389;
333.3000;0.0952;-0.9231;
333.6000;0.0928;-0.9367;
333.9000;0.0952;-0.9322;
334.2000;0.0936;-0.9276;
334.5000;0.0936;-0.9254;
334.8000;0.0928;-0.9231;
335.1000;0.0904;-0.9412;
335.4000;0.0985;-0.9254;
335.7000;0.0936;-0.9435;
336.0000;0.0912;-0.9480;
336.3000;0.0912;-0.9548;
336.6000;0.0928;-0.9503;
336.9000;0.0944;-0.9389;
337.2000;0.0887;-0.9525;
337.5000;0.0904;-0.9435;
337.8000;0.0928;-0.9457;
338.1000;0.0806;-0.9797;
338.4000;0.0847;-0.9616;
338.7000;0.0920;-0.9412;
339.0000;0.0961;-0.9322;
339.3000;0.0895;-0.9480;
339.6000;0.0912;-0.9480;
339.9000;0.0961;-0.9322;
340.2000;0.0977;-0.9276;
340.5000;0.0944;-0.9389;
340.8000;0.0928;-0.9480;
341.1000;0.0944;-0.9480;
341.4000;0.0952;-0.9435;
341.7000;0.0936;-0.9457;
342.0000;0.0912;-0.9480;
342.3000;0.0936;-0.9412;
342.6000;0.0936;-0.9367;
342.9000;0.0904;-0.9367;
343.2000;0.0928;-0.9231;
343.5000;0.0944;-0.9299;
343.8000;0.0977;-0.9276;
344.1000;0.0920;-0.9503;
344.4000;0.0961;-0.9299;
344.7000;0.0928;-0.9367;
345.0000;0.0952;-0.9231;
345.3000;0.0944;-0.9208;
345.6000;0.0961;-0.9231;
345.9000;0.0944;-0.9163;
346.2000;0.0928;-0.9163;
346.5000;0.0904;-0.9141;
346.8000;0.0912;-0.9141;
347.1000;0.0944;-0.9095;
347.4000;0.0928;-0.9095;
347.7000;0.0920;-0.9231;
348.0000;0.0936;-0.9299;
348.3000;0.0952;-0.9254;
348.6000;0.0944;-0.9254;
348.9000;0.0928;-0.9367;
349.2000;0.0944;-0.9389;
349.5000;0.0895;-0.9525;
349.8000;0.0928;-0.9457;
350.1000;0.0944;-0.9435;
350.4000;0.0912;-0.9638;
350.7000;0.0944;-0.9593;
351.0000;0.0887;-0.9751;
351.3000;0.0904;-0.9729;
351.6000;0.0912;-0.9684;
351.9000;0.0944;-0.9638;
352.2000;0.0912;-0.9729;
352.5000;0.0920;-0.9661;
352.8000;0.0928;-0.9593;
353.1000;0.0985;-0.9367;
353.4000;0.0920;-0.9480;
353.7000;0.0969;-0.9322;
354.0000;0.0952;-0.9299;
354.3000;0.0912;-0.9367;
354.6000;0.0928;-0.9344;
354.9000;0.0936;-0.9344;
355.2000;0.0912;-0.9389;
355.5000;0.0936;-0.9322;
355.8000;0.0952;-0.9367;
356.1000;0.0912;-0.9435;
356.4000;0.1018;-0.9186;
356.7000;0.0912;-0.9435;
357.0000;0.0936;-0.9435;
357.3000;0.0969;-0.9389;
357.6000;0.0920;-0.9367;
357.9000;0.0936;-0.9208;
358.2000;0.0928;-0.9163;
358.5000;0.0961;-0.9050;
358.8000;0.0944;-0.9095;
359.1000;0.0936;-0.9095;
359.4000;0.0936;-0.9050;
359.7000;0.0928;-0.9141;
360.0000;0.0969;-0.9027;
360.3000;0.0944;-0.9163;
360.6000;0.0944;-0.9231;
360.9000;0.0936;-0.9322;
361.2000;0.0912;-0.9389;
361.5000;0.0936;-0.9389;
361.8000;0.0904;-0.9503;
362.1000;0.0895;-0.9525;
362.4000;0.0822;-0.9729;
362.7000;0.0928;-0.9548;
363.0000;0.1009;-0.9299;
363.3000;0.0920;-0.9548;
363.6000;0.0928;-0.9480;
363.9000;0.0961;-0.9322;
364.2000;0.0936;-0.9435;
364.5000;0.0904;-0.9480;
364.8000;0.0928;-0.9367;
365.1000;0.0847;-0.9616;
365.4000;0.0912;-0.9570;
365.7000;0.0912;-0.9525;
366.0000;0.1001;-0.9367;
366.3000;0.0928;-0.9503;
366.6000;0.0928;-0.9480;
366.9000;0.0912;-0.9548;
367.2000;0.0830;-0.9638;
367.5000;0.0928;-0.9322;
367.8000;0.0920;-0.9344;
368.1000;0.0895;-0.9389;
368.4000;0.0920;-0.9503;
368.7000;0.0944;-0.9435;
369.0000;0.0912;-0.9525;
369.3000;0.0936;-0.9457;
369.6000;0.0952;-0.9435;
369.9000;0.0944;-0.9593;
370.2000;0.0928;-0.9684;
370.5000;0.0977;-0.9638;
370.8000;0.0920;-0.9842;
371.1000;0.0920;-0.9842;
371.4000;0.0944;-0.9797;
371.7000;0.0952;-0.9797;
372.0000;0.0912;-0.9887;
372.3000;0.0936;-0.9842;
372.6000;0.0928;-0.9819;
372.9000;0.0920;-0.9774;
373.2000;0.0936;-0.9570;
373.5000;0.0928;-0.9570;
373.8000;0.0928;-0.9570;
374.1000;0.0944;-0.9548;
374.4000;0.0928;-0.9503;
374.7000;0.0920;-0.9503;
375.0000;0.0936;-0.9344;
375.3000;0.0863;-0.9570;
375.6000;0.0895;-0.9480;
375.9000;0.0936;-0.9435;
376.2000;0.0847;-0.9638;
376.5000;0.0863;-0.9570;
376.8000;0.0920;-0.9503;
377.1000;0.0952;-0.9480;
377.4000;0.0928;-0.9570;
377.7000;0.0920;-0.9548;
378.0000;0.0920;-0.9503;
378.3000;0.0936;-0.9389;
378.6000;0.0912;-0.9457;
378.9000;0.0952;-0.9435;
379.2000;0.0928;-0.9525;
379.5000;0.0904;-0.9548;
379.8000;0.0944;-0.9548;
380.1000;0.0912;-0.9616;
380.4000;0.0920;-0.9638;
380.7000;0.0920;-0.9638;
381.0000;0.0928;-0.9570;
381.3000;0.0961;-0.9570;
381.6000;0.0920;-0.9638;
381.9000;0.0912;-0.9684;
382.2000;0.0904;-0.9661;
382.5000;0.0895;-0.9706;
382.8000;0.0936;-0.9661;
383.1000;0.1001;-0.9389;
383.4000;0.0928;-0.9548;
383.7000;0.0961;-0.9570;
384.0000;0.0936;-0.9616;
384.3000;0.0920;-0.9548;
384.6000;0.0912;-0.9570;
384.9000;0.0944;-0.9457;
385.2000;0.0928;-0.9480;
385.5000;0.0936;-0.9480;
385.8000;0.0887;-0.9638;
386.1000;0.0912;-0.9638;
386.4000;0.0895;-0.9638;
386.7000;0.0920;-0.9570;
387.0000;0.0920;-0.9548;
387.3000;0.0912;-0.9616;
387.6000;0.0961;-0.9548;
387.9000;0.0920;-0.9661;
388.2000;0.1018;-0.9412;
388.5000;0.0928;-0.9684;
388.8000;0.0944;-0.9638;
389.1000;0.0920;-0.9774;
389.4000;0.0912;-0.9729;
389.7000;0.0920;-0.9616;
390.0000;0.0912;-0.9593;
390.3000;0.0944;-0.9661;
390.6000;0.0952;-0.9548;
390.9000;0.0993;-0.9503;
391.2000;0.1034;-0.9367;
391.5000;0.0912;-0.9570;
391.8000;0.0936;-0.9548;
392.1000;0.0904;-0.9435;
392.4000;0.0936;-0.9435;
392.7000;0.0936;-0.9457;
393.0000;0.0855;-0.9638;
393.3000;0.0838;-0.9661;
393.6000;0.0928;-0.9525;
393.9000;0.0952;-0.9480;
394.2000;0.0871;-0.9638;
394.5000;0.0830;-0.9751;
394.8000;0.0944;-0.9548;
395.1000;0.0952;-0.9503;
395.4000;0.0952;-0.9503;
395.7000;0.0912;-0.9548;
396.0000;0.0928;-0.9548;
396.3000;0.1042;-0.9231;
396.6000;0.0895;-0.9570;
396.9000;0.0904;-0.9570;
397.2000;0.0895;-0.9480;
397.5000;0.0871;-0.9570;
397.8000;0.0920;-0.9435;
398.1000;0.0920;-0.9435;
398.4000;0.0871;-0.9525;
398.7000;0.0936;-0.9367;
399.0000;0.0936;-0.9389;
399.3000;0.0936;-0.9412;
399.6000;0.0920;-0.9435;
399.9000;0.0928;-0.9503;
400.2000;0.0944;-0.9525;
400.5000;0.0920;-0.9503;
400.8000;0.0912;-0.9503;
401.1000;0.0920;-0.9548;
401.4000;0.0847;-0.9729;
401.7000;0.0928;-0.9548;
402.0000;0.0936;-0.9593;
402.3000;0.0904;-0.9706;
402.6000;0.0928;-0.9638;
402.9000;0.0912;-0.9525;
403.2000;0.0936;-0.9389;
403.5000;0.0912;-0.9435;
403.8000;0.0838;-0.9570;
404.1000;0.0904;-0.9389;
404.4000;0.0952;-0.9322;
404.7000;0.0920;-0.9480;
405.0000;0.0912;-0.9593;
405.3000;0.0928;-0.9435;
405.6000;0.0806;-0.9570;
405.9000;0.0863;-0.9457;
406.2000;0.0928;-0.9276;
406.5000;0.0928;-0.9367;
406.8000;0.0928;-0.9367;
407.1000;0.0928;-0.9412;
407.4000;0.0928;-0.9435;
407.7000;0.0920;-0.9435;
408.0000;0.0920;-0.9457;
408.3000;0.0969;-0.9344;
408.6000;0.0944;-0.9435;
408.9000;0.0936;-0.9457;
409.2000;0.0830;-0.9638;
409.5000;0.1001;-0.9231;
409.8000;0.0944;-0.9389;
410.1000;0.0928;-0.9457;
410.4000;0.0920;-0.9525;
410.7000;0.0936;-0.9503;
411.0000;0.0936;-0.9616;
411.3000;0.0912;-0.9684;
411.6000;0.0961;-0.9616;
411.9000;0.0944;-0.9525;
412.2000;0.0928;-0.9570;
412.5000;0.0936;-0.9503;
412.8000;0.0895;-0.9593;
413.1000;0.0936;-0.9480;
413.4000;0.0920;-0.9593;
413.7000;0.0920;-0.9503;
414.0000;0.0928;-0.9480;
414.3000;0.0928;-0.9435;
414.6000;0.0920;-0.9480;
414.9000;0.0961;-0.9435;
415.2000;0.0912;-0.9548;
415.5000;0.0928;-0.9503;
415.8000;0.0912;-0.9548;
416.1000;0.0952;-0.9480;
416.4000;0.0920;-0.9503;
416.7000;0.0936;-0.9367;
417.0000;0.0952;-0.9344;
417.3000;0.0928;-0.9367;
417.6000;0.0928;-0.9389;
417.9000;0.0912;-0.9389;
418.2000;0.0928;-0.9412;
418.5000;0.0936;-0.9367;
418.8000;0.0928;-0.9389;
419.1000;0.0895;-0.9412;
419.4000;0.0920;-0.9186;
419.7000;0.0936;-0.9141;
420.0000;0.0928;-0.9231;
420.3000;0.0977;-0.9208;
420.6000;0.0920;-0.9412;
420.9000;0.0920;-0.9367;
421.2000;0.0904;-0.9412;
421.5000;0.0928;-0.9367;
421.8000;0.0928;-0.9435;
422.1000;0.0952;-0.9344;
422.4000;0.0920;-0.9457;
422.7000;0.0928;-0.9480;
423.0000;0.0936;-0.9480;
423.3000;0.0838;-0.9751;
423.6000;0.0928;-0.9525;
423.9000;0.0928;-0.9480;
424.2000;0.0944;-0.9480;
424.5000;0.0944;-0.9570;
424.8000;0.0944;-0.9593;
425.1000;0.0928;-0.9616;
425.4000;0.0928;-0.9684;
425.7000;0.0904;-0.9570;
426.0000;0.0928;-0.9525;
426.3000;0.0944;-0.9525;
426.6000;0.0798;-0.9887;
426.9000;0.0904;-0.9593;
427.2000;0.0912;-0.9503;
427.5000;0.0920;-0.9503;
427.8000;0.0904;-0.9525;
428.1000;0.0944;-0.9525;
428.4000;0.0936;-0.9593;
428.7000;0.0912;-0.9503;
429.0000;0.0912;-0.9503;
429.3000;0.0944;-0.9412;
429.6000;0.0887;-0.9503;
429.9000;0.0871;-0.9480;
430.2000;0.0912;-0.9435;
430.5000;0.0936;-0.9412;
430.8000;0.0912;-0.9525;
431.1000;0.0936;-0.9503;
431.4000;0.0912;-0.9525;
431.7000;0.0887;-0.9570;
432.0000;0.0879;-0.9593;
432.3000;0.0969;-0.9299;
432.6000;0.0928;-0.9389;
432.9000;0.0920;-0.9389;
433.2000;0.1050;-0.9073;
433.5000;0.0887;-0.9503;
433.8000;0.0928;-0.9457;
434.1000;0.1001;-0.9322;
434.4000;0.0936;-0.9457;
434.7000;0.0871;-0.9616;
435.0000;0.0904;-0.9548;
435.3000;0.0822;-0.9706;
435.6000;0.0912;-0.9548;
435.9000;0.0936;-0.9435;
436.2000;0.1001;-0.9254;
436.5000;0.0912;-0.9457;
436.8000;0.0904;-0.9435;
437.1000;0.0904;-0.9389;
437.4000;0.0961;-0.9344;
437.7000;0.0928;-0.9457;
438.0000;0.0936;-0.9457;
438.3000;0.0936;-0.9457;
438.6000;0.0920;-0.9503;
438.9000;0.0912;-0.9525;
439.2000;0.0904;-0.9457;
439.5000;0.0920;-0.9503;
439.8000;0.0920;-0.9480;
440.1000;0.0912;-0.9503;
440.4000;0.0920;-0.9457;
440.7000;0.0936;-0.9435;
441.0000;0.0928;-0.9525;
441.3000;0.0912;-0.9616;
441.6000;0.0936;-0.9593;
441.9000;0.0928;-0.9593;
442.2000;0.0928;-0.9548;
442.5000;0.0944;-0.9435;
442.8000;0.0944;-0.9435;
443.1000;0.0904;-0.9480;
443.4000;0.1034;-0.9231;
443.7000;0.0961;-0.9503;
444.0000;0.0920;-0.9525;
444.3000;0.0936;-0.9389;
444.6000;0.0936;-0.9344;
444.9000;0.0936;-0.9389;
445.2000;0.0920;-0.9344;
445.5000;0.0936;-0.9322;
445.8000;0.0952;-0.9299;
446.1000;0.0920;-0.9344;
446.4000;0.0969;-0.9231;
446.7000;0.0887;-0.9435;
447.0000;0.0912;-0.9344;
447.3000;0.0944;-0.9231;
447.6000;0.0961;-0.9254;
447.9000;0.0920;-0.9367;
448.2000;0.0928;-0.9299;
448.5000;0.0920;-0.9412;
448.8000;0.0928;-0.9412;
449.1000;0.0936;-0.9503;
449.4000;0.0912;-0.9638;
449.7000;0.0928;-0.9570;
450.0000;0.0944;-0.9480;
450.3000;0.0952;-0.9389;
450.6000;0.0928;-0.9367;
450.9000;0.0928;-0.9367;
451.2000;0.0961;-0.9322;
451.5000;0.0912;-0.9412;
451.8000;0.0904;-0.9480;
452.1000;0.0904;-0.9435;
452.4000;0.0928;-0.9276;
452.7000;0.0928;-0.9276;
453.0000;0.0944;-0.9344;
453.3000;0.0928;-0.9412;
453.6000;0.0944;-0.9367;
453.9000;0.0952;-0.9389;
454.2000;0.0928;-0.9412;
454.5000;0.0904;-0.9503;
454.8000;0.0936;-0.9548;
455.1000;0.0920;-0.9638;
455.4000;0.0871;-0.9729;
455.7000;0.0920;-0.9638;
456.0000;0.0863;-0.9751;
456.3000;0.0969;-0.9480;
456.6000;0.0904;-0.9706;
456.9000;0.0920;-0.9638;
457.2000;0.0904;-0.9684;
457.5000;0.0920;-0.9661;
457.8000;0.0961;-0.9570;
458.1000;0.0920;-0.9684;
458.4000;0.1009;-0.9435;
458.7000;0.0920;-0.9593;
459.0000;0.0961;-0.9457;
459.3000;0.0920;-0.9570;
459.6000;0.0920;-0.9616;
459.9000;0.0928;-0.9593;
460.2000;0.0895;-0.9638;
460.5000;0.0912;-0.9638;
460.8000;0.0936;-0.9684;
461.1000;0.0904;-0.9706;
461.4000;0.0895;-0.9774;
461.7000;0.0928;-0.9706;
462.0000;0.0920;-0.9729;
462.3000;0.0920;-0.9706;
462.6000;0.0920;-0.9661;
462.9000;0.0928;-0.9503;
463.2000;0.0928;-0.9503;
463.5000;0.0904;-0.9548;
463.8000;0.0944;-0.9435;
464.1000;0.0928;-0.9412;
464.4000;0.0920;-0.9570;
464.7000;0.0920;-0.9638;
465.0000;0.0928;-0.9548;
465.3000;0.0944;-0.9480;
465.6000;0.0952;-0.9480;
465.9000;0.0912;-0.9570;
466.2000;0.0944;-0.9548;
466.5000;0.0822;-0.9910;
466.8000;0.0936;-0.9661;
467.1000;0.0944;-0.9638;
467.4000;0.0912;-0.9684;
467.7000;0.0904;-0.9684;
468.0000;0.0904;-0.9706;
468.3000;0.0928;-0.9661;
468.6000;0.0952;-0.9661;
468.9000;0.0952;-0.9706;
469.2000;0.0936;-0.9684;
469.5000;0.0887;-0.9842;
469.8000;0.0912;-0.9797;
470.1000;0.0920;-0.9751;
470.4000;0.0879;-0.9887;
470.7000;0.0936;-0.9661;
471.0000;0.0928;-0.9684;
471.3000;0.0904;-0.9729;
471.6000;0.0944;-0.9661;
471.9000;0.0920;-0.9729;
472.2000;0.0904;-0.9729;
472.5000;0.0838;-0.9887;
472.8000;0.0928;-0.9729;
473.1000;0.0928;-0.9729;
473.4000;0.0904;-0.9751;
473.7000;0.0936;-0.9684;
474.0000;0.0952;-0.9525;
474.3000;0.0952;-0.9503;
474.6000;0.0928;-0.9593;
474.9000;0.0920;-0.9706;
475.2000;0.0920;-0.9684;
475.5000;0.0944;-0.9480;
475.8000;0.0936;-0.9548;
476.1000;0.0798;-0.9955;
476.4000;0.0879;-0.9684;
476.7000;0.0895;-0.9548;
477.0000;0.1001;-0.9299;
477.3000;0.0936;-0.9435;
477.6000;0.0912;-0.9435;
477.9000;0.0928;-0.9480;
478.2000;0.0936;-0.9457;
478.5000;0.0912;-0.9435;
478.8000;0.0920;-0.9435;
479.1000;0.0920;-0.9503;
479.4000;0.0920;-0.9525;
479.7000;0.0936;-0.9503;
480.0000;0.0936;-0.9548;
480.3000;0.0969;-0.9412;
480.6000;0.0912;-0.9593;
480.9000;0.0904;-0.9616;
481.2000;0.0863;-0.9729;
481.5000;0.0920;-0.9570;
481.8000;0.0920;-0.9616;
482.1000;0.0928;-0.9638;
482.4000;0.0928;-0.9684;
482.7000;0.0920;-0.9661;
483.0000;0.1026;-0.9412;
483.3000;0.0936;-0.9684;
483.6000;0.0928;-0.9684;
483.9000;0.0928;-0.9684;
484.2000;0.0928;-0.9751;
484.5000;0.0944;-0.9616;
484.8000;0.0928;-0.9525;
485.1000;0.0936;-0.9503;
485.4000;0.0928;-0.9525;
485.7000;0.0912;-0.9661;
486.0000;0.0920;-0.9570;
486.3000;0.0920;-0.9548;
486.6000;0.0928;-0.9638;
486.9000;0.0936;-0.9616;
487.2000;0.0912;-0.9661;
487.5000;0.0904;-0.9797;
487.8000;0.0920;-0.9684;
488.1000;0.0928;-0.9616;
488.4000;0.0887;-0.9751;
488.7000;0.0814;-0.9955;
489.0000;0.0912;-0.9661;
489.3000;0.0781;-1.0023;
489.6000;0.0920;-0.9684;
489.9000;0.0879;-0.9797;
490.2000;0.0928;-0.9684;
490.5000;0.0928;-0.9751;
490.8000;0.0969;-0.9729;
491.1000;0.0936;-0.9751;
491.4000;0.0936;-0.9661;
491.7000;0.0920;-0.9706;
492.0000;0.0936;-0.9684;
492.3000;0.0920;-0.9729;
492.6000;0.0895;-0.9706;
492.9000;0.0920;-0.9706;
493.2000;0.0912;-0.9751;
493.5000;0.0912;-0.9797;
493.8000;0.0904;-0.9819;
494.1000;0.0936;-0.9661;
494.4000;0.0920;-0.9638;
494.7000;0.0936;-0.9503;
495.0000;0.0944;-0.9480;
495.3000;0.0944;-0.9435;
495.6000;0.0944;-0.9412;
495.9000;0.0961;-0.9344;
496.2000;0.0904;-0.9503;
496.5000;0.0952;-0.9435;
496.8000;0.0928;-0.9503;
497.1000;0.0944;-0.9435;
497.4000;0.0904;-0.9503;
497.7000;0.0920;-0.9367;
498.0000;0.0920;-0.9389;
498.3000;0.0928;-0.9389;
498.6000;0.0879;-0.9525;
498.9000;0.0904;-0.9435;
499.2000;0.0928;-0.9367;
499.5000;0.0920;-0.9299;
499.8000;0.0904;-0.9344;
500.1000;0.0920;-0.9344;
500.4000;0.0904;-0.9367;
500.7000;0.0928;-0.9299;
501.0000;0.0944;-0.9276;
501.3000;0.0928;-0.9367;
501.6000;0.0920;-0.9435;
501.9000;0.0887;-0.9457;
502.2000;0.0920;-0.9389;
502.5000;0.0936;-0.9457;
502.8000;0.0912;-0.9480;
503.1000;0.0944;-0.9435;
503.4000;0.0952;-0.9389;
503.7000;0.0895;-0.9570;
504.0000;0.0928;-0.9593;
504.3000;0.0920;-0.9616;
504.6000;0.0928;-0.9435;
504.9000;0.0928;-0.9435;
505.2000;0.0928;-0.9480;
505.5000;0.0993;-0.9322;
505.8000;0.0928;-0.9503;
506.1000;0.0936;-0.9344;
506.4000;0.0863;-0.9389;
506.7000;0.0977;-0.9208;
507.0000;0.0871;-0.9412;
507.3000;0.0944;-0.9186;
507.6000;0.0961;-0.9208;
507.9000;0.0944;-0.9299;
508.2000;0.0928;-0.9367;
508.5000;0.0920;-0.9457;
508.8000;0.0944;-0.9389;
509.1000;0.0912;-0.9480;
509.4000;0.0952;-0.9435;
509.7000;0.0936;-0.9435;
510.0000;0.0928;-0.9480;
510.3000;0.0920;-0.9548;
510.6000;0.0928;-0.9570;
510.9000;0.0920;-0.9525;
511.2000;0.0920;-0.9548;
511.5000;0.0887;-0.9638;
511.8000;0.0961;-0.9525;
512.1000;0.0936;-0.9525;
512.4000;0.0879;-0.9593;
512.7000;0.0920;-0.9480;
513.0000;0.0920;-0.9503;
513.3000;0.0920;-0.9525;
513.6000;0.0928;-0.9525;
513.9000;0.0895;-0.9638;
514.2000;0.0895;-0.9593;
514.5000;0.0928;-0.9525;
514.8000;0.0936;-0.9457;
515.1000;0.0936;-0.9503;
515.4000;0.0920;-0.9548;
515.7000;0.0936;-0.9525;
516.0000;0.0928;-0.9480;
516.3000;0.0936;-0.9435;
516.6000;0.0944;-0.9367;
516.9000;0.0920;-0.9503;
517.2000;0.0928;-0.9480;
517.5000;0.1018;-0.9344;
517.8000;0.0952;-0.9548;
518.1000;0.0952;-0.9525;
518.4000;0.0904;-0.9638;
518.7000;0.0952;-0.9503;
519.0000;0.0952;-0.9548;
519.3000;0.0928;-0.9570;
519.6000;0.0928;-0.9570;
519.9000;0.0944;-0.9570;
520.2000;0.0936;-0.9570;
520.5000;0.0936;-0.9548;
520.8000;0.0936;-0.9570;
521.1000;0.0952;-0.9435;
521.4000;0.0944;-0.9435;
521.7000;0.0928;-0.9503;
522.0000;0.0936;-0.9480;
522.3000;0.0944;-0.9457;
522.6000;0.0936;-0.9480;
522.9000;0.0961;-0.9457;
523.2000;0.0895;-0.9684;
523.5000;0.0863;-0.9751;
523.8000;0.0936;-0.9616;
524.1000;0.0847;-0.9729;
524.4000;0.0920;-0.9570;
524.7000;0.0928;-0.9525;
525.0000;0.0879;-0.9661;
525.3000;0.0920;-0.9480;
525.6000;0.0961;-0.9367;
525.9000;0.0847;-0.9638;
526.2000;0.0952;-0.9344;
526.5000;0.1066;-0.9208;
526.8000;0.0936;-0.9661;
527.1000;0.0920;-0.9661;
527.4000;0.0928;-0.9593;
527.7000;0.0895;-0.9638;
528.0000;0.0985;-0.9389;
528.3000;0.0936;-0.9503;
528.6000;0.0871;-0.9593;
528.9000;0.0904;-0.9457;
529.2000;0.0952;-0.9276;
529.5000;0.0936;-0.9344;
529.8000;0.0944;-0.9344;
530.1000;0.0936;-0.9435;
530.4000;0.0912;-0.9503;
530.7000;0.0912;-0.9525;
531.0000;0.0920;-0.9525;
531.3000;0.0806;-0.9751;
531.6000;0.0961;-0.9344;
531.9000;0.0912;-0.9525;
532.2000;0.0928;-0.9548;
532.5000;0.0961;-0.9525;
532.8000;0.0912;-0.9684;
533.1000;0.0944;-0.9706;
533.4000;0.0944;-0.9480;
533.7000;0.0920;-0.9503;
534.0000;0.0920;-0.9480;
534.3000;0.0952;-0.9412;
534.6000;0.0904;-0.9593;
534.9000;0.0912;-0.9616;
535.2000;0.0912;-0.9638;
535.5000;0.0944;-0.9548;
535.8000;0.0912;-0.9480;
536.1000;0.0920;-0.9480;
536.4000;0.0912;-0.9548;
536.7000;0.0936;-0.9457;
537.0000;0.0928;-0.9548;
537.3000;0.0904;-0.9616;
537.6000;0.0904;-0.9593;
537.9000;0.0936;-0.9525;
538.2000;0.0912;-0.9593;
538.5000;0.0920;-0.9570;
538.8000;0.0928;-0.9525;
539.1000;0.0952;-0.9435;
539.4000;0.0928;-0.9503;
539.7000;0.0912;-0.9503;
540.0000;0.0928;-0.9389;
540.3000;0.0993;-0.9186;
540.6000;0.0928;-0.9412;
540.9000;0.0936;-0.9389;
541.2000;0.0912;-0.9503;
541.5000;0.0838;-0.9684;
541.8000;0.0928;-0.9503;
542.1000;0.0912;-0.9548;
542.4000;0.0871;-0.9638;
542.7000;0.0928;-0.9503;
543.0000;0.1009;-0.9299;
543.3000;0.0928;-0.9457;
543.6000;0.0936;-0.9480;
543.9000;0.0912;-0.9457;
544.2000;0.0887;-0.9503;
544.5000;0.0944;-0.9299;
544.8000;0.0928;-0.9276;
545.1000;0.0977;-0.9208;
545.4000;0.0961;-0.9299;
545.7000;0.0920;-0.9435;
546.0000;0.0920;-0.9412;
546.3000;0.0912;-0.9435;
546.6000;0.0969;-0.9186;
546.9000;0.0952;-0.9186;
547.2000;0.0928;-0.9186;
547.5000;0.0798;-0.9525;
547.8000;0.0928;-0.9231;
548.1000;0.0912;-0.9389;
548.4000;0.0847;-0.9570;
548.7000;0.0920;-0.9254;
549.0000;0.0936;-0.9231;
549.3000;0.0952;-0.9254;
549.6000;0.0928;-0.9254;
549.9000;0.0993;-0.9141;
550.2000;0.0936;-0.9299;
550.5000;0.1009;-0.9186;
550.8000;0.0928;-0.9412;
551.1000;0.0977;-0.9344;
551.4000;0.1001;-0.9322;
551.7000;0.0952;-0.9480;
552.0000;0.1009;-0.9412;
552.3000;0.0895;-0.9706;
552.6000;0.0920;-0.9548;
552.9000;0.0920;-0.9616;
553.2000;0.1034;-0.9412;
553.5000;0.0920;-0.9593;
553.8000;0.0920;-0.9638;
554.1000;0.0920;-0.9525;
554.4000;0.0912;-0.9435;
554.7000;0.0952;-0.9344;
555.0000;0.0920;-0.9276;
555.3000;0.0936;-0.9254;
555.6000;0.0944;-0.9299;
555.9000;0.0936;-0.9322;
556.2000;0.0936;-0.9367;
556.5000;0.0936;-0.9412;
556.8000;0.0912;-0.9435;
557.1000;0.0936;-0.9367;
557.4000;0.0920;-0.9367;
557.7000;0.0912;-0.9367;
558.0000;0.0944;-0.9299;
558.3000;0.0904;-0.9389;
558.6000;0.0928;-0.9344;
558.9000;0.0936;-0.9344;
559.2000;0.0904;-0.9435;
559.5000;0.0944;-0.9299;
559.8000;0.0920;-0.9299;
560.1000;0.0944;-0.9186;
560.4000;0.0920;-0.9254;
560.7000;0.0912;-0.9276;
561.0000;0.0855;-0.9412;
561.3000;0.0936;-0.9186;
561.6000;0.0928;-0.9208;
561.9000;0.0920;-0.9367;
562.2000;0.0936;-0.9299;
562.5000;0.0912;-0.9344;
562.8000;0.0936;-0.9367;
563.1000;0.0920;-0.9457;
563.4000;0.0928;-0.9503;
563.7000;0.0977;-0.9435;
564.0000;0.0904;-0.9638;
564.3000;0.0952;-0.9548;
564.6000;0.0936;-0.9570;
564.9000;0.0936;-0.9457;
565.2000;0.0920;-0.9435;
565.5000;0.0985;-0.9322;
565.8000;0.0944;-0.9480;
566.1000;0.0920;-0.9503;
566.4000;0.0952;-0.9457;
566.7000;0.0912;-0.9684;
567.0000;0.0912;-0.9684;
567.3000;0.0895;-0.9684;
567.6000;0.0855;-0.9797;
567.9000;0.0912;-0.9706;
568.2000;0.0912;-0.9706;
568.5000;0.0993;-0.9480;
568.8000;0.0928;-0.9570;
569.1000;0.0969;-0.9503;
569.4000;0.0944;-0.9503;
569.7000;0.0912;-0.9503;
570.0000;0.0928;-0.9435;
570.3000;0.0912;-0.9457;
570.6000;0.0928;-0.9503;
570.9000;0.0920;-0.9457;
571.2000;0.0928;-0.9525;
571.5000;0.1001;-0.9367;
571.8000;0.0928;-0.9503;
572.1000;0.0887;-0.9548;
572.4000;0.0977;-0.9367;
572.7000;0.0887;-0.9570;
573.0000;0.0993;-0.9322;
573.3000;0.0936;-0.9435;
573.6000;0.0952;-0.9367;
573.9000;0.0985;-0.9276;
574.2000;0.0920;-0.9389;
574.5000;0.0928;-0.9389;
574.8000;0.0928;-0.9412;
575.1000;0.0936;-0.9525;
575.4000;0.0871;-0.9684;
575.7000;0.0928;-0.9503;
576.0000;0.0952;-0.9457;
576.3000;0.0920;-0.9570;
576.6000;0.0928;-0.9570;
576.9000;0.0969;-0.9412;
577.2000;0.0944;-0.9480;
577.5000;0.0928;-0.9457;
577.8000;0.0985;-0.9322;
578.1000;0.0904;-0.9548;
578.4000;0.0912;-0.9593;
578.7000;0.0961;-0.9435;
579.0000;0.0985;-0.9344;
579.3000;0.0936;-0.9457;
579.6000;0.0936;-0.9480;
579.9000;0.0944;-0.9435;
580.2000;0.0912;-0.9480;
580.5000;0.1042;-0.9276;
580.8000;0.0936;-0.9412;
581.1000;0.0961;-0.9367;
581.4000;0.0928;-0.9435;
581.7000;0.0928;-0.9457;
582.0000;0.0936;-0.9322;
582.3000;0.0904;-0.9299;
582.6000;0.0912;-0.9208;
582.9000;0.0928;-0.9141;
583.2000;0.0904;-0.9141;
583.5000;0.0912;-0.9141;
583.8000;0.0936;-0.9186;
584.1000;0.0920;-0.9299;
584.4000;0.0920;-0.9322;
584.7000;0.0847;-0.9548;
585.0000;0.0936;-0.9344;
585.3000;0.0936;-0.9322;
585.6000;0.0928;-0.9389;
585.9000;0.0887;-0.9480;
586.2000;0.0863;-0.9503;
586.5000;0.0920;-0.9276;
586.8000;0.0928;-0.9276;
587.1000;0.0928;-0.9276;
587.4000;0.0928;-0.9231;
587.7000;0.0928;-0.9163;
588.0000;0.0887;-0.9208;
588.3000;0.0822;-0.9503;
588.6000;0.0985;-0.9141;
588.9000;0.0928;-0.9276;
589.2000;0.0912;-0.9254;
589.5000;0.0936;-0.9141;
589.8000;0.0912;-0.9231;
590.1000;0.1034;-0.8982;
590.4000;0.0936;-0.9322;
590.7000;0.0912;-0.9389;
591.0000;0.0920;-0.9389;
591.3000;0.0822;-0.9570;
591.6000;0.0928;-0.9231;
591.9000;0.0936;-0.9208;
592.2000;0.0920;-0.9141;
592.5000;0.0912;-0.9163;
592.8000;0.0920;-0.9163;
593.1000;0.0912;-0.9231;
593.4000;0.0904;-0.9254;
593.7000;0.0936;-0.9141;
594.0000;0.0944;-0.9163;
594.3000;0.0936;-0.9163;
594.6000;0.0920;-0.9254;
594.9000;0.0936;-0.9254;
595.2000;0.0895;-0.9367;
595.5000;0.0944;-0.9254;
595.8000;0.0863;-0.9457;
596.1000;0.0920;-0.9322;
596.4000;0.0944;-0.9412;
596.7000;0.0920;-0.9389;
597.0000;0.0936;-0.9344;
597.3000;0.0928;-0.9276;
597.6000;0.0912;-0.9322;
597.9000;0.0920;-0.9299;
598.2000;0.0961;-0.9208;
598.5000;0.0912;-0.9322;
598.8000;0.0863;-0.9389;
599.1000;0.0944;-0.9254;
599.4000;0.1058;-0.8982;
599.7000;0.0936;-0.9412;
600.0000;0.0912;-0.9457;
600.3000;0.0895;-0.9480;
600.6000;0.0904;-0.9525;
600.9000;0.0936;-0.9525;
601.2000;0.0920;-0.9661;
601.5000;0.0928;-0.9593;
601.8000;0.0904;-0.9684;
602.1000;0.0879;-0.9842;
602.4000;0.0904;-0.9865;
602.7000;0.0887;-0.9955;
603.0000;0.0887;-1.0000;
603.3000;0.0895;-0.9978;
603.6000;0.0871;-1.0113;
603.9000;0.0904;-1.0091;
604.2000;0.0895;-1.0091;
604.5000;0.0904;-1.0068;
604.8000;0.0895;-1.0227;
605.1000;0.0879;-1.0249;
605.4000;0.0985;-1.0023;
605.7000;0.0879;-1.0362;
606.0000;0.0887;-1.0249;
606.3000;0.0806;-1.0453;
606.6000;0.0895;-1.0317;
606.9000;0.0944;-1.0272;
607.2000;0.0879;-1.0498;
607.5000;0.0798;-1.0702;
607.8000;0.0855;-1.0498;
608.1000;0.0871;-1.0453;
608.4000;0.0855;-1.0453;
608.7000;0.0863;-1.0430;
609.0000;0.0879;-1.0362;
609.3000;0.0790;-1.0521;
609.6000;0.0863;-1.0362;
609.9000;0.0944;-1.0204;
610.2000;0.0863;-1.0498;
610.5000;0.0944;-1.0249;
610.8000;0.0855;-1.0521;
611.1000;0.0806;-1.0611;
611.4000;0.0863;-1.0453;
611.7000;0.0863;-1.0453;
612.0000;0.0838;-1.0430;
612.3000;0.0830;-1.0430;
612.6000;0.0847;-1.0408;
612.9000;0.0838;-1.0453;
613.2000;0.0855;-1.0498;
613.5000;0.0847;-1.0566;
613.8000;0.0855;-1.0543;
614.1000;0.0855;-1.0498;
614.4000;0.0871;-1.0430;
614.7000;0.0830;-1.0475;
615.0000;0.0847;-1.0498;
615.3000;0.0838;-1.0611;
615.6000;0.0741;-1.0815;
615.9000;0.0822;-1.0611;
616.2000;0.0830;-1.0543;
616.5000;0.0847;-1.0453;
616.8000;0.0830;-1.0475;
617.1000;0.0806;-1.0543;
617.4000;0.0806;-1.0611;
617.7000;0.0822;-1.0589;
618.0000;0.0830;-1.0521;
618.3000;0.0830;-1.0521;
618.6000;0.0855;-1.0385;
618.9000;0.0814;-1.0498;
619.2000;0.0822;-1.0408;
619.5000;0.0863;-1.0272;
619.8000;0.0814;-1.0362;
620.1000;0.0814;-1.0498;
620.4000;0.0822;-1.0589;
620.7000;0.0830;-1.0747;
621.0000;0.0830;-1.0770;
621.3000;0.0838;-1.0724;
621.6000;0.0920;-1.0521;
621.9000;0.0798;-1.0792;
622.2000;0.0716;-1.1064;
622.5000;0.0887;-1.0611;
622.8000;0.0830;-1.0656;
623.1000;0.0814;-1.0724;
623.4000;0.0765;-1.0905;
623.7000;0.0871;-1.0656;
624.0000;0.0733;-1.1041;
624.3000;0.0830;-1.0770;
624.6000;0.0806;-1.0792;
624.9000;0.0838;-1.0747;
625.2000;0.0814;-1.0792;
625.5000;0.0830;-1.0815;
625.8000;0.0814;-1.0770;
626.1000;0.0830;-1.0724;
626.4000;0.0822;-1.0860;
626.7000;0.0822;-1.0883;
627.0000;0.0790;-1.0860;
627.3000;0.0814;-1.0724;
627.6000;0.0822;-1.0634;
627.9000;0.0822;-1.0702;
628.2000;0.0806;-1.0747;
628.5000;0.0847;-1.0634;
628.8000;0.0806;-1.0702;
629.1000;0.0790;-1.0656;
629.4000;0.0790;-1.0656;
629.7000;0.0822;-1.0566;
630.0000;0.0798;-1.0589;
630.3000;0.0806;-1.0521;
630.6000;0.0830;-1.0521;
630.9000;0.0920;-1.0385;
631.2000;0.0814;-1.0792;
631.5000;0.0838;-1.0634;
631.8000;0.0838;-1.0566;
632.1000;0.0838;-1.0702;
632.4000;0.0790;-1.0815;
632.7000;0.0790;-1.0815;
633.0000;0.0822;-1.0702;
633.3000;0.0773;-1.0837;
633.6000;0.0798;-1.0679;
633.9000;0.0781;-1.0634;
634.2000;0.0724;-1.0770;
634.5000;0.0798;-1.0634;
634.8000;0.0822;-1.0566;
635.1000;0.0814;-1.0656;
635.4000;0.0806;-1.0634;
635.7000;0.0798;-1.0679;
636.0000;0.0757;-1.0656;
636.3000;0.0790;-1.0543;
636.6000;0.0724;-1.0679;
636.9000;0.0814;-1.0475;
637.2000;0.0806;-1.0521;
637.5000;0.0765;-1.0589;
637.8000;0.0790;-1.0521;
638.1000;0.0814;-1.0543;
638.4000;0.0822;-1.0475;
638.7000;0.0822;-1.0430;
639.0000;0.0798;-1.0475;
639.3000;0.0749;-1.0724;
639.6000;0.0798;-1.0543;
639.9000;0.0969;-1.0113;
640.2000;0.0822;-1.0475;
640.5000;0.0806;-1.0475;
640.8000;0.0904;-1.0159;
641.1000;0.0781;-1.0521;
641.4000;0.0790;-1.0589;
641.7000;0.0838;-1.0521;
642.0000;0.0879;-1.0385;
642.3000;0.0781;-1.0611;
642.6000;0.0667;-1.0860;
642.9000;0.0781;-1.0566;
643.2000;0.0814;-1.0543;
643.5000;0.0838;-1.0475;
643.8000;0.0790;-1.0566;
644.1000;0.0879;-1.0430;
644.4000;0.0838;-1.0566;
644.7000;0.0651;-1.0928;
645.0000;0.0847;-1.0430;
645.3000;0.0806;-1.0475;
645.6000;0.0790;-1.0475;
645.9000;0.0806;-1.0498;
646.2000;0.0773;-1.0475;
646.5000;0.0798;-1.0475;
646.8000;0.0765;-1.0679;
647.1000;0.0798;-1.0589;
647.4000;0.0781;-1.0679;
647.7000;0.0724;-1.0702;
648.0000;0.0733;-1.0724;
648.3000;0.0773;-1.0589;
648.6000;0.0798;-1.0475;
648.9000;0.0790;-1.0430;
649.2000;0.0781;-1.0385;
649.5000;0.0814;-1.0272;
649.8000;0.0773;-1.0408;
650.1000;0.0781;-1.0408;
650.4000;0.0700;-1.0656;
650.7000;0.0798;-1.0385;
651.0000;0.0838;-1.0204;
651.3000;0.0781;-1.0340;
651.6000;0.0781;-1.0272;
651.9000;0.0814;-1.0317;
652.2000;0.0790;-1.0362;
652.5000;0.0798;-1.0272;
652.8000;0.0806;-1.0317;
653.1000;0.0781;-1.0430;
653.4000;0.0773;-1.0498;
653.7000;0.0765;-1.0566;
654.0000;0.0773;-1.0543;
654.3000;0.0765;-1.0611;
654.6000;0.0708;-1.0747;
654.9000;0.0798;-1.0543;
655.2000;0.0790;-1.0611;
655.5000;0.0798;-1.0656;
655.8000;0.0773;-1.0724;
656.1000;0.0790;-1.0679;
656.4000;0.0798;-1.0634;
656.7000;0.0773;-1.0611;
657.0000;0.0773;-1.0634;
657.3000;0.0773;-1.0634;
657.6000;0.0765;-1.0611;
657.9000;0.0781;-1.0589;
658.2000;0.0749;-1.0589;
658.5000;0.0781;-1.0498;
658.8000;0.0798;-1.0521;
659.1000;0.0814;-1.0430;
659.4000;0.0773;-1.0521;
659.7000;0.0773;-1.0498;
660.0000;0.0773;-1.0521;
660.3000;0.0814;-1.0475;
660.6000;0.0781;-1.0589;
660.9000;0.0773;-1.0589;
661.2000;0.0708;-1.0860;
661.5000;0.0765;-1.0611;
661.8000;0.0765;-1.0566;
662.1000;0.0798;-1.0543;
662.4000;0.0798;-1.0656;
662.7000;0.0798;-1.0611;
663.0000;0.0765;-1.0724;
663.3000;0.0773;-1.0770;
663.6000;0.0765;-1.0860;
663.9000;0.0798;-1.0747;
664.2000;0.0765;-1.0815;
664.5000;0.0733;-1.0928;
664.8000;0.0781;-1.0770;
665.1000;0.0798;-1.0724;
665.4000;0.0806;-1.0702;
665.7000;0.0814;-1.0611;
666.0000;0.0838;-1.0543;
666.3000;0.0798;-1.0634;
666.6000;0.0724;-1.0815;
666.9000;0.0895;-1.0294;
667.2000;0.0773;-1.0589;
667.5000;0.0806;-1.0453;
667.8000;0.0798;-1.0566;
668.1000;0.0806;-1.0521;
668.4000;0.0749;-1.0679;
668.7000;0.0716;-1.0792;
669.0000;0.0806;-1.0611;
669.3000;0.0790;-1.0770;
669.6000;0.0830;-1.0656;
669.9000;0.0798;-1.0724;
670.2000;0.0806;-1.0702;
670.5000;0.0781;-1.0702;
670.8000;0.0773;-1.0702;
671.1000;0.0773;-1.0702;
671.4000;0.0765;-1.0724;
671.7000;0.0781;-1.0702;
672.0000;0.0741;-1.0792;
672.3000;0.0781;-1.0747;
672.6000;0.0781;-1.0634;
672.9000;0.0765;-1.0679;
673.2000;0.0773;-1.0656;
673.5000;0.0790;-1.0656;
673.8000;0.0806;-1.0589;
674.1000;0.0773;-1.0566;
674.4000;0.0781;-1.0498;
674.7000;0.0790;-1.0498;
675.0000;0.0830;-1.0453;
675.3000;0.0781;-1.0589;
675.6000;0.0781;-1.0634;
675.9000;0.0790;-1.0656;
676.2000;0.0757;-1.0656;
676.5000;0.0822;-1.0408;
676.8000;0.0781;-1.0475;
677.1000;0.0773;-1.0430;
677.4000;0.0757;-1.0408;
677.7000;0.0773;-1.0385;
678.0000;0.0798;-1.0340;
678.3000;0.0757;-1.0430;
678.6000;0.0773;-1.0362;
678.9000;0.0765;-1.0340;
679.2000;0.0798;-1.0340;
679.5000;0.0806;-1.0385;
679.8000;0.0765;-1.0475;
680.1000;0.0871;-1.0249;
680.4000;0.0790;-1.0475;
680.7000;0.0790;-1.0453;
681.0000;0.0863;-1.0317;
681.3000;0.0790;-1.0543;
681.6000;0.0822;-1.0475;
681.9000;0.0790;-1.0611;
682.2000;0.0806;-1.0566;
682.5000;0.0765;-1.0702;
682.8000;0.0781;-1.0837;
683.1000;0.0790;-1.0792;
683.4000;0.0806;-1.0702;
683.7000;0.0765;-1.0883;
684.0000;0.0798;-1.0679;
684.3000;0.0773;-1.0770;
684.6000;0.0790;-1.0770;
684.9000;0.0790;-1.0815;
685.2000;0.0773;-1.0747;
685.5000;0.0724;-1.0928;
685.8000;0.0773;-1.0770;
686.1000;0.0822;-1.0611;
686.4000;0.0781;-1.0724;
686.7000;0.0765;-1.0634;
687.0000;0.0708;-1.0747;
687.3000;0.0781;-1.0589;
687.6000;0.0798;-1.0498;
687.9000;0.0757;-1.0611;
688.2000;0.0757;-1.0521;
688.5000;0.0749;-1.0543;
688.8000;0.0765;-1.0566;
689.1000;0.0773;-1.0566;
689.4000;0.0790;-1.0589;
689.7000;0.0765;-1.0589;
690.0000;0.0790;-1.0498;
690.3000;0.0790;-1.0521;
690.6000;0.0790;-1.0475;
690.9000;0.0765;-1.0521;
691.2000;0.0749;-1.0566;
691.5000;0.0798;-1.0453;
691.8000;0.0765;-1.0475;
692.1000;0.0757;-1.0475;
692.4000;0.0741;-1.0475;
692.7000;0.0814;-1.0385;
693.0000;0.0798;-1.0408;
693.3000;0.0781;-1.0453;
693.6000;0.0757;-1.0589;
693.9000;0.0765;-1.0589;
694.2000;0.0749;-1.0634;
694.5000;0.0765;-1.0498;
694.8000;0.0781;-1.0430;
695.1000;0.0741;-1.0475;
695.4000;0.0643;-1.0679;
695.7000;0.0765;-1.0453;
696.0000;0.0814;-1.0430;
696.3000;0.0700;-1.0747;
696.6000;0.0806;-1.0498;
696.9000;0.0798;-1.0589;
697.2000;0.0773;-1.0589;
697.5000;0.0765;-1.0543;
697.8000;0.0765;-1.0656;
698.1000;0.0773;-1.0634;
698.4000;0.0814;-1.0566;
698.7000;0.0773;-1.0679;
699.0000;0.0773;-1.0634;
699.3000;0.0822;-1.0566;
699.6000;0.0790;-1.0702;
699.9000;0.0757;-1.0815;
700.2000;0.0765;-1.0770;
700.5000;0.0773;-1.0837;
700.8000;0.0765;-1.0815;
701.1000;0.0781;-1.0770;
701.4000;0.0773;-1.0747;
701.7000;0.0798;-1.0724;
702.0000;0.0749;-1.0928;
702.3000;0.0798;-1.0747;
702.6000;0.0757;-1.0883;
702.9000;0.0781;-1.0905;
703.2000;0.0790;-1.0837;
703.5000;0.0806;-1.0747;
703.8000;0.0765;-1.0747;
704.1000;0.0781;-1.0724;
704.4000;0.0830;-1.0611;
704.7000;0.0765;-1.0815;
705.0000;0.0716;-1.0905;
705.3000;0.0733;-1.0951;
705.6000;0.0798;-1.0770;
705.9000;0.0765;-1.0837;
706.2000;0.0781;-1.0792;
706.5000;0.0765;-1.0905;
706.8000;0.0790;-1.0792;
707.1000;0.0708;-1.0996;
707.4000;0.0773;-1.0837;
707.7000;0.0757;-1.0815;
708.0000;0.0773;-1.0634;
708.3000;0.0773;-1.0656;
708.6000;0.0855;-1.0453;
708.9000;0.0765;-1.0724;
709.2000;0.0765;-1.0656;
709.5000;0.0781;-1.0611;
709.8000;0.0765;-1.0543;
710.1000;0.0773;-1.0475;
710.4000;0.0773;-1.0498;
710.7000;0.0773;-1.0498;
711.0000;0.0798;-1.0498;
711.3000;0.0781;-1.0521;
711.6000;0.0781;-1.0521;
711.9000;0.0765;-1.0566;
712.2000;0.0765;-1.0566;
712.5000;0.0765;-1.0521;
712.8000;0.0757;-1.0589;
713.1000;0.0765;-1.0589;
713.4000;0.0676;-1.0770;
713.7000;0.0765;-1.0521;
714.0000;0.0773;-1.0430;
714.3000;0.0863;-1.0181;
714.6000;0.0790;-1.0362;
714.9000;0.0765;-1.0362;
715.2000;0.0757;-1.0294;
715.5000;0.0700;-1.0521;
715.8000;0.0781;-1.0385;
716.1000;0.0781;-1.0340;
716.4000;0.0798;-1.0317;
716.7000;0.0765;-1.0408;
717.0000;0.0757;-1.0475;
717.3000;0.0855;-1.0430;
717.6000;0.0806;-1.0543;
717.9000;0.0781;-1.0634;
718.2000;0.0773;-1.0543;
718.5000;0.0798;-1.0543;
718.8000;0.0749;-1.0679;
719.1000;0.0790;-1.0634;
719.4000;0.0765;-1.0656;
719.7000;0.0773;-1.0634;
720.0000;0.0765;-1.0611;
720.3000;0.0700;-1.0837;
720.6000;0.0781;-1.0566;
720.9000;0.0749;-1.0679;
721.2000;0.0741;-1.0634;
721.5000;0.0765;-1.0679;
721.8000;0.0765;-1.0611;
722.1000;0.0773;-1.0521;
722.4000;0.0781;-1.0475;
722.7000;0.0749;-1.0498;
723.0000;0.0773;-1.0408;
723.3000;0.0790;-1.0408;
723.6000;0.0651;-1.0815;
723.9000;0.0716;-1.0679;
724.2000;0.0781;-1.0589;
724.5000;0.0765;-1.0611;
724.8000;0.0741;-1.0656;
725.1000;0.0757;-1.0702;
725.4000;0.0765;-1.0702;
725.7000;0.0781;-1.0679;
726.0000;0.0773;-1.0770;
726.3000;0.0773;-1.0792;
726.6000;0.0757;-1.0747;
726.9000;0.0790;-1.0566;
727.2000;0.0757;-1.0611;
727.5000;0.0765;-1.0543;
727.8000;0.0749;-1.0498;
728.1000;0.0741;-1.0566;
728.4000;0.0773;-1.0543;
728.7000;0.0765;-1.0543;
729.0000;0.0765;-1.0543;
729.3000;0.0757;-1.0543;
729.6000;0.0765;-1.0521;
729.9000;0.0765;-1.0521;
730.2000;0.0773;-1.0543;
730.5000;0.0773;-1.0521;
730.8000;0.0773;-1.0566;
731.1000;0.0741;-1.0566;
731.4000;0.0765;-1.0543;
731.7000;0.0781;-1.0498;
732.0000;0.0749;-1.0589;
732.3000;0.0781;-1.0521;
732.6000;0.0749;-1.0724;
732.9000;0.0765;-1.0656;
733.2000;0.0733;-1.0679;
733.5000;0.0749;-1.0611;
733.8000;0.0684;-1.0792;
734.1000;0.0749;-1.0611;
734.4000;0.0733;-1.0679;
734.7000;0.0757;-1.0543;
735.0000;0.0863;-1.0294;
735.3000;0.0749;-1.0498;
735.6000;0.0733;-1.0498;
735.9000;0.0790;-1.0430;
736.2000;0.0871;-1.0317;
736.5000;0.0651;-1.0883;
736.8000;0.0757;-1.0566;
737.1000;0.0741;-1.0611;
737.4000;0.0790;-1.0453;
737.7000;0.0700;-1.0679;
738.0000;0.0879;-1.0272;
738.3000;0.0635;-1.0860;
738.6000;0.0879;-1.0136;
738.9000;0.0757;-1.0430;
739.2000;0.0676;-1.0611;
739.5000;0.0806;-1.0362;
739.8000;0.0765;-1.0521;
740.1000;0.0773;-1.0543;
740.4000;0.0773;-1.0498;
740.7000;0.0781;-1.0498;
741.0000;0.0765;-1.0589;
741.3000;0.0781;-1.0475;
741.6000;0.0757;-1.0453;
741.9000;0.0773;-1.0453;
742.2000;0.0765;-1.0430;
742.5000;0.0749;-1.0521;
742.8000;0.0781;-1.0475;
743.1000;0.0838;-1.0272;
743.4000;0.0790;-1.0385;
743.7000;0.0790;-1.0475;
744.0000;0.0765;-1.0589;
744.3000;0.0667;-1.0837;
744.6000;0.0806;-1.0521;
744.9000;0.0765;-1.0589;
745.2000;0.0790;-1.0634;
745.5000;0.0765;-1.0679;
745.8000;0.0765;-1.0656;
746.1000;0.0765;-1.0611;
746.4000;0.0765;-1.0634;
746.7000;0.0757;-1.0611;
747.0000;0.0757;-1.0566;
747.3000;0.0790;-1.0543;
747.6000;0.0676;-1.0815;
747.9000;0.0757;-1.0589;
748.2000;0.0757;-1.0656;
748.5000;0.0741;-1.0634;
748.8000;0.0765;-1.0634;
749.1000;0.0773;-1.0543;
749.4000;0.0757;-1.0611;
749.7000;0.0765;-1.0521;
750.0000;0.0765;-1.0408;
750.3000;0.0790;-1.0385;
750.6000;0.0741;-1.0475;
750.9000;0.0838;-1.0249;
751.2000;0.0822;-1.0340;
751.5000;0.0781;-1.0453;
751.8000;0.0781;-1.0453;
752.1000;0.0781;-1.0475;
752.4000;0.0708;-1.0747;
752.7000;0.0757;-1.0589;
753.0000;0.0757;-1.0521;
753.3000;0.0790;-1.0453;
753.6000;0.0830;-1.0475;
753.9000;0.0822;-1.0408;
754.2000;0.0676;-1.0702;
754.5000;0.0611;-1.0837;
754.8000;0.0733;-1.0566;
755.1000;0.0773;-1.0453;
755.4000;0.0781;-1.0317;
755.7000;0.0773;-1.0294;
756.0000;0.0790;-1.0181;
756.3000;0.0790;-1.0249;
756.6000;0.0741;-1.0362;
756.9000;0.0724;-1.0521;
757.2000;0.0724;-1.0566;
757.5000;0.0765;-1.0498;
757.8000;0.0749;-1.0521;
758.1000;0.0765;-1.0543;
758.4000;0.0790;-1.0543;
758.7000;0.0798;-1.0589;
759.0000;0.0765;-1.0656;
759.3000;0.0733;-1.0679;
759.6000;0.0708;-1.0792;
759.9000;0.0757;-1.0702;
760.2000;0.0806;-1.0498;
760.5000;0.0781;-1.0566;
760.8000;0.0757;-1.0543;
761.1000;0.0790;-1.0475;
761.4000;0.0790;-1.0566;
761.7000;0.0806;-1.0475;
762.0000;0.0651;-1.0792;
762.3000;0.0716;-1.0679;
762.6000;0.0806;-1.0521;
762.9000;0.0781;-1.0656;
763.2000;0.0757;-1.0656;
763.5000;0.0716;-1.0679;
763.8000;0.0765;-1.0475;
764.1000;0.0765;-1.0408;
764.4000;0.0773;-1.0543;
764.7000;0.0773;-1.0634;
765.0000;0.0757;-1.0679;
765.3000;0.0773;-1.0611;
765.6000;0.0765;-1.0656;
765.9000;0.0773;-1.0656;
766.2000;0.0741;-1.0679;
766.5000;0.0765;-1.0611;
766.8000;0.0765;-1.0521;
767.1000;0.0741;-1.0475;
767.4000;0.0757;-1.0475;
767.7000;0.0765;-1.0498;
768.0000;0.0749;-1.0430;
768.3000;0.0741;-1.0521;
768.6000;0.0781;-1.0498;
768.9000;0.0773;-1.0408;
769.2000;0.0757;-1.0408;
769.5000;0.0635;-1.0702;
769.8000;0.0757;-1.0521;
770.1000;0.0781;-1.0498;
770.4000;0.0773;-1.0521;
770.7000;0.0765;-1.0589;
771.0000;0.0765;-1.0747;
771.3000;0.0781;-1.0589;
771.6000;0.0765;-1.0611;
771.9000;0.0757;-1.0498;
772.2000;0.0741;-1.0634;
772.5000;0.0773;-1.0498;
772.8000;0.0757;-1.0498;
773.1000;0.0724;-1.0566;
773.4000;0.0773;-1.0408;
773.7000;0.0765;-1.0453;
774.0000;0.0757;-1.0475;
774.3000;0.0765;-1.0385;
774.6000;0.0814;-1.0272;
774.9000;0.0781;-1.0340;
775.2000;0.0716;-1.0498;
775.5000;0.0741;-1.0408;
775.8000;0.0773;-1.0408;
776.1000;0.0806;-1.0362;
776.4000;0.0790;-1.0430;
776.7000;0.0724;-1.0566;
777.0000;0.0765;-1.0498;
777.3000;0.0749;-1.0543;
777.6000;0.0586;-1.0883;
777.9000;0.0781;-1.0430;
778.2000;0.0749;-1.0521;
778.5000;0.0773;-1.0566;
778.8000;0.0765;-1.0566;
779.1000;0.0708;-1.0702;
779.4000;0.0798;-1.0408;
779.7000;0.0757;-1.0453;
780.0000;0.0830;-1.0385;
780.3000;0.0749;-1.0543;
780.6000;0.0765;-1.0656;
780.9000;0.0765;-1.0634;
781.2000;0.0733;-1.0702;
781.5000;0.0757;-1.0589;
781.8000;0.0822;-1.0453;
782.1000;0.0741;-1.0611;
782.4000;0.0765;-1.0611;
782.7000;0.0765;-1.0589;
783.0000;0.0757;-1.0543;
783.3000;0.0765;-1.0566;
783.6000;0.0757;-1.0589;
783.9000;0.0757;-1.0589;
784.2000;0.0773;-1.0543;
784.5000;0.0773;-1.0498;
784.8000;0.0765;-1.0498;
785.1000;0.0757;-1.0521;
785.4000;0.0773;-1.0498;
785.7000;0.0773;-1.0589;
786.0000;0.0871;-1.0385;
786.3000;0.0749;-1.0543;
786.6000;0.0765;-1.0543;
786.9000;0.0765;-1.0521;
787.2000;0.0757;-1.0566;
787.5000;0.0724;-1.0656;
787.8000;0.0773;-1.0543;
788.1000;0.0733;-1.0656;
788.4000;0.0773;-1.0498;
788.7000;0.0765;-1.0430;
789.0000;0.0757;-1.0430;
789.3000;0.0822;-1.0249;
789.6000;0.0781;-1.0362;
789.9000;0.0781;-1.0453;
790.2000;0.0757;-1.0498;
790.5000;0.0773;-1.0453;
790.8000;0.0692;-1.0566;
791.1000;0.0749;-1.0408;
791.4000;0.0765;-1.0385;
791.7000;0.0733;-1.0453;
792.0000;0.0757;-1.0385;
792.3000;0.0798;-1.0181;
792.6000;0.0716;-1.0453;
792.9000;0.0749;-1.0430;
793.2000;0.0781;-1.0385;
793.5000;0.0757;-1.0385;
793.8000;0.0757;-1.0430;
794.1000;0.0773;-1.0408;
794.4000;0.0749;-1.0543;
794.7000;0.0757;-1.0521;
795.0000;0.0749;-1.0543;
795.3000;0.0676;-1.0724;
795.6000;0.0781;-1.0543;
795.9000;0.0749;-1.0611;
796.2000;0.0765;-1.0498;
796.5000;0.0749;-1.0521;
796.8000;0.0757;-1.0634;
797.1000;0.0765;-1.0611;
797.4000;0.0741;-1.0679;
797.7000;0.0700;-1.0747;
798.0000;0.0790;-1.0453;
798.3000;0.0700;-1.0724;
798.6000;0.0733;-1.0656;
798.9000;0.0757;-1.0589;
799.2000;0.0790;-1.0521;
799.5000;0.0757;-1.0521;
799.8000;0.0692;-1.0702;
800.1000;0.0708;-1.0521;
800.4000;0.0871;-1.0159;
800.7000;0.0749;-1.0408;
801.0000;0.0749;-1.0408;
801.3000;0.0822;-1.0340;
801.6000;0.0781;-1.0385;
801.9000;0.0781;-1.0408;
802.2000;0.0757;-1.0498;
802.5000;0.0733;-1.0498;
802.8000;0.0757;-1.0430;
803.1000;0.0798;-1.0362;
803.4000;0.0749;-1.0453;
803.7000;0.0757;-1.0408;
804.0000;0.0757;-1.0430;
804.3000;0.0749;-1.0385;
804.6000;0.0773;-1.0317;
804.9000;0.0708;-1.0362;
805.2000;0.0749;-1.0272;
805.5000;0.0757;-1.0294;
805.8000;0.0757;-1.0249;
806.1000;0.0773;-1.0227;
806.4000;0.0724;-1.0317;
806.7000;0.0733;-1.0317;
807.0000;0.0749;-1.0340;
807.3000;0.0724;-1.0408;
807.6000;0.0757;-1.0453;
807.9000;0.0716;-1.0543;
808.2000;0.0716;-1.0589;
808.5000;0.0773;-1.0521;
808.8000;0.0790;-1.0498;
809.1000;0.0749;-1.0634;
809.4000;0.0757;-1.0656;
809.7000;0.0781;-1.0679;
810.0000;0.0765;-1.0724;
810.3000;0.0757;-1.0747;
810.6000;0.0765;-1.0747;
810.9000;0.0757;-1.0656;
811.2000;0.0863;-1.0362;
811.5000;0.0765;-1.0656;
811.8000;0.0765;-1.0679;
812.1000;0.0757;-1.0634;
812.4000;0.0724;-1.0634;
812.7000;0.0741;-1.0498;
813.0000;0.0773;-1.0317;
813.3000;0.0741;-1.0317;
813.6000;0.0741;-1.0340;
813.9000;0.0781;-1.0227;
814.2000;0.0749;-1.0362;
814.5000;0.0773;-1.0294;
814.8000;0.0733;-1.0340;
815.1000;0.0765;-1.0272;
815.4000;0.0765;-1.0294;
815.7000;0.0765;-1.0249;
816.0000;0.0757;-1.0272;
816.3000;0.0773;-1.0317;
816.6000;0.0724;-1.0475;
816.9000;0.0773;-1.0362;
817.2000;0.0749;-1.0385;
817.5000;0.0830;-1.0272;
817.8000;0.0757;-1.0340;
818.1000;0.0757;-1.0340;
818.4000;0.0773;-1.0340;
818.7000;0.0765;-1.0340;
819.0000;0.0749;-1.0362;
819.3000;0.0806;-1.0204;
819.6000;0.0781;-1.0294;
819.9000;0.0765;-1.0430;
820.2000;0.0757;-1.0453;
820.5000;0.0749;-1.0430;
820.8000;0.0749;-1.0475;
821.1000;0.0765;-1.0408;
821.4000;0.0749;-1.0453;
821.7000;0.0749;-1.0475;
822.0000;0.0757;-1.0589;
822.3000;0.0798;-1.0475;
822.6000;0.0733;-1.0566;
822.9000;0.0749;-1.0521;
823.2000;0.0765;-1.0408;
823.5000;0.0741;-1.0408;
823.8000;0.0773;-1.0362;
824.1000;0.0749;-1.0475;
824.4000;0.0749;-1.0430;
824.7000;0.0765;-1.0385;
825.0000;0.0757;-1.0249;
825.3000;0.0749;-1.0227;
825.6000;0.0773;-1.0181;
825.9000;0.0749;-1.0181;
826.2000;0.0765;-1.0204;
826.5000;0.0741;-1.0204;
826.8000;0.0765;-1.0136;
827.1000;0.0619;-1.0589;
827.4000;0.0757;-1.0249;
827.7000;0.0765;-1.0091;
828.0000;0.0741;-1.0181;
828.3000;0.0749;-1.0227;
828.6000;0.0757;-1.0317;
828.9000;0.0749;-1.0362;
829.2000;0.0741;-1.0294;
829.5000;0.0765;-1.0204;
829.8000;0.0757;-1.0340;
830.1000;0.0741;-1.0317;
830.4000;0.0757;-1.0181;
830.7000;0.0749;-1.0181;
831.0000;0.0749;-1.0272;
831.3000;0.0765;-1.0204;
831.6000;0.0757;-1.0227;
831.9000;0.0733;-1.0272;
832.2000;0.0741;-1.0340;
832.5000;0.0741;-1.0385;
832.8000;0.0741;-1.0430;
833.1000;0.0765;-1.0340;
833.4000;0.0749;-1.0385;
833.7000;0.0773;-1.0294;
834.0000;0.0757;-1.0272;
834.3000;0.0749;-1.0340;
834.6000;0.0757;-1.0340;
834.9000;0.0773;-1.0294;
835.2000;0.0781;-1.0272;
835.5000;0.0781;-1.0340;
835.8000;0.0765;-1.0317;
836.1000;0.0757;-1.0317;
836.4000;0.0716;-1.0430;
836.7000;0.0757;-1.0249;
837.0000;0.0733;-1.0272;
837.3000;0.0627;-1.0498;
837.6000;0.0757;-1.0249;
837.9000;0.0765;-1.0227;
838.2000;0.0749;-1.0294;
838.5000;0.0733;-1.0430;
838.8000;0.0741;-1.0453;
839.1000;0.0757;-1.0430;
839.4000;0.0781;-1.0340;
839.7000;0.0757;-1.0317;
840.0000;0.0733;-1.0408;
840.3000;0.0765;-1.0385;
840.6000;0.0724;-1.0475;
840.9000;0.0741;-1.0408;
841.2000;0.0765;-1.0362;
841.5000;0.0749;-1.0521;
841.8000;0.0733;-1.0589;
842.1000;0.0716;-1.0566;
842.4000;0.0749;-1.0430;
842.7000;0.0724;-1.0543;
843.0000;0.0749;-1.0475;
843.3000;0.0749;-1.0362;
843.6000;0.0733;-1.0385;
843.9000;0.0749;-1.0453;
844.2000;0.0757;-1.0385;
844.5000;0.0757;-1.0340;
844.8000;0.0741;-1.0498;
845.1000;0.0798;-1.0340;
845.4000;0.0741;-1.0543;
845.7000;0.0749;-1.0475;
846.0000;0.0741;-1.0521;
846.3000;0.0708;-1.0611;
846.6000;0.0757;-1.0430;
846.9000;0.0757;-1.0475;
847.2000;0.0741;-1.0475;
847.5000;0.0757;-1.0340;
847.8000;0.0814;-1.0272;
848.1000;0.0635;-1.0611;
848.4000;0.0814;-1.0159;
848.7000;0.0749;-1.0317;
849.0000;0.0651;-1.0589;
849.3000;0.0676;-1.0475;
849.6000;0.0757;-1.0294;
849.9000;0.0798;-1.0294;
850.2000;0.0781;-1.0408;
850.5000;0.0781;-1.0408;
850.8000;0.0765;-1.0430;
851.1000;0.0847;-1.0249;
851.4000;0.0757;-1.0453;
851.7000;0.0749;-1.0430;
852.0000;0.0708;-1.0498;
852.3000;0.0781;-1.0340;
852.6000;0.0757;-1.0317;
852.9000;0.0790;-1.0204;
853.2000;0.0749;-1.0227;
853.5000;0.0733;-1.0204;
853.8000;0.0757;-1.0227;
854.1000;0.0765;-1.0159;
854.4000;0.0733;-1.0249;
854.7000;0.0757;-1.0204;
855.0000;0.0765;-1.0227;
855.3000;0.0855;-0.9955;
855.6000;0.0733;-1.0204;
855.9000;0.0773;-1.0181;
856.2000;0.0798;-1.0113;
856.5000;0.0781;-1.0136;
856.8000;0.0814;-1.0046;
857.1000;0.0733;-1.0249;
857.4000;0.0749;-1.0227;
857.7000;0.0749;-1.0272;
858.0000;0.0749;-1.0204;
858.3000;0.0724;-1.0249;
858.6000;0.0749;-1.0249;
858.9000;0.0741;-1.0294;
859.2000;0.0781;-1.0272;
859.5000;0.0790;-1.0317;
859.8000;0.0757;-1.0385;
860.1000;0.0773;-1.0317;
860.4000;0.0741;-1.0385;
860.7000;0.0806;-1.0227;
861.0000;0.0757;-1.0272;
861.3000;0.0700;-1.0430;
861.6000;0.0798;-1.0159;
861.9000;0.0773;-1.0181;
862.2000;0.0741;-1.0227;
862.5000;0.0733;-1.0227;
862.8000;0.0733;-1.0227;
863.1000;0.0716;-1.0227;
863.4000;0.0757;-1.0136;
863.7000;0.0741;-1.0204;
864.0000;0.0741;-1.0159;
864.3000;0.0773;-1.0159;
864.6000;0.0781;-1.0181;
864.9000;0.0765;-1.0294;
865.2000;0.0724;-1.0430;
865.5000;0.0773;-1.0227;
865.8000;0.0781;-1.0181;
866.1000;0.0700;-1.0385;
866.4000;0.0773;-1.0227;
866.7000;0.0741;-1.0249;
867.0000;0.0773;-1.0249;
867.3000;0.0741;-1.0385;
867.6000;0.0716;-1.0430;
867.9000;0.0749;-1.0362;
868.2000;0.0838;-1.0136;
868.5000;0.0733;-1.0430;
868.8000;0.0757;-1.0317;
869.1000;0.0749;-1.0272;
869.4000;0.0790;-1.0113;
869.7000;0.0790;-1.0136;
870.0000;0.0741;-1.0294;
870.3000;0.0765;-1.0362;
870.6000;0.0765;-1.0294;
870.9000;0.0781;-1.0091;
871.2000;0.0757;-1.0181;
871.5000;0.0781;-1.0159;
871.8000;0.0757;-1.0340;
872.1000;0.0741;-1.0453;
872.4000;0.0781;-1.0340;
872.7000;0.0757;-1.0453;
873.0000;0.0749;-1.0498;
873.3000;0.0765;-1.0475;
873.6000;0.0830;-1.0340;
873.9000;0.0757;-1.0498;
874.2000;0.0749;-1.0589;
874.5000;0.0765;-1.0521;
874.8000;0.0773;-1.0453;
875.1000;0.0822;-1.0294;
875.4000;0.0806;-1.0430;
875.7000;0.0765;-1.0430;
876.0000;0.0651;-1.0792;
876.3000;0.0749;-1.0566;
876.6000;0.0749;-1.0566;
876.9000;0.0757;-1.0543;
877.2000;0.0757;-1.0475;
877.5000;0.0733;-1.0385;
877.8000;0.0749;-1.0317;
878.1000;0.0741;-1.0362;
878.4000;0.0741;-1.0317;
878.7000;0.0676;-1.0589;
879.0000;0.0741;-1.0475;
879.3000;0.0741;-1.0475;
879.6000;0.0749;-1.0408;
879.9000;0.0781;-1.0294;
880.2000;0.0757;-1.0362;
880.5000;0.0749;-1.0317;
880.8000;0.0781;-1.0272;
881.1000;0.0765;-1.0317;
881.4000;0.0757;-1.0294;
881.7000;0.0741;-1.0340;
882.0000;0.0749;-1.0272;
882.3000;0.0757;-1.0227;
882.6000;0.0741;-1.0272;
882.9000;0.0773;-1.0159;
883.2000;0.0749;-1.0317;
883.5000;0.0733;-1.0272;
883.8000;0.0781;-1.0227;
884.1000;0.0749;-1.0294;
884.4000;0.0724;-1.0408;
884.7000;0.0733;-1.0408;
885.0000;0.0733;-1.0475;
885.3000;0.0651;-1.0702;
885.6000;0.0773;-1.0408;
885.9000;0.0724;-1.0475;
886.2000;0.0773;-1.0362;
886.5000;0.0619;-1.0724;
886.8000;0.0749;-1.0385;
887.1000;0.0741;-1.0475;
887.4000;0.0814;-1.0204;
887.7000;0.0749;-1.0498;
888.0000;0.0724;-1.0408;
888.3000;0.0757;-1.0317;
888.6000;0.0741;-1.0294;
888.9000;0.0733;-1.0294;
889.2000;0.0741;-1.0385;
889.5000;0.0716;-1.0408;
889.8000;0.0757;-1.0317;
890.1000;0.0830;-1.0113;
890.4000;0.0724;-1.0408;
890.7000;0.0757;-1.0362;
891.0000;0.0765;-1.0249;
891.3000;0.0757;-1.0294;
891.6000;0.0741;-1.0340;
891.9000;0.0757;-1.0294;
892.2000;0.0781;-1.0340;
892.5000;0.0716;-1.0589;
892.8000;0.0741;-1.0453;
893.1000;0.0741;-1.0408;
893.4000;0.0676;-1.0521;
893.7000;0.0749;-1.0362;
894.0000;0.0724;-1.0430;
894.3000;0.0611;-1.0724;
894.6000;0.0838;-1.0181;
894.9000;0.0757;-1.0475;
895.2000;0.0757;-1.0362;
895.5000;0.0749;-1.0408;
895.8000;0.0733;-1.0475;
896.1000;0.0749;-1.0430;
896.4000;0.0733;-1.0589;
896.7000;0.0773;-1.0543;
897.0000;0.0733;-1.0566;
897.3000;0.0773;-1.0430;
897.6000;0.0757;-1.0498;
897.9000;0.0757;-1.0475;
898.2000;0.0749;-1.0498;
898.5000;0.0757;-1.0475;
898.8000;0.0749;-1.0453;
899.1000;0.0741;-1.0430;
899.4000;0.0733;-1.0498;
899.7000;0.0741;-1.0430;
900.0000;0.0757;-1.0453;
900.3000;0.0741;-1.0521;
900.6000;0.0733;-1.0566;
900.9000;0.0716;-1.0521;
901.2000;0.0847;-1.0181;
901.5000;0.0724;-1.0475;
901.8000;0.0741;-1.0408;
902.1000;0.0741;-1.0340;
902.4000;0.0830;-1.0136;
902.7000;0.0757;-1.0362;
903.0000;0.0765;-1.0362;
903.3000;0.0757;-1.0340;
903.6000;0.0757;-1.0453;
903.9000;0.0749;-1.0543;
904.2000;0.0790;-1.0543;
904.5000;0.0757;-1.0611;
904.8000;0.0749;-1.0611;
905.1000;0.0773;-1.0521;
905.4000;0.0773;-1.0543;
905.7000;0.0741;-1.0634;
906.0000;0.0749;-1.0566;
906.3000;0.0757;-1.0521;
906.6000;0.0757;-1.0521;
906.9000;0.0765;-1.0475;
907.2000;0.0790;-1.0408;
907.5000;0.0765;-1.0498;
907.8000;0.0798;-1.0498;
908.1000;0.0741;-1.0611;
908.4000;0.0830;-1.0340;
908.7000;0.0773;-1.0453;
909.0000;0.0757;-1.0430;
909.3000;0.0798;-1.0272;
909.6000;0.0749;-1.0362;
909.9000;0.0773;-1.0272;
910.2000;0.0781;-1.0181;
910.5000;0.0781;-1.0181;
910.8000;0.0773;-1.0272;
911.1000;0.0700;-1.0498;
911.4000;0.0806;-1.0294;
911.7000;0.0741;-1.0430;
912.0000;0.0659;-1.0634;
912.3000;0.0741;-1.0498;
912.6000;0.0741;-1.0498;
912.9000;0.0765;-1.0408;
913.2000;0.0733;-1.0498;
913.5000;0.0733;-1.0566;
913.8000;0.0741;-1.0566;
914.1000;0.0724;-1.0589;
914.4000;0.0798;-1.0408;
914.7000;0.0798;-1.0430;
915.0000;0.0765;-1.0430;
915.3000;0.0741;-1.0521;
915.6000;0.0757;-1.0475;
915.9000;0.0741;-1.0543;
916.2000;0.0855;-1.0249;
916.5000;0.0871;-1.0227;
916.8000;0.0765;-1.0453;
917.1000;0.0781;-1.0430;
917.4000;0.0757;-1.0498;
917.7000;0.0741;-1.0498;
918.0000;0.0724;-1.0453;
918.3000;0.0765;-1.0408;
918.6000;0.0700;-1.0589;
918.9000;0.0798;-1.0385;
919.2000;0.0781;-1.0453;
919.5000;0.0773;-1.0408;
919.8000;0.0749;-1.0317;
920.1000;0.0749;-1.0272;
920.4000;0.0773;-1.0227;
920.7000;0.0765;-1.0227;
921.0000;0.0757;-1.0362;
921.3000;0.0757;-1.0385;
921.6000;0.0724;-1.0430;
921.9000;0.0749;-1.0294;
922.2000;0.0757;-1.0294;
922.5000;0.0757;-1.0272;
922.8000;0.0765;-1.0159;
923.1000;0.0773;-1.0181;
923.4000;0.0741;-1.0340;
923.7000;0.0700;-1.0362;
924.0000;0.0741;-1.0317;
924.3000;0.0733;-1.0430;
924.6000;0.0765;-1.0362;
924.9000;0.0700;-1.0611;
925.2000;0.0757;-1.0589;
925.5000;0.0724;-1.0634;
925.8000;0.0733;-1.0611;
926.1000;0.0749;-1.0498;
926.4000;0.0773;-1.0408;
926.7000;0.0741;-1.0475;
927.0000;0.0749;-1.0498;
927.3000;0.0733;-1.0589;
927.6000;0.0724;-1.0656;
927.9000;0.0749;-1.0543;
928.2000;0.0757;-1.0430;
928.5000;0.0757;-1.0408;
928.8000;0.0700;-1.0543;
929.1000;0.0757;-1.0385;
929.4000;0.0773;-1.0272;
929.7000;0.0716;-1.0385;
930.0000;0.0781;-1.0159;
930.3000;0.0822;-1.0023;
930.6000;0.0757;-1.0249;
930.9000;0.0741;-1.0294;
931.2000;0.0749;-1.0294;
931.5000;0.0765;-1.0272;
931.8000;0.0676;-1.0475;
932.1000;0.0741;-1.0385;
932.4000;0.0659;-1.0566;
932.7000;0.0716;-1.0385;
933.0000;0.0773;-1.0294;
933.3000;0.0765;-1.0249;
933.6000;0.0733;-1.0385;
933.9000;0.0798;-1.0204;
934.2000;0.0757;-1.0340;
934.5000;0.0724;-1.0430;
934.8000;0.0781;-1.0272;
935.1000;0.0733;-1.0294;
935.4000;0.0757;-1.0272;
935.7000;0.0749;-1.0272;
936.0000;0.0765;-1.0362;
936.3000;0.0724;-1.0498;
936.6000;0.0716;-1.0543;
936.9000;0.0757;-1.0430;
937.2000;0.0765;-1.0408;
937.5000;0.0749;-1.0521;
937.8000;0.0749;-1.0566;
938.1000;0.0838;-1.0317;
938.4000;0.0757;-1.0498;
938.7000;0.0749;-1.0521;
939.0000;0.0741;-1.0498;
939.3000;0.0765;-1.0430;
939.6000;0.0741;-1.0430;
939.9000;0.0773;-1.0362;
940.2000;0.0749;-1.0408;
940.5000;0.0765;-1.0385;
940.8000;0.0635;-1.0702;
941.1000;0.0757;-1.0340;
941.4000;0.0790;-1.0362;
941.7000;0.0773;-1.0430;
942.0000;0.0765;-1.0408;
942.3000;0.0741;-1.0430;
942.6000;0.0635;-1.0815;
942.9000;0.0822;-1.0249;
943.2000;0.0749;-1.0453;
943.5000;0.0716;-1.0634;
943.8000;0.0741;-1.0702;
944.1000;0.0733;-1.0702;
944.4000;0.0757;-1.0656;
944.7000;0.0749;-1.0702;
945.0000;0.0724;-1.0747;
945.3000;0.0741;-1.0792;
945.6000;0.0733;-1.0770;
945.9000;0.0806;-1.0498;
946.2000;0.0724;-1.0656;
946.5000;0.0773;-1.0611;
946.8000;0.0757;-1.0543;
947.1000;0.0724;-1.0566;
947.4000;0.0757;-1.0589;
947.7000;0.0757;-1.0589;
948.0000;0.0733;-1.0611;
948.3000;0.0733;-1.0589;
948.6000;0.0822;-1.0408;
948.9000;0.0741;-1.0543;
949.2000;0.0781;-1.0566;
949.5000;0.0757;-1.0566;
949.8000;0.0716;-1.0611;
950.1000;0.0757;-1.0430;
950.4000;0.0765;-1.0498;
950.7000;0.0724;-1.0521;
951.0000;0.0757;-1.0521;
951.3000;0.0741;-1.0543;
951.6000;0.0749;-1.0566;
951.9000;0.0757;-1.0589;
952.2000;0.0790;-1.0453;
952.5000;0.0765;-1.0475;
952.8000;0.0741;-1.0543;
953.1000;0.0733;-1.0566;
953.4000;0.0733;-1.0543;
953.7000;0.0757;-1.0498;
954.0000;0.0765;-1.0475;
954.3000;0.0757;-1.0521;
954.6000;0.0749;-1.0543;
954.9000;0.0757;-1.0498;
955.2000;0.0741;-1.0543;
955.5000;0.0733;-1.0521;
955.8000;0.0749;-1.0521;
956.1000;0.0757;-1.0543;
956.4000;0.0749;-1.0566;
956.7000;0.0757;-1.0453;
957.0000;0.0765;-1.0453;
957.3000;0.0765;-1.0362;
957.6000;0.0757;-1.0385;
957.9000;0.0741;-1.0317;
958.2000;0.0684;-1.0453;
958.5000;0.0619;-1.0566;
958.8000;0.0757;-1.0272;
959.1000;0.0741;-1.0362;
959.4000;0.0765;-1.0385;
959.7000;0.0716;-1.0453;
960.0000;0.0741;-1.0340;
960.3000;0.0741;-1.0317;
960.6000;0.0757;-1.0249;
960.9000;0.0724;-1.0317;
961.2000;0.0651;-1.0498;
961.5000;0.0651;-1.0521;
961.8000;0.0757;-1.0272;
962.1000;0.0700;-1.0475;
962.4000;0.0773;-1.0362;
962.7000;0.0741;-1.0521;
963.0000;0.0733;-1.0656;
963.3000;0.0765;-1.0634;
963.6000;0.0765;-1.0611;
963.9000;0.0765;-1.0589;
964.2000;0.0757;-1.0543;
964.5000;0.0847;-1.0227;
964.8000;0.0781;-1.0453;
965.1000;0.0765;-1.0498;
965.4000;0.0822;-1.0362;
965.7000;0.0749;-1.0385;
966.0000;0.0847;-1.0181;
966.3000;0.0773;-1.0453;
966.6000;0.0773;-1.0521;
966.9000;0.0830;-1.0362;
967.2000;0.0798;-1.0453;
967.5000;0.0741;-1.0498;
967.8000;0.0757;-1.0453;
968.1000;0.0676;-1.0656;
968.4000;0.0773;-1.0408;
968.7000;0.0773;-1.0340;
969.0000;0.0700;-1.0543;
969.3000;0.0887;-1.0046;
969.6000;0.0749;-1.0430;
969.9000;0.0684;-1.0634;
970.2000;0.0692;-1.0611;
970.5000;0.0741;-1.0498;
970.8000;0.0757;-1.0453;
971.1000;0.0733;-1.0521;
971.4000;0.0773;-1.0430;
971.7000;0.0757;-1.0430;
972.0000;0.0749;-1.0362;
972.3000;0.0773;-1.0317;
972.6000;0.0757;-1.0340;
972.9000;0.0765;-1.0385;
973.2000;0.0749;-1.0453;
973.5000;0.0741;-1.0498;
973.8000;0.0749;-1.0408;
974.1000;0.0757;-1.0430;
974.4000;0.0741;-1.0521;
974.7000;0.0749;-1.0521;
975.0000;0.0757;-1.0498;
975.3000;0.0741;-1.0498;
975.6000;0.0724;-1.0453;
975.9000;0.0773;-1.0294;
976.2000;0.0790;-1.0272;
976.5000;0.0724;-1.0475;
976.8000;0.0757;-1.0408;
977.1000;0.0741;-1.0453;
977.4000;0.0741;-1.0475;
977.7000;0.0757;-1.0453;
978.0000;0.0749;-1.0475;
978.3000;0.0733;-1.0611;
978.6000;0.0733;-1.0679;
978.9000;0.0749;-1.0679;
979.2000;0.0781;-1.0543;
979.5000;0.0749;-1.0656;
979.8000;0.0749;-1.0634;
980.1000;0.0733;-1.0679;
980.4000;0.0765;-1.0566;
980.7000;0.0749;-1.0566;
981.0000;0.0757;-1.0589;
981.3000;0.0765;-1.0634;
981.6000;0.0749;-1.0634;
981.9000;0.0814;-1.0498;
982.2000;0.0741;-1.0589;
982.5000;0.0757;-1.0543;
982.8000;0.0765;-1.0453;
983.1000;0.0765;-1.0385;
983.4000;0.0781;-1.0317;
983.7000;0.0741;-1.0543;
984.0000;0.0733;-1.0566;
984.3000;0.0741;-1.0543;
984.6000;0.0733;-1.0566;
984.9000;0.0757;-1.0521;
985.2000;0.0757;-1.0408;
985.5000;0.0806;-1.0204;
985.8000;0.0757;-1.0317;
986.1000;0.0757;-1.0475;
986.4000;0.0798;-1.0430;
986.7000;0.0773;-1.0475;
987.0000;0.0757;-1.0408;
987.3000;0.0757;-1.0385;
987.6000;0.0765;-1.0340;
987.9000;0.0733;-1.0385;
988.2000;0.0676;-1.0521;
988.5000;0.0855;-0.9978;
988.8000;0.0749;-1.0249;
989.1000;0.0798;-1.0181;
989.4000;0.0741;-1.0249;
989.7000;0.0741;-1.0340;
990.0000;0.0724;-1.0475;
990.3000;0.0757;-1.0362;
990.6000;0.0757;-1.0362;
990.9000;0.0733;-1.0362;
991.2000;0.0798;-1.0227;
991.5000;0.0716;-1.0498;
991.8000;0.0749;-1.0385;
992.1000;0.0749;-1.0453;
992.4000;0.0806;-1.0272;
992.7000;0.0749;-1.0408;
993.0000;0.0765;-1.0408;
993.3000;0.0667;-1.0634;
993.6000;0.0741;-1.0498;
993.9000;0.0700;-1.0589;
994.2000;0.0790;-1.0294;
994.5000;0.0749;-1.0385;
994.8000;0.0733;-1.0430;
995.1000;0.0757;-1.0385;
995.4000;0.0773;-1.0408;
995.7000;0.0749;-1.0408;
996.0000;0.0749;-1.0385;
996.3000;0.0716;-1.0543;
996.6000;0.0781;-1.0294;
996.9000;0.0724;-1.0453;
997.2000;0.0822;-1.0317;
997.5000;0.0765;-1.0430;
997.8000;0.0741;-1.0498;
998.1000;0.0765;-1.0521;
998.4000;0.0757;-1.0453;
998.7000;0.0733;-1.0521;
999.0000;0.0741;-1.0498;
999.3000;0.0798;-1.0408;
999.6000;0.0781;-1.0453;
999.9000;0.0765;-1.0430;
1000.2000;0.0749;-1.0475;
1000.5000;0.0757;-1.0475;
1000.8000;0.0765;-1.0385;
1001.1000;0.0765;-1.0498;
1001.4000;0.0643;-1.0770;
1001.7000;0.0765;-1.0453;
1002.0000;0.0773;-1.0408;
1002.3000;0.0716;-1.0589;
1002.6000;0.0773;-1.0498;
1002.9000;0.0757;-1.0475;
1003.2000;0.0724;-1.0566;
1003.5000;0.0790;-1.0408;
1003.8000;0.0684;-1.0770;
1004.1000;0.0757;-1.0611;
1004.4000;0.0781;-1.0656;
1004.7000;0.0757;-1.0679;
1005.0000;0.0667;-1.0837;
1005.3000;0.0692;-1.0815;
1005.6000;0.0773;-1.0656;
1005.9000;0.0765;-1.0679;
1006.2000;0.0724;-1.0724;
1006.5000;0.0765;-1.0611;
1006.8000;0.0757;-1.0656;
1007.1000;0.0773;-1.0634;
1007.4000;0.0822;-1.0566;
1007.7000;0.0741;-1.0656;
1008.0000;0.0749;-1.0566;
1008.3000;0.0724;-1.0543;
1008.6000;0.0798;-1.0453;
1008.9000;0.0741;-1.0543;
1009.2000;0.0741;-1.0566;
1009.5000;0.0749;-1.0521;
1009.8000;0.0749;-1.0408;
1010.1000;0.0773;-1.0340;
1010.4000;0.0773;-1.0317;
1010.7000;0.0765;-1.0272;
1011.0000;0.0757;-1.0227;
1011.3000;0.0741;-1.0317;
1011.6000;0.0781;-1.0227;
1011.9000;0.0749;-1.0362;
1012.2000;0.0749;-1.0385;
1012.5000;0.0676;-1.0634;
1012.8000;0.0757;-1.0475;
1013.1000;0.0741;-1.0543;
1013.4000;0.0733;-1.0543;
1013.7000;0.0733;-1.0543;
1014.0000;0.0741;-1.0453;
1014.3000;0.0741;-1.0453;
1014.6000;0.0692;-1.0589;
1014.9000;0.0733;-1.0453;
1015.2000;0.0749;-1.0430;
1015.5000;0.0749;-1.0385;
1015.8000;0.0781;-1.0317;
1016.1000;0.0733;-1.0430;
1016.4000;0.0757;-1.0430;
1016.7000;0.0749;-1.0340;
1017.0000;0.0757;-1.0227;
1017.3000;0.0651;-1.0566;
1017.6000;0.0773;-1.0249;
1017.9000;0.0765;-1.0272;
1018.2000;0.0724;-1.0362;
1018.5000;0.0757;-1.0408;
1018.8000;0.0798;-1.0272;
1019.1000;0.0757;-1.0340;
1019.4000;0.0773;-1.0272;
1019.7000;0.0757;-1.0294;
1020.0000;0.0741;-1.0362;
1020.3000;0.0741;-1.0453;
1020.6000;0.0724;-1.0498;
1020.9000;0.0749;-1.0475;
1021.2000;0.0757;-1.0521;
1021.5000;0.0757;-1.0453;
1021.8000;0.0741;-1.0521;
1022.1000;0.0773;-1.0498;
1022.4000;0.0749;-1.0634;
1022.7000;0.0749;-1.0634;
1023.0000;0.0749;-1.0656;
1023.3000;0.0741;-1.0679;
1023.6000;0.0741;-1.0611;
1023.9000;0.0749;-1.0566;
1024.2000;0.0741;-1.0566;
1024.5000;0.0871;-1.0227;
1024.8000;0.0741;-1.0475;
1025.1000;0.0741;-1.0498;
1025.4000;0.0765;-1.0498;
1025.7000;0.0773;-1.0475;
1026.0000;0.0749;-1.0521;
1026.3000;0.0798;-1.0385;
1026.6000;0.0822;-1.0294;
1026.9000;0.0749;-1.0543;
1027.2000;0.0781;-1.0430;
1027.5000;0.0667;-1.0702;
1027.8000;0.0733;-1.0611;
1028.1000;0.0765;-1.0589;
1028.4000;0.0708;-1.0724;
1028.7000;0.0806;-1.0362;
1029.0000;0.0700;-1.0566;
1029.3000;0.0741;-1.0430;
1029.6000;0.0749;-1.0385;
1029.9000;0.0773;-1.0430;
1030.2000;0.0741;-1.0475;
1030.5000;0.0700;-1.0589;
1030.8000;0.0749;-1.0453;
1031.1000;0.0757;-1.0475;
1031.4000;0.0716;-1.0566;
1031.7000;0.0733;-1.0611;
1032.0000;0.0765;-1.0521;
1032.3000;0.0749;-1.0566;
1032.6000;0.0749;-1.0543;
1032.9000;0.0733;-1.0589;
1033.2000;0.0757;-1.0543;
1033.5000;0.0741;-1.0611;
1033.8000;0.0757;-1.0611;
1034.1000;0.0716;-1.0634;
1034.4000;0.0757;-1.0566;
1034.7000;0.0741;-1.0611;
1035.0000;0.0749;-1.0589;
1035.3000;0.0757;-1.0521;
1035.6000;0.0741;-1.0543;
1035.9000;0.0765;-1.0453;
1036.2000;0.0765;-1.0430;
1036.5000;0.0749;-1.0521;
1036.8000;0.0651;-1.0724;
1037.1000;0.0757;-1.0475;
1037.4000;0.0765;-1.0566;
1037.7000;0.0757;-1.0543;
1038.0000;0.0741;-1.0498;
1038.3000;0.0749;-1.0521;
1038.6000;0.0749;-1.0543;
1038.9000;0.0749;-1.0566;
1039.2000;0.0749;-1.0611;
1039.5000;0.0749;-1.0634;
1039.8000;0.0724;-1.0679;
1040.1000;0.0676;-1.0702;
1040.4000;0.0749;-1.0475;
1040.7000;0.0863;-1.0227;
1041.0000;0.0773;-1.0453;
1041.3000;0.0749;-1.0498;
1041.6000;0.0757;-1.0475;
1041.9000;0.0757;-1.0408;
1042.2000;0.0635;-1.0702;
1042.5000;0.0716;-1.0475;
1042.8000;0.0765;-1.0385;
1043.1000;0.0765;-1.0317;
1043.4000;0.0749;-1.0385;
1043.7000;0.0765;-1.0272;
1044.0000;0.0724;-1.0340;
1044.3000;0.0733;-1.0362;
1044.6000;0.0757;-1.0362;
1044.9000;0.0765;-1.0340;
1045.2000;0.0724;-1.0453;
1045.5000;0.0749;-1.0408;
1045.8000;0.0733;-1.0453;
1046.1000;0.0790;-1.0408;
1046.4000;0.0749;-1.0521;
1046.7000;0.0749;-1.0475;
1047.0000;0.0733;-1.0475;
1047.3000;0.0757;-1.0453;
1047.6000;0.0773;-1.0475;
1047.9000;0.0773;-1.0521;
1048.2000;0.0749;-1.0611;
1048.5000;0.0757;-1.0634;
1048.8000;0.0806;-1.0498;
1049.1000;0.0749;-1.0611;
1049.4000;0.0716;-1.0634;
1049.7000;0.0749;-1.0543;
1050.0000;0.0806;-1.0317;
1050.3000;0.0733;-1.0430;
1050.6000;0.0765;-1.0408;
1050.9000;0.0765;-1.0408;
1051.2000;0.0733;-1.0453;
1051.5000;0.0757;-1.0408;
1051.8000;0.0757;-1.0408;
1052.1000;0.0749;-1.0475;
1052.4000;0.0741;-1.0475;
1052.7000;0.0741;-1.0430;
1053.0000;0.0765;-1.0408;
1053.3000;0.0708;-1.0611;
1053.6000;0.0814;-1.0294;
1053.9000;0.0765;-1.0385;
1054.2000;0.0733;-1.0475;
1054.5000;0.0773;-1.0340;
1054.8000;0.0838;-1.0204;
1055.1000;0.0765;-1.0453;
1055.4000;0.0757;-1.0430;
1055.7000;0.0798;-1.0408;
1056.0000;0.0757;-1.0475;
1056.3000;0.0838;-1.0272;
1056.6000;0.0741;-1.0498;
1056.9000;0.0749;-1.0453;
1057.2000;0.0741;-1.0498;
1057.5000;0.0757;-1.0453;
1057.8000;0.0757;-1.0521;
1058.1000;0.0781;-1.0430;
1058.4000;0.0757;-1.0453;
1058.7000;0.0781;-1.0385;
1059.0000;0.0765;-1.0385;
1059.3000;0.0944;-0.9887;
1059.6000;0.0619;-1.0679;
1059.9000;0.0822;-1.0136;
1060.2000;0.0757;-1.0294;
1060.5000;0.0757;-1.0408;
1060.8000;0.0765;-1.0385;
1061.1000;0.0871;-1.0159;
1061.4000;0.0765;-1.0498;
1061.7000;0.0838;-1.0385;
1062.0000;0.0822;-1.0385;
1062.3000;0.0773;-1.0566;
1062.6000;0.0765;-1.0656;
1062.9000;0.0790;-1.0589;
1063.2000;0.0765;-1.0498;
1063.5000;0.0814;-1.0408;
1063.8000;0.0741;-1.0589;
1064.1000;0.0749;-1.0521;
1064.4000;0.0741;-1.0589;
1064.7000;0.0724;-1.0611;
1065.0000;0.0741;-1.0521;
1065.3000;0.0692;-1.0611;
1065.6000;0.0765;-1.0498;
1065.9000;0.0765;-1.0475;
1066.2000;0.0765;-1.0453;
1066.5000;0.0757;-1.0521;
1066.8000;0.0716;-1.0702;
1067.1000;0.0741;-1.0611;
1067.4000;0.0716;-1.0747;
1067.7000;0.0781;-1.0543;
1068.0000;0.0749;-1.0566;
1068.3000;0.0716;-1.0611;
1068.6000;0.0765;-1.0521;
1068.9000;0.0790;-1.0453;
1069.2000;0.0749;-1.0611;
1069.5000;0.0773;-1.0566;
1069.8000;0.0765;-1.0634;
1070.1000;0.0749;-1.0611;
1070.4000;0.0749;-1.0498;
1070.7000;0.0765;-1.0475;
1071.0000;0.0765;-1.0430;
1071.3000;0.0749;-1.0543;
1071.6000;0.0741;-1.0611;
1071.9000;0.0773;-1.0498;
1072.2000;0.0757;-1.0385;
1072.5000;0.0733;-1.0408;
1072.8000;0.0814;-1.0159;
1073.1000;0.0765;-1.0362;
1073.4000;0.0741;-1.0521;
1073.7000;0.0724;-1.0498;
1074.0000;0.0749;-1.0362;
1074.3000;0.0806;-1.0340;
1074.6000;0.0765;-1.0521;
1074.9000;0.0749;-1.0589;
1075.2000;0.0684;-1.0792;
1075.5000;0.0749;-1.0656;
1075.8000;0.0724;-1.0724;
1076.1000;0.0724;-1.0702;
1076.4000;0.0814;-1.0453;
1076.7000;0.0749;-1.0543;
1077.0000;0.0830;-1.0385;
1077.3000;0.0716;-1.0634;
1077.6000;0.0749;-1.0521;
1077.9000;0.0749;-1.0498;
1078.2000;0.0627;-1.0792;
1078.5000;0.0667;-1.0634;
1078.8000;0.0700;-1.0521;
1079.1000;0.0765;-1.0340;
1079.4000;0.0757;-1.0340;
1079.7000;0.0749;-1.0272;
1080.0000;0.0749;-1.0227;
1080.3000;0.0733;-1.0294;
1080.6000;0.0822;-1.0136;
1080.9000;0.0781;-1.0294;
1081.2000;0.0749;-1.0385;
1081.5000;0.0847;-1.0136;
1081.8000;0.0749;-1.0272;
1082.1000;0.0773;-1.0249;
1082.4000;0.0838;-1.0091;
1082.7000;0.0733;-1.0340;
1083.0000;0.0765;-1.0249;
1083.3000;0.0692;-1.0408;
1083.6000;0.0790;-1.0113;
1083.9000;0.0684;-1.0453;
1084.2000;0.0749;-1.0340;
1084.5000;0.0765;-1.0340;
1084.8000;0.0749;-1.0272;
1085.1000;0.0676;-1.0430;
1085.4000;0.0773;-1.0113;
1085.7000;0.0765;-1.0204;
1086.0000;0.0765;-1.0159;
1086.3000;0.0749;-1.0159;
1086.6000;0.0757;-1.0136;
1086.9000;0.0781;-1.0159;
1087.2000;0.0749;-1.0204;
1087.5000;0.0724;-1.0227;
1087.8000;0.0708;-1.0294;
1088.1000;0.0757;-1.0294;
1088.4000;0.0765;-1.0272;
1088.7000;0.0765;-1.0227;
1089.0000;0.0700;-1.0385;
1089.3000;0.0822;-1.0068;
1089.6000;0.0757;-1.0249;
1089.9000;0.0757;-1.0249;
1090.2000;0.0765;-1.0272;
1090.5000;0.0773;-1.0385;
1090.8000;0.0847;-1.0227;
1091.1000;0.0757;-1.0521;
1091.4000;0.0773;-1.0498;
1091.7000;0.0757;-1.0566;
1092.0000;0.0773;-1.0475;
1092.3000;0.0773;-1.0340;
1092.6000;0.0716;-1.0543;
1092.9000;0.0741;-1.0475;
1093.2000;0.0749;-1.0498;
1093.5000;0.0733;-1.0498;
1093.8000;0.0733;-1.0498;
1094.1000;0.0798;-1.0362;
1094.4000;0.0749;-1.0385;
1094.7000;0.0659;-1.0521;
1095.0000;0.0749;-1.0249;
1095.3000;0.0765;-1.0294;
1095.6000;0.0733;-1.0362;
1095.9000;0.0895;-0.9910;
1096.2000;0.0724;-1.0340;
1096.5000;0.0684;-1.0453;
1096.8000;0.0806;-1.0136;
1097.1000;0.0733;-1.0294;
1097.4000;0.0887;-0.9887;
1097.7000;0.0741;-1.0272;
1098.0000;0.0822;-1.0113;
1098.3000;0.0765;-1.0430;
1098.6000;0.0749;-1.0543;
1098.9000;0.0724;-1.0589;
1099.2000;0.0733;-1.0475;
1099.5000;0.0627;-1.0770;
1099.8000;0.0757;-1.0589;
1100.1000;0.0741;-1.0543;
1100.4000;0.0741;-1.0521;
1100.7000;0.0765;-1.0543;
1101.0000;0.0773;-1.0521;
1101.3000;0.0733;-1.0566;
1101.6000;0.0765;-1.0543;
1101.9000;0.0749;-1.0521;
1102.2000;0.0814;-1.0317;
1102.5000;0.0724;-1.0430;
1102.8000;0.0757;-1.0408;
1103.1000;0.0749;-1.0385;
1103.4000;0.0749;-1.0340;
1103.7000;0.0757;-1.0475;
1104.0000;0.0765;-1.0475;
1104.3000;0.0741;-1.0521;
1104.6000;0.0724;-1.0475;
1104.9000;0.0773;-1.0362;
1105.2000;0.0724;-1.0475;
1105.5000;0.0790;-1.0340;
1105.8000;0.0773;-1.0430;
1106.1000;0.0692;-1.0611;
1106.4000;0.0733;-1.0498;
1106.7000;0.0814;-1.0385;
1107.0000;0.0765;-1.0521;
1107.3000;0.0716;-1.0611;
1107.6000;0.0741;-1.0589;
1107.9000;0.0741;-1.0589;
1108.2000;0.0765;-1.0566;
1108.5000;0.0749;-1.0566;
1108.8000;0.0757;-1.0543;
1109.1000;0.0741;-1.0566;
1109.4000;0.0741;-1.0498;
1109.7000;0.0781;-1.0475;
1110.0000;0.0724;-1.0656;
1110.3000;0.0749;-1.0611;
1110.6000;0.0733;-1.0521;
1110.9000;0.0757;-1.0430;
1111.2000;0.0781;-1.0453;
1111.5000;0.0749;-1.0589;
1111.8000;0.0790;-1.0543;
1112.1000;0.0765;-1.0656;
1112.4000;0.0749;-1.0724;
1112.7000;0.0830;-1.0362;
1113.0000;0.0757;-1.0430;
1113.3000;0.0741;-1.0475;
1113.6000;0.0790;-1.0340;
1113.9000;0.0749;-1.0385;
1114.2000;0.0838;-1.0159;
1114.5000;0.0765;-1.0362;
1114.8000;0.0692;-1.0566;
1115.1000;0.0716;-1.0566;
1115.4000;0.0781;-1.0453;
1115.7000;0.0822;-1.0340;
1116.0000;0.0741;-1.0521;
1116.3000;0.0724;-1.0475;
1116.6000;0.0749;-1.0385;
1116.9000;0.0692;-1.0475;
1117.2000;0.0741;-1.0317;
1117.5000;0.0830;-1.0204;
1117.8000;0.0781;-1.0249;
1118.1000;0.0757;-1.0385;
1118.4000;0.0781;-1.0385;
1118.7000;0.0765;-1.0498;
1119.0000;0.0757;-1.0475;
1119.3000;0.0733;-1.0521;
1119.6000;0.0733;-1.0430;
1119.9000;0.0749;-1.0340;
1120.2000;0.0733;-1.0521;
1120.5000;0.0733;-1.0498;
1120.8000;0.0806;-1.0204;
1121.1000;0.0773;-1.0362;
1121.4000;0.0724;-1.0453;
1121.7000;0.0790;-1.0249;
1122.0000;0.0708;-1.0408;
1122.3000;0.0822;-1.0113;
1122.6000;0.0773;-1.0340;
1122.9000;0.0781;-1.0249;
1123.2000;0.0806;-1.0204;
1123.5000;0.0724;-1.0317;
1123.8000;0.0700;-1.0408;
1124.1000;0.0765;-1.0249;
1124.4000;0.0716;-1.0385;
1124.7000;0.0733;-1.0294;
1125.0000;0.0806;-1.0181;
1125.3000;0.0757;-1.0453;
1125.6000;0.0749;-1.0498;
1125.9000;0.0724;-1.0498;
1126.2000;0.0936;-1.0000;
1126.5000;0.0741;-1.0408;
1126.8000;0.0765;-1.0294;
1127.1000;0.0790;-1.0272;
1127.4000;0.0749;-1.0362;
1127.7000;0.0757;-1.0317;
1128.0000;0.0765;-1.0294;
1128.3000;0.0798;-1.0181;
1128.6000;0.0781;-1.0227;
1128.9000;0.0765;-1.0294;
1129.2000;0.0757;-1.0340;
1129.5000;0.0798;-1.0272;
1129.8000;0.0733;-1.0453;
1130.1000;0.0765;-1.0453;
1130.4000;0.0733;-1.0498;
1130.7000;0.0741;-1.0543;
1131.0000;0.0749;-1.0430;
1131.3000;0.0773;-1.0340;
1131.6000;0.0741;-1.0475;
1131.9000;0.0757;-1.0543;
1132.2000;0.0757;-1.0566;
1132.5000;0.0781;-1.0543;
1132.8000;0.0781;-1.0566;
1133.1000;0.0757;-1.0566;
1133.4000;0.0757;-1.0430;
1133.7000;0.0716;-1.0543;
1134.0000;0.0741;-1.0589;
1134.3000;0.0757;-1.0611;
1134.6000;0.0749;-1.0543;
1134.9000;0.0741;-1.0475;
1135.2000;0.0757;-1.0543;
1135.5000;0.0749;-1.0611;
1135.8000;0.0741;-1.0634;
1136.1000;0.0765;-1.0566;
1136.4000;0.0741;-1.0611;
1136.7000;0.0773;-1.0498;
1137.0000;0.0741;-1.0475;
1137.3000;0.0798;-1.0408;
1137.6000;0.0798;-1.0362;
1137.9000;0.0757;-1.0408;
1138.2000;0.0790;-1.0385;
1138.5000;0.0773;-1.0362;
1138.8000;0.0765;-1.0385;
1139.1000;0.0757;-1.0498;
1139.4000;0.0724;-1.0543;
1139.7000;0.0749;-1.0475;
1140.0000;0.0708;-1.0611;
1140.3000;0.0749;-1.0521;
1140.6000;0.0733;-1.0521;
1140.9000;0.0741;-1.0498;
1141.2000;0.0741;-1.0408;
1141.5000;0.0716;-1.0521;
1141.8000;0.0708;-1.0702;
1142.1000;0.0773;-1.0566;
1142.4000;0.0790;-1.0656;
1142.7000;0.0765;-1.0724;
1143.0000;0.0904;-1.0340;
1143.3000;0.0806;-1.0521;
1143.6000;0.0741;-1.0611;
1143.9000;0.0741;-1.0656;
1144.2000;0.0749;-1.0724;
1144.5000;0.0749;-1.0679;
1144.8000;0.0757;-1.0679;
1145.1000;0.0741;-1.0656;
1145.4000;0.0765;-1.0566;
1145.7000;0.0741;-1.0566;
1146.0000;0.0749;-1.0521;
1146.3000;0.0765;-1.0498;
1146.6000;0.0692;-1.0566;
1146.9000;0.0749;-1.0475;
1147.2000;0.0773;-1.0272;
1147.5000;0.0700;-1.0453;
1147.8000;0.0741;-1.0385;
1148.1000;0.0765;-1.0294;
1148.4000;0.0765;-1.0317;
1148.7000;0.0667;-1.0566;
1149.0000;0.0757;-1.0272;
1149.3000;0.0765;-1.0227;
1149.6000;0.0741;-1.0272;
1149.9000;0.0733;-1.0227;
1150.2000;0.0733;-1.0181;
1150.5000;0.0741;-1.0181;
1150.8000;0.0822;-1.0113;
1151.1000;0.0733;-1.0317;
1151.4000;0.0749;-1.0362;
1151.7000;0.0749;-1.0408;
1152.0000;0.0757;-1.0362;
1152.3000;0.0773;-1.0385;
1152.6000;0.0757;-1.0453;
1152.9000;0.0765;-1.0340;
1153.2000;0.0749;-1.0408;
1153.5000;0.0757;-1.0408;
1153.8000;0.0749;-1.0385;
1154.1000;0.0749;-1.0453;
1154.4000;0.0765;-1.0385;
1154.7000;0.0749;-1.0317;
1155.0000;0.0749;-1.0294;
1155.3000;0.0798;-1.0159;
1155.6000;0.0749;-1.0272;
1155.9000;0.0716;-1.0340;
1156.2000;0.0741;-1.0272;
1156.5000;0.0741;-1.0249;
1156.8000;0.0765;-1.0136;
1157.1000;0.0765;-1.0159;
1157.4000;0.0716;-1.0385;
1157.7000;0.0798;-1.0272;
1158.0000;0.0733;-1.0408;
1158.3000;0.0692;-1.0453;
1158.6000;0.0773;-1.0249;
1158.9000;0.0757;-1.0249;
1159.2000;0.0724;-1.0385;
1159.5000;0.0830;-1.0204;
1159.8000;0.0741;-1.0340;
1160.1000;0.0741;-1.0294;
1160.4000;0.0757;-1.0340;
1160.7000;0.0635;-1.0747;
1161.0000;0.0741;-1.0566;
1161.3000;0.0749;-1.0543;
1161.6000;0.0716;-1.0679;
1161.9000;0.0741;-1.0611;
1162.2000;0.0741;-1.0679;
1162.5000;0.0749;-1.0656;
1162.8000;0.0806;-1.0543;
1163.1000;0.0733;-1.0724;
1163.4000;0.0765;-1.0589;
1163.7000;0.0741;-1.0634;
1164.0000;0.0765;-1.0679;
1164.3000;0.0749;-1.0634;
1164.6000;0.0765;-1.0566;
1164.9000;0.0611;-1.0928;
1165.2000;0.0724;-1.0566;
1165.5000;0.0741;-1.0498;
1165.8000;0.0733;-1.0498;
1166.1000;0.0724;-1.0521;
1166.4000;0.0749;-1.0521;
1166.7000;0.0716;-1.0498;
1167.0000;0.0724;-1.0475;
1167.3000;0.0765;-1.0340;
1167.6000;0.0798;-1.0249;
1167.9000;0.0749;-1.0317;
1168.2000;0.0749;-1.0317;
1168.5000;0.0773;-1.0294;
1168.8000;0.0749;-1.0430;
1169.1000;0.0757;-1.0294;
1169.4000;0.0741;-1.0385;
1169.7000;0.0676;-1.0634;
1170.0000;0.0741;-1.0543;
1170.3000;0.0724;-1.0543;
1170.6000;0.0765;-1.0521;
1170.9000;0.0749;-1.0521;
1171.2000;0.0749;-1.0475;
1171.5000;0.0741;-1.0521;
1171.8000;0.0757;-1.0566;
1172.1000;0.0749;-1.0589;
1172.4000;0.0749;-1.0521;
1172.7000;0.0749;-1.0521;
1173.0000;0.0741;-1.0498;
1173.3000;0.0659;-1.0702;
1173.6000;0.0806;-1.0317;
1173.9000;0.0741;-1.0521;
1174.2000;0.0781;-1.0408;
1174.5000;0.0757;-1.0498;
1174.8000;0.0765;-1.0408;
1175.1000;0.0749;-1.0453;
1175.4000;0.0724;-1.0453;
1175.7000;0.0749;-1.0362;
1176.0000;0.0749;-1.0408;
1176.3000;0.0781;-1.0249;
1176.6000;0.0733;-1.0385;
1176.9000;0.0749;-1.0272;
1177.2000;0.0741;-1.0385;
1177.5000;0.0773;-1.0272;
1177.8000;0.0757;-1.0272;
1178.1000;0.0741;-1.0362;
1178.4000;0.0765;-1.0317;
1178.7000;0.0733;-1.0362;
1179.0000;0.0757;-1.0340;
1179.3000;0.0798;-1.0272;
1179.6000;0.0757;-1.0317;
1179.9000;0.0757;-1.0317;
1180.2000;0.0667;-1.0543;
1180.5000;0.0757;-1.0385;
1180.8000;0.0733;-1.0385;
1181.1000;0.0790;-1.0272;
1181.4000;0.0724;-1.0408;
1181.7000;0.0863;-1.0000;
1182.0000;0.0757;-1.0272;
1182.3000;0.0765;-1.0227;
1182.6000;0.0830;-1.0068;
1182.9000;0.0749;-1.0204;
1183.2000;0.0741;-1.0204;
1183.5000;0.0749;-1.0340;
1183.8000;0.0765;-1.0317;
1184.1000;0.0765;-1.0294;
1184.4000;0.0765;-1.0272;
1184.7000;0.0830;-1.0204;
1185.0000;0.0757;-1.0340;
1185.3000;0.0684;-1.0498;
1185.6000;0.0749;-1.0408;
1185.9000;0.0749;-1.0340;
1186.2000;0.0765;-1.0340;
1186.5000;0.0749;-1.0340;
1186.8000;0.0757;-1.0362;
1187.1000;0.0749;-1.0385;
1187.4000;0.0773;-1.0362;
1187.7000;0.0781;-1.0408;
1188.0000;0.0757;-1.0453;
1188.3000;0.0741;-1.0430;
1188.6000;0.0757;-1.0385;
1188.9000;0.0708;-1.0543;
1189.2000;0.0765;-1.0385;
1189.5000;0.0757;-1.0453;
1189.8000;0.0781;-1.0362;
1190.1000;0.0765;-1.0408;
1190.4000;0.0724;-1.0521;
1190.7000;0.0757;-1.0453;
1191.0000;0.0773;-1.0385;
1191.3000;0.0627;-1.0770;
1191.6000;0.0741;-1.0453;
1191.9000;0.0724;-1.0430;
1192.2000;0.0708;-1.0521;
1192.5000;0.0757;-1.0430;
1192.8000;0.0765;-1.0385;
1193.1000;0.0741;-1.0521;
1193.4000;0.0749;-1.0543;
1193.7000;0.0773;-1.0453;
1194.0000;0.0781;-1.0340;
1194.3000;0.0724;-1.0362;
1194.6000;0.0733;-1.0408;
1194.9000;0.0749;-1.0385;
1195.2000;0.0765;-1.0317;
1195.5000;0.0847;-1.0181;
1195.8000;0.0733;-1.0498;
1196.1000;0.0765;-1.0430;
1196.4000;0.0765;-1.0498;
1196.7000;0.0765;-1.0521;
1197.0000;0.0741;-1.0589;
1197.3000;0.0781;-1.0340;
1197.6000;0.0765;-1.0385;
1197.9000;0.0749;-1.0430;
1198.2000;0.0716;-1.0543;
1198.5000;0.0724;-1.0543;
1198.8000;0.0773;-1.0430;
1199.1000;0.0749;-1.0475;
1199.4000;0.0765;-1.0453;
1199.7000;0.0741;-1.0475;
1200.0000;0.0757;-1.0475;
1200.3000;0.0757;-1.0498;
1200.6000;0.0741;-1.0543;
1200.9000;0.0749;-1.0566;
1201.2000;0.0741;-1.0589;
1201.5000;0.0749;-1.0589;
1201.8000;0.0741;-1.0611;
1202.1000;0.0749;-1.0543;
1202.4000;0.0757;-1.0543;
1202.7000;0.0790;-1.0453;
1203.0000;0.0724;-1.0543;
1203.3000;0.0733;-1.0611;
1203.6000;0.0757;-1.0521;
1203.9000;0.0716;-1.0589;
1204.2000;0.0716;-1.0589;
1204.5000;0.0733;-1.0611;
1204.8000;0.0733;-1.0656;
1205.1000;0.0757;-1.0543;
1205.4000;0.0765;-1.0498;
1205.7000;0.0716;-1.0611;
1206.0000;0.0692;-1.0656;
1206.3000;0.0765;-1.0453;
1206.6000;0.0790;-1.0453;
1206.9000;0.0741;-1.0521;
1207.2000;0.0741;-1.0521;
1207.5000;0.0749;-1.0611;
1207.8000;0.0773;-1.0611;
1208.1000;0.0757;-1.0589;
1208.4000;0.0741;-1.0611;
1208.7000;0.0757;-1.0702;
1209.0000;0.0765;-1.0634;
1209.3000;0.0773;-1.0566;
1209.6000;0.0749;-1.0679;
1209.9000;0.0733;-1.0724;
1210.2000;0.0733;-1.0679;
1210.5000;0.0773;-1.0634;
1210.8000;0.0741;-1.0747;
1211.1000;0.0741;-1.0815;
1211.4000;0.0724;-1.0747;
1211.7000;0.0749;-1.0747;
1212.0000;0.0692;-1.0792;
1212.3000;0.0765;-1.0589;
1212.6000;0.0716;-1.0792;
1212.9000;0.0659;-1.1018;
1213.2000;0.0749;-1.0792;
1213.5000;0.0790;-1.0679;
1213.8000;0.0847;-1.0475;
1214.1000;0.0741;-1.0634;
1214.4000;0.0830;-1.0430;
1214.7000;0.0741;-1.0634;
1215.0000;0.0749;-1.0634;
1215.3000;0.0733;-1.0611;
1215.6000;0.0806;-1.0453;
1215.9000;0.0790;-1.0611;
1216.2000;0.0790;-1.0634;
1216.5000;0.0692;-1.0928;
1216.8000;0.0733;-1.0702;
1217.1000;0.0684;-1.0837;
1217.4000;0.0757;-1.0589;
1217.7000;0.0757;-1.0566;
1218.0000;0.0830;-1.0340;
1218.3000;0.0757;-1.0589;
1218.6000;0.0798;-1.0521;
1218.9000;0.0733;-1.0679;
1219.2000;0.0757;-1.0634;
1219.5000;0.0757;-1.0589;
1219.8000;0.0806;-1.0566;
1220.1000;0.0814;-1.0430;
1220.4000;0.0733;-1.0611;
1220.7000;0.0757;-1.0475;
1221.0000;0.0749;-1.0498;
1221.3000;0.0765;-1.0408;
1221.6000;0.0733;-1.0521;
1221.9000;0.0733;-1.0521;
1222.2000;0.0733;-1.0611;
1222.5000;0.0741;-1.0656;
1222.8000;0.0765;-1.0702;
1223.1000;0.0765;-1.0792;
1223.4000;0.0757;-1.0837;
1223.7000;0.0741;-1.0928;
1224.0000;0.0733;-1.0883;
1224.3000;0.0765;-1.0928;
1224.6000;0.0749;-1.0951;
1224.9000;0.0765;-1.0996;
1225.2000;0.0773;-1.0951;
1225.5000;0.0749;-1.1018;
1225.8000;0.0765;-1.0928;
1226.1000;0.0757;-1.0905;
1226.4000;0.0773;-1.0860;
1226.7000;0.0741;-1.0860;
1227.0000;0.0765;-1.0724;
1227.3000;0.0757;-1.0815;
1227.6000;0.0855;-1.0521;
1227.9000;0.0781;-1.0815;
1228.2000;0.0749;-1.0928;
1228.5000;0.0716;-1.0928;
1228.8000;0.0749;-1.0883;
1229.1000;0.0733;-1.0905;
1229.4000;0.0667;-1.1064;
1229.7000;0.0798;-1.0770;
1230.0000;0.0741;-1.0837;
1230.3000;0.0684;-1.0951;
1230.6000;0.0757;-1.0837;
1230.9000;0.0741;-1.0860;
1231.2000;0.0716;-1.0905;
1231.5000;0.0733;-1.0928;
1231.8000;0.0749;-1.0883;
1232.1000;0.0724;-1.0860;
1232.4000;0.0741;-1.0792;
1232.7000;0.0765;-1.0656;
1233.0000;0.0790;-1.0634;
1233.3000;0.0757;-1.0724;
1233.6000;0.0700;-1.0815;
1233.9000;0.0749;-1.0724;
1234.2000;0.0749;-1.0702;
1234.5000;0.0855;-1.0521;
1234.8000;0.0765;-1.0656;
1235.1000;0.0724;-1.0747;
1235.4000;0.0765;-1.0611;
1235.7000;0.0741;-1.0634;
1236.0000;0.0749;-1.0656;
1236.3000;0.0676;-1.0860;
1236.6000;0.0757;-1.0521;
1236.9000;0.0724;-1.0543;
1237.2000;0.0773;-1.0475;
1237.5000;0.0749;-1.0543;
1237.8000;0.0822;-1.0408;
1238.1000;0.0757;-1.0634;
1238.4000;0.0765;-1.0679;
1238.7000;0.0749;-1.0679;
1239.0000;0.0733;-1.0837;
1239.3000;0.0716;-1.0815;
1239.6000;0.0773;-1.0634;
1239.9000;0.0741;-1.0656;
1240.2000;0.0822;-1.0430;
1240.5000;0.0741;-1.0634;
1240.8000;0.0822;-1.0543;
1241.1000;0.0741;-1.0747;
1241.4000;0.0757;-1.0724;
1241.7000;0.0716;-1.0792;
1242.0000;0.0757;-1.0702;
1242.3000;0.0814;-1.0475;
1242.6000;0.0798;-1.0498;
1242.9000;0.0773;-1.0498;
1243.2000;0.0757;-1.0589;
1243.5000;0.0733;-1.0702;
1243.8000;0.0765;-1.0656;
1244.1000;0.0757;-1.0724;
1244.4000;0.0765;-1.0724;
1244.7000;0.0773;-1.0770;
1245.0000;0.0757;-1.0815;
1245.3000;0.0749;-1.0792;
1245.6000;0.0741;-1.0702;
1245.9000;0.0781;-1.0566;
1246.2000;0.0741;-1.0702;
1246.5000;0.0741;-1.0747;
1246.8000;0.0781;-1.0611;
1247.1000;0.0830;-1.0475;
1247.4000;0.0741;-1.0770;
1247.7000;0.0765;-1.0702;
1248.0000;0.0733;-1.0656;
1248.3000;0.0773;-1.0634;
1248.6000;0.0830;-1.0543;
1248.9000;0.0708;-1.0770;
1249.2000;0.0741;-1.0724;
1249.5000;0.0781;-1.0656;
1249.8000;0.0733;-1.0747;
1250.1000;0.0773;-1.0634;
1250.4000;0.0684;-1.0860;
1250.7000;0.0757;-1.0634;
1251.0000;0.0765;-1.0543;
1251.3000;0.0765;-1.0611;
1251.6000;0.0716;-1.0724;
1251.9000;0.0765;-1.0589;
1252.2000;0.0781;-1.0566;
1252.5000;0.0838;-1.0362;
1252.8000;0.0838;-1.0408;
1253.1000;0.0749;-1.0634;
1253.4000;0.0733;-1.0702;
1253.7000;0.0724;-1.0815;
1254.0000;0.0716;-1.0724;
1254.3000;0.0790;-1.0679;
1254.6000;0.0838;-1.0589;
1254.9000;0.0790;-1.0702;
1255.2000;0.0749;-1.0656;
1255.5000;0.0749;-1.0702;
1255.8000;0.0765;-1.0770;
1256.1000;0.0773;-1.0770;
1256.4000;0.0708;-1.0792;
1256.7000;0.0773;-1.0679;
1257.0000;0.0757;-1.0656;
1257.3000;0.0741;-1.0724;
1257.6000;0.0611;-1.0996;
1257.9000;0.0716;-1.0679;
1258.2000;0.0741;-1.0770;
1258.5000;0.0741;-1.0702;
1258.8000;0.0765;-1.0656;
1259.1000;0.0741;-1.0634;
1259.4000;0.0773;-1.0566;
1259.7000;0.0798;-1.0566;
1260.0000;0.0757;-1.0702;
1260.3000;0.0749;-1.0679;
1260.6000;0.0741;-1.0656;
1260.9000;0.0667;-1.0860;
1261.2000;0.0741;-1.0634;
1261.5000;0.0692;-1.0724;
1261.8000;0.0741;-1.0589;
1262.1000;0.0724;-1.0656;
1262.4000;0.0765;-1.0566;
1262.7000;0.0814;-1.0430;
1263.0000;0.0733;-1.0679;
1263.3000;0.0741;-1.0611;
1263.6000;0.0749;-1.0634;
1263.9000;0.0749;-1.0634;
1264.2000;0.0741;-1.0724;
1264.5000;0.0757;-1.0589;
1264.8000;0.0724;-1.0589;
1265.1000;0.0757;-1.0611;
1265.4000;0.0741;-1.0702;
1265.7000;0.0773;-1.0589;
1266.0000;0.0667;-1.0815;
1266.3000;0.0757;-1.0611;
1266.6000;0.0724;-1.0679;
1266.9000;0.0741;-1.0589;
1267.2000;0.0773;-1.0566;
1267.5000;0.0724;-1.0679;
1267.8000;0.0757;-1.0611;
1268.1000;0.0749;-1.0634;
1268.4000;0.0749;-1.0634;
1268.7000;0.0773;-1.0566;
1269.0000;0.0765;-1.0521;
1269.3000;0.0741;-1.0589;
1269.6000;0.0724;-1.0679;
1269.9000;0.0757;-1.0566;
1270.2000;0.0724;-1.0724;
1270.5000;0.0781;-1.0634;
1270.8000;0.0773;-1.0589;
1271.1000;0.0635;-1.0837;
1271.4000;0.0724;-1.0611;
1271.7000;0.0733;-1.0589;
1272.0000;0.0749;-1.0589;
1272.3000;0.0741;-1.0634;
1272.6000;0.0757;-1.0611;
1272.9000;0.0822;-1.0543;
1273.2000;0.0798;-1.0475;
1273.5000;0.0724;-1.0611;
1273.8000;0.0749;-1.0498;
1274.1000;0.0708;-1.0566;
1274.4000;0.0757;-1.0498;
1274.7000;0.0733;-1.0543;
1275.0000;0.0733;-1.0453;
1275.3000;0.0749;-1.0453;
1275.6000;0.0733;-1.0589;
1275.9000;0.0692;-1.0679;
1276.2000;0.0733;-1.0611;
1276.5000;0.0757;-1.0656;
1276.8000;0.0765;-1.0634;
1277.1000;0.0757;-1.0656;
1277.4000;0.0838;-1.0408;
1277.7000;0.0733;-1.0679;
1278.0000;0.0765;-1.0611;
1278.3000;0.0741;-1.0656;
1278.6000;0.0741;-1.0634;
1278.9000;0.0724;-1.0792;
1279.2000;0.0790;-1.0611;
1279.5000;0.0749;-1.0656;
1279.8000;0.0757;-1.0679;
1280.1000;0.0757;-1.0679;
1280.4000;0.0773;-1.0679;
1280.7000;0.0741;-1.0724;
1281.0000;0.0749;-1.0702;
1281.3000;0.0757;-1.0656;
1281.6000;0.0773;-1.0611;
1281.9000;0.0733;-1.0679;
1282.2000;0.0749;-1.0679;
1282.5000;0.0733;-1.0656;
1282.8000;0.0733;-1.0679;
1283.1000;0.0822;-1.0498;
1283.4000;0.0716;-1.0679;
1283.7000;0.0741;-1.0611;
1284.0000;0.0790;-1.0521;
1284.3000;0.0749;-1.0566;
1284.6000;0.0757;-1.0543;
1284.9000;0.0749;-1.0408;
1285.2000;0.0741;-1.0430;
1285.5000;0.0733;-1.0589;
1285.8000;0.0757;-1.0453;
1286.1000;0.0724;-1.0543;
1286.4000;0.0749;-1.0408;
1286.7000;0.0757;-1.0408;
1287.0000;0.0724;-1.0521;
1287.3000;0.0741;-1.0453;
1287.6000;0.0749;-1.0453;
1287.9000;0.0749;-1.0498;
1288.2000;0.0838;-1.0272;
1288.5000;0.0757;-1.0453;
1288.8000;0.0757;-1.0498;
1289.1000;0.0741;-1.0521;
1289.4000;0.0741;-1.0566;
1289.7000;0.0765;-1.0453;
1290.0000;0.0700;-1.0679;
1290.3000;0.0724;-1.0702;
1290.6000;0.0765;-1.0566;
1290.9000;0.0741;-1.0543;
1291.2000;0.0749;-1.0521;
1291.5000;0.0733;-1.0656;
1291.8000;0.0749;-1.0589;
1292.1000;0.0741;-1.0611;
1292.4000;0.0733;-1.0611;
1292.7000;0.0733;-1.0611;
1293.0000;0.0741;-1.0611;
1293.3000;0.0684;-1.0883;
1293.6000;0.0733;-1.0724;
1293.9000;0.0733;-1.0747;
1294.2000;0.0765;-1.0611;
1294.5000;0.0716;-1.0702;
1294.8000;0.0733;-1.0656;
1295.1000;0.0773;-1.0543;
1295.4000;0.0749;-1.0566;
1295.7000;0.0757;-1.0566;
1296.0000;0.0765;-1.0543;
1296.3000;0.0757;-1.0566;
1296.6000;0.0781;-1.0475;
1296.9000;0.0733;-1.0611;
1297.2000;0.0765;-1.0521;
1297.5000;0.0757;-1.0566;
1297.8000;0.0741;-1.0566;
1298.1000;0.0667;-1.0770;
1298.4000;0.0757;-1.0634;
1298.7000;0.0700;-1.0770;
1299.0000;0.0757;-1.0589;
1299.3000;0.0757;-1.0543;
1299.6000;0.0773;-1.0475;
1299.9000;0.0773;-1.0475;
1300.2000;0.0790;-1.0498;
1300.5000;0.0765;-1.0498;
1300.8000;0.0659;-1.0860;
1301.1000;0.0757;-1.0611;
1301.4000;0.0741;-1.0634;
1301.7000;0.0781;-1.0566;
1302.0000;0.0757;-1.0589;
1302.3000;0.0773;-1.0498;
1302.6000;0.0830;-1.0408;
1302.9000;0.0773;-1.0385;
1303.2000;0.0749;-1.0430;
1303.5000;0.0724;-1.0475;
1303.8000;0.0757;-1.0543;
1304.1000;0.0773;-1.0475;
1304.4000;0.0765;-1.0475;
1304.7000;0.0724;-1.0634;
1305.0000;0.0741;-1.0679;
1305.3000;0.0749;-1.0656;
1305.6000;0.0741;-1.0634;
1305.9000;0.0733;-1.0611;
1306.2000;0.0749;-1.0543;
1306.5000;0.0765;-1.0611;
1306.8000;0.0773;-1.0385;
1307.1000;0.0708;-1.0521;
1307.4000;0.0692;-1.0430;
1307.7000;0.0749;-1.0453;
1308.0000;0.0790;-1.0475;
1308.3000;0.0765;-1.0566;
1308.6000;0.0773;-1.0498;
1308.9000;0.0749;-1.0566;
1309.2000;0.0676;-1.0792;
1309.5000;0.0765;-1.0498;
1309.8000;0.0741;-1.0566;
1310.1000;0.0700;-1.0702;
1310.4000;0.0700;-1.0792;
1310.7000;0.0781;-1.0611;
1311.0000;0.0814;-1.0498;
1311.3000;0.0895;-1.0340;
1311.6000;0.0749;-1.0724;
1311.9000;0.0765;-1.0656;
1312.2000;0.0741;-1.0702;
1312.5000;0.0773;-1.0702;
1312.8000;0.0806;-1.0634;
1313.1000;0.0724;-1.0905;
1313.4000;0.0798;-1.0815;
1313.7000;0.0790;-1.0815;
1314.0000;0.0741;-1.0905;
1314.3000;0.0798;-1.0679;
1314.6000;0.0757;-1.0770;
1314.9000;0.0757;-1.0815;
1315.2000;0.0741;-1.0747;
1315.5000;0.0749;-1.0724;
1315.8000;0.0765;-1.0702;
1316.1000;0.0773;-1.0679;
1316.4000;0.0749;-1.0679;
1316.7000;0.0773;-1.0634;
1317.0000;0.0757;-1.0679;
1317.3000;0.0733;-1.0747;
1317.6000;0.0733;-1.0792;
1317.9000;0.0773;-1.0724;
1318.2000;0.0781;-1.0702;
1318.5000;0.0749;-1.0815;
1318.8000;0.0757;-1.0747;
1319.1000;0.0684;-1.0951;
1319.4000;0.0741;-1.0792;
1319.7000;0.0741;-1.0702;
1320.0000;0.0724;-1.0702;
1320.3000;0.0741;-1.0543;
1320.6000;0.0659;-1.0815;
1320.9000;0.0757;-1.0589;
1321.2000;0.0741;-1.0724;
1321.5000;0.0724;-1.0702;
1321.8000;0.0814;-1.0521;
1322.1000;0.0757;-1.0656;
1322.4000;0.0757;-1.0634;
1322.7000;0.0838;-1.0408;
1323.0000;0.0741;-1.0634;
1323.3000;0.0765;-1.0543;
1323.6000;0.0716;-1.0679;
1323.9000;0.0659;-1.0815;
1324.2000;0.0741;-1.0589;
1324.5000;0.0757;-1.0656;
1324.8000;0.0757;-1.0702;
1325.1000;0.0757;-1.0634;
1325.4000;0.0773;-1.0543;
1325.7000;0.0708;-1.0724;
1326.0000;0.0790;-1.0543;
1326.3000;0.0781;-1.0566;
1326.6000;0.0765;-1.0589;
1326.9000;0.0798;-1.0543;
1327.2000;0.0773;-1.0611;
1327.5000;0.0773;-1.0566;
1327.8000;0.0790;-1.0521;
1328.1000;0.0749;-1.0566;
1328.4000;0.0814;-1.0385;
1328.7000;0.0667;-1.0724;
1329.0000;0.0700;-1.0611;
1329.3000;0.0716;-1.0656;
1329.6000;0.0757;-1.0566;
1329.9000;0.0855;-1.0294;
1330.2000;0.0773;-1.0543;
1330.5000;0.0611;-1.0951;
1330.8000;0.0749;-1.0521;
1331.1000;0.0708;-1.0656;
1331.4000;0.0676;-1.0724;
1331.7000;0.0781;-1.0362;
1332.0000;0.0749;-1.0385;
1332.3000;0.0838;-1.0068;
1332.6000;0.0724;-1.0340;
1332.9000;0.0806;-1.0181;
1333.2000;0.0749;-1.0294;
1333.5000;0.0741;-1.0362;
1333.8000;0.0749;-1.0430;
1334.1000;0.0757;-1.0453;
1334.4000;0.0724;-1.0475;
1334.7000;0.0676;-1.0589;
1335.0000;0.0749;-1.0408;
1335.3000;0.0741;-1.0385;
1335.6000;0.0806;-1.0204;
1335.9000;0.0757;-1.0272;
1336.2000;0.0749;-1.0317;
1336.5000;0.0757;-1.0317;
1336.8000;0.0757;-1.0385;
1337.1000;0.0773;-1.0249;
1337.4000;0.0773;-1.0136;
1337.7000;0.0749;-1.0272;
1338.0000;0.0773;-1.0204;
1338.3000;0.0806;-1.0159;
1338.6000;0.0781;-1.0317;
1338.9000;0.0765;-1.0453;
1339.2000;0.0724;-1.0475;
1339.5000;0.0798;-1.0317;
1339.8000;0.0814;-1.0294;
1340.1000;0.0757;-1.0475;
1340.4000;0.0716;-1.0611;
1340.7000;0.0741;-1.0521;
1341.0000;0.0765;-1.0475;
1341.3000;0.0716;-1.0521;
1341.6000;0.0716;-1.0566;
1341.9000;0.0773;-1.0408;
1342.2000;0.0765;-1.0408;
1342.5000;0.0741;-1.0475;
1342.8000;0.0749;-1.0453;
1343.1000;0.0887;-1.0159;
1343.4000;0.0651;-1.0747;
1343.7000;0.0765;-1.0475;
1344.0000;0.0757;-1.0543;
1344.3000;0.0765;-1.0589;
1344.6000;0.0749;-1.0521;
1344.9000;0.0757;-1.0521;
1345.2000;0.0708;-1.0679;
1345.5000;0.0741;-1.0521;
1345.8000;0.0733;-1.0453;
1346.1000;0.0757;-1.0408;
1346.4000;0.0757;-1.0498;
1346.7000;0.0749;-1.0521;
1347.0000;0.0733;-1.0521;
1347.3000;0.0684;-1.0702;
1347.6000;0.0757;-1.0543;
1347.9000;0.0863;-1.0385;
1348.2000;0.0684;-1.0860;
1348.5000;0.0749;-1.0634;
1348.8000;0.0806;-1.0498;
1349.1000;0.0749;-1.0634;
1349.4000;0.0733;-1.0702;
1349.7000;0.0781;-1.0543;
1350.0000;0.0773;-1.0498;
1350.3000;0.0765;-1.0430;
1350.6000;0.0724;-1.0498;
1350.9000;0.0757;-1.0498;
1351.2000;0.0749;-1.0453;
1351.5000;0.0773;-1.0408;
1351.8000;0.0733;-1.0453;
1352.1000;0.0724;-1.0589;
1352.4000;0.0757;-1.0589;
1352.7000;0.0765;-1.0589;
1353.0000;0.0741;-1.0611;
1353.3000;0.0676;-1.0747;
1353.6000;0.0749;-1.0453;
1353.9000;0.0895;-1.0159;
1354.2000;0.0749;-1.0521;
1354.5000;0.0749;-1.0521;
1354.8000;0.0692;-1.0611;
1355.1000;0.0781;-1.0340;
1355.4000;0.0765;-1.0408;
1355.7000;0.0676;-1.0702;
1356.0000;0.0757;-1.0475;
1356.3000;0.0790;-1.0408;
1356.6000;0.0724;-1.0589;
1356.9000;0.0733;-1.0589;
1357.2000;0.0741;-1.0589;
1357.5000;0.0765;-1.0611;
1357.8000;0.0765;-1.0566;
1358.1000;0.0757;-1.0589;
1358.4000;0.0757;-1.0634;
1358.7000;0.0773;-1.0589;
1359.0000;0.0757;-1.0679;
1359.3000;0.0741;-1.0679;
1359.6000;0.0773;-1.0566;
1359.9000;0.0741;-1.0634;
1360.2000;0.0757;-1.0566;
1360.5000;0.0757;-1.0634;
1360.8000;0.0765;-1.0611;
1361.1000;0.0749;-1.0611;
1361.4000;0.0741;-1.0611;
1361.7000;0.0716;-1.0611;
1362.0000;0.0733;-1.0566;
1362.3000;0.0887;-1.0136;
1362.6000;0.0798;-1.0430;
1362.9000;0.0773;-1.0498;
1363.2000;0.0741;-1.0543;
1363.5000;0.0741;-1.0543;
1363.8000;0.0733;-1.0566;
1364.1000;0.0773;-1.0475;
1364.4000;0.0773;-1.0543;
1364.7000;0.0773;-1.0475;
1365.0000;0.0765;-1.0521;
1365.3000;0.0741;-1.0589;
1365.6000;0.0781;-1.0543;
1365.9000;0.0741;-1.0634;
1366.2000;0.0716;-1.0634;
1366.5000;0.0757;-1.0498;
1366.8000;0.0757;-1.0498;
1367.1000;0.0757;-1.0453;
1367.4000;0.0724;-1.0566;
1367.7000;0.0749;-1.0521;
1368.0000;0.0765;-1.0543;
1368.3000;0.0871;-1.0362;
1368.6000;0.0733;-1.0770;
1368.9000;0.0749;-1.0770;
1369.2000;0.0684;-1.0951;
1369.5000;0.0757;-1.0792;
1369.8000;0.0773;-1.0679;
1370.1000;0.0716;-1.0656;
1370.4000;0.0830;-1.0317;
1370.7000;0.0724;-1.0747;
1371.0000;0.0741;-1.0679;
1371.3000;0.0724;-1.0656;
1371.6000;0.0733;-1.0747;
1371.9000;0.0757;-1.0679;
1372.2000;0.0765;-1.0792;
1372.5000;0.0749;-1.0860;
1372.8000;0.0749;-1.0815;
1373.1000;0.0773;-1.0770;
1373.4000;0.0790;-1.0747;
1373.7000;0.0724;-1.0951;
1374.0000;0.0749;-1.0770;
1374.3000;0.0781;-1.0656;
1374.6000;0.0773;-1.0611;
1374.9000;0.0716;-1.0702;
1375.2000;0.0741;-1.0521;
1375.5000;0.0757;-1.0543;
1375.8000;0.0781;-1.0521;
1376.1000;0.0765;-1.0521;
1376.4000;0.0749;-1.0566;
1376.7000;0.0741;-1.0589;
1377.0000;0.0749;-1.0521;
1377.3000;0.0724;-1.0521;
1377.6000;0.0741;-1.0611;
1377.9000;0.0757;-1.0566;
1378.2000;0.0716;-1.0634;
1378.5000;0.0749;-1.0475;
1378.8000;0.0741;-1.0475;
1379.1000;0.0830;-1.0113;
1379.4000;0.0749;-1.0475;
1379.7000;0.0806;-1.0408;
1380.0000;0.0684;-1.0679;
1380.3000;0.0790;-1.0385;
1380.6000;0.0757;-1.0408;
1380.9000;0.0724;-1.0589;
1381.2000;0.0724;-1.0521;
1381.5000;0.0757;-1.0385;
1381.8000;0.0773;-1.0340;
1382.1000;0.0757;-1.0408;
1382.4000;0.0765;-1.0453;
1382.7000;0.0741;-1.0543;
1383.0000;0.0749;-1.0521;
1383.3000;0.0781;-1.0453;
1383.6000;0.0757;-1.0498;
1383.9000;0.0773;-1.0430;
1384.2000;0.0749;-1.0498;
1384.5000;0.0749;-1.0543;
1384.8000;0.0749;-1.0566;
1385.1000;0.0708;-1.0589;
1385.4000;0.0741;-1.0521;
1385.7000;0.0757;-1.0430;
1386.0000;0.0757;-1.0408;
1386.3000;0.0757;-1.0430;
1386.6000;0.0765;-1.0408;
1386.9000;0.0741;-1.0475;
1387.2000;0.0830;-1.0249;
1387.5000;0.0749;-1.0498;
1387.8000;0.0692;-1.0702;
1388.1000;0.0822;-1.0317;
1388.4000;0.0716;-1.0521;
1388.7000;0.0741;-1.0475;
1389.0000;0.0724;-1.0543;
1389.3000;0.0765;-1.0453;
1389.6000;0.0855;-1.0272;
1389.9000;0.0781;-1.0521;
1390.2000;0.0733;-1.0656;
1390.5000;0.0741;-1.0634;
1390.8000;0.0724;-1.0634;
1391.1000;0.0790;-1.0453;
1391.4000;0.0749;-1.0589;
1391.7000;0.0716;-1.0724;
1392.0000;0.0741;-1.0679;
1392.3000;0.0757;-1.0634;
1392.6000;0.0741;-1.0679;
1392.9000;0.0757;-1.0702;
1393.2000;0.0749;-1.0679;
1393.5000;0.0765;-1.0656;
1393.8000;0.0765;-1.0543;
1394.1000;0.0749;-1.0521;
1394.4000;0.0773;-1.0543;
1394.7000;0.0790;-1.0498;
1395.0000;0.0765;-1.0589;
1395.3000;0.0806;-1.0453;
1395.6000;0.0757;-1.0589;
1395.9000;0.0749;-1.0589;
1396.2000;0.0724;-1.0679;
1396.5000;0.0822;-1.0453;
1396.8000;0.0757;-1.0634;
1397.1000;0.0765;-1.0543;
1397.4000;0.0781;-1.0611;
1397.7000;0.0798;-1.0543;
1398.0000;0.0757;-1.0656;
1398.3000;0.0741;-1.0611;
1398.6000;0.0765;-1.0566;
1398.9000;0.0749;-1.0475;
1399.2000;0.0741;-1.0430;
1399.5000;0.0757;-1.0430;
1399.8000;0.0749;-1.0475;
