time/ms;Fluo/V;P700 deltaI/I x10³;
-199.8000;0.6593;-5.4660;
-199.5000;0.6593;-5.4660;
-199.2000;0.6569;-5.4607;
-198.9000;0.6610;-5.4581;
-198.6000;0.6610;-5.4475;
-198.3000;0.6593;-5.4475;
-198.0000;0.6642;-5.4317;
-197.7000;0.6585;-5.4343;
-197.4000;0.6602;-5.4264;
-197.1000;0.6585;-5.4264;
-196.8000;0.6593;-5.4238;
-196.5000;0.6593;-5.4264;
-196.2000;0.6585;-5.4343;
-195.9000;0.6602;-5.4290;
-195.6000;0.6577;-5.4343;
-195.3000;0.6593;-5.4422;
-195.0000;0.6593;-5.4502;
-194.7000;0.6602;-5.4502;
-194.4000;0.6602;-5.4502;
-194.1000;0.6602;-5.4449;
-193.8000;0.6602;-5.4396;
-193.5000;0.6626;-5.4185;
-193.2000;0.6577;-5.4343;
-192.9000;0.6602;-5.4317;
-192.6000;0.6626;-5.4211;
-192.3000;0.6602;-5.4238;
-192.0000;0.6545;-5.4449;
-191.7000;0.6602;-5.4290;
-191.4000;0.6585;-5.4290;
-191.1000;0.6585;-5.4370;
-190.8000;0.6602;-5.4264;
-190.5000;0.6602;-5.4290;
-190.2000;0.6602;-5.4290;
-189.9000;0.6610;-5.4211;
-189.6000;0.6593;-5.4290;
-189.3000;0.6593;-5.4264;
-189.0000;0.6618;-5.4211;
-188.7000;0.6602;-5.4211;
-188.4000;0.6610;-5.4238;
-188.1000;0.6610;-5.4290;
-187.8000;0.6618;-5.4317;
-187.5000;0.6634;-5.4238;
-187.2000;0.6610;-5.4290;
-186.9000;0.6618;-5.4317;
-186.6000;0.6610;-5.4370;
-186.3000;0.6536;-5.4607;
-186.0000;0.6602;-5.4475;
-185.7000;0.6593;-5.4422;
-185.4000;0.6602;-5.4290;
-185.1000;0.6602;-5.4370;
-184.8000;0.6602;-5.4422;
-184.5000;0.6593;-5.4475;
-184.2000;0.6593;-5.4449;
-183.9000;0.6593;-5.4475;
-183.6000;0.6610;-5.4449;
-183.3000;0.6602;-5.4449;
-183.0000;0.6577;-5.4475;
-182.7000;0.6593;-5.4370;
-182.4000;0.6618;-5.4238;
-182.1000;0.6618;-5.4290;
-181.8000;0.6520;-5.4634;
-181.5000;0.6585;-5.4528;
-181.2000;0.6593;-5.4554;
-180.9000;0.6593;-5.4502;
-180.6000;0.6585;-5.4607;
-180.3000;0.6610;-5.4634;
-180.0000;0.6626;-5.4554;
-179.7000;0.6642;-5.4528;
-179.4000;0.6626;-5.4660;
-179.1000;0.6602;-5.4660;
-178.8000;0.6618;-5.4660;
-178.5000;0.6536;-5.4845;
-178.2000;0.6602;-5.4660;
-177.9000;0.6602;-5.4607;
-177.6000;0.6618;-5.4528;
-177.3000;0.6593;-5.4528;
-177.0000;0.6553;-5.4554;
-176.7000;0.6602;-5.4449;
-176.4000;0.6593;-5.4475;
-176.1000;0.6577;-5.4528;
-175.8000;0.6602;-5.4502;
-175.5000;0.6585;-5.4554;
-175.2000;0.6585;-5.4607;
-174.9000;0.6569;-5.4581;
-174.6000;0.6585;-5.4581;
-174.3000;0.6577;-5.4475;
-174.0000;0.6593;-5.4449;
-173.7000;0.6593;-5.4502;
-173.4000;0.6610;-5.4554;
-173.1000;0.6593;-5.4502;
-172.8000;0.6610;-5.4449;
-172.5000;0.6634;-5.4449;
-172.2000;0.6610;-5.4554;
-171.9000;0.6585;-5.4634;
-171.6000;0.6618;-5.4554;
-171.3000;0.6626;-5.4502;
-171.0000;0.6602;-5.4502;
-170.7000;0.6593;-5.4581;
-170.4000;0.6593;-5.4607;
-170.1000;0.6602;-5.4554;
-169.8000;0.6585;-5.4554;
-169.5000;0.6610;-5.4502;
-169.2000;0.6667;-5.4370;
-168.9000;0.6577;-5.4634;
-168.6000;0.6602;-5.4528;
-168.3000;0.6610;-5.4528;
-168.0000;0.6602;-5.4475;
-167.7000;0.6610;-5.4502;
-167.4000;0.6618;-5.4502;
-167.1000;0.6577;-5.4502;
-166.8000;0.6593;-5.4502;
-166.5000;0.6602;-5.4528;
-166.2000;0.6610;-5.4502;
-165.9000;0.6626;-5.4396;
-165.6000;0.6602;-5.4422;
-165.3000;0.6593;-5.4422;
-165.0000;0.6593;-5.4422;
-164.7000;0.6585;-5.4502;
-164.4000;0.6577;-5.4528;
-164.1000;0.6569;-5.4502;
-163.8000;0.6585;-5.4449;
-163.5000;0.6602;-5.4528;
-163.2000;0.6577;-5.4554;
-162.9000;0.6561;-5.4554;
-162.6000;0.6593;-5.4554;
-162.3000;0.6577;-5.4634;
-162.0000;0.6577;-5.4713;
-161.7000;0.6626;-5.4634;
-161.4000;0.6602;-5.4502;
-161.1000;0.6634;-5.4370;
-160.8000;0.6569;-5.4581;
-160.5000;0.6602;-5.4422;
-160.2000;0.6593;-5.4502;
-159.9000;0.6626;-5.4396;
-159.6000;0.6585;-5.4502;
-159.3000;0.6577;-5.4528;
-159.0000;0.6602;-5.4554;
-158.7000;0.6602;-5.4528;
-158.4000;0.6659;-5.4370;
-158.1000;0.6585;-5.4528;
-157.8000;0.6618;-5.4449;
-157.5000;0.6593;-5.4554;
-157.2000;0.6602;-5.4528;
-156.9000;0.6610;-5.4581;
-156.6000;0.6593;-5.4502;
-156.3000;0.6602;-5.4449;
-156.0000;0.6610;-5.4449;
-155.7000;0.6593;-5.4528;
-155.4000;0.6593;-5.4554;
-155.1000;0.6577;-5.4528;
-154.8000;0.6602;-5.4396;
-154.5000;0.6626;-5.4396;
-154.2000;0.6610;-5.4502;
-153.9000;0.6618;-5.4475;
-153.6000;0.6602;-5.4502;
-153.3000;0.6593;-5.4449;
-153.0000;0.6602;-5.4449;
-152.7000;0.6593;-5.4449;
-152.4000;0.6593;-5.4370;
-152.1000;0.6577;-5.4396;
-151.8000;0.6602;-5.4475;
-151.5000;0.6577;-5.4502;
-151.2000;0.6585;-5.4422;
-150.9000;0.6593;-5.4396;
-150.6000;0.6618;-5.4370;
-150.3000;0.6585;-5.4449;
-150.0000;0.6610;-5.4370;
-149.7000;0.6602;-5.4422;
-149.4000;0.6545;-5.4554;
-149.1000;0.6536;-5.4581;
-148.8000;0.6593;-5.4422;
-148.5000;0.6593;-5.4581;
-148.2000;0.6569;-5.4686;
-147.9000;0.6593;-5.4607;
-147.6000;0.6553;-5.4660;
-147.3000;0.6602;-5.4528;
-147.0000;0.6610;-5.4422;
-146.7000;0.6610;-5.4528;
-146.4000;0.6602;-5.4607;
-146.1000;0.6602;-5.4528;
-145.8000;0.6602;-5.4475;
-145.5000;0.6593;-5.4370;
-145.2000;0.6593;-5.4290;
-144.9000;0.6593;-5.4370;
-144.6000;0.6593;-5.4422;
-144.3000;0.6602;-5.4422;
-144.0000;0.6618;-5.4370;
-143.7000;0.6593;-5.4449;
-143.4000;0.6602;-5.4449;
-143.1000;0.6675;-5.4158;
-142.8000;0.6602;-5.4422;
-142.5000;0.6593;-5.4396;
-142.2000;0.6610;-5.4422;
-141.9000;0.6602;-5.4396;
-141.6000;0.6610;-5.4396;
-141.3000;0.6618;-5.4343;
-141.0000;0.6602;-5.4475;
-140.7000;0.6610;-5.4449;
-140.4000;0.6610;-5.4449;
-140.1000;0.6610;-5.4449;
-139.8000;0.6610;-5.4528;
-139.5000;0.6602;-5.4528;
-139.2000;0.6610;-5.4502;
-138.9000;0.6602;-5.4502;
-138.6000;0.6602;-5.4528;
-138.3000;0.6618;-5.4528;
-138.0000;0.6610;-5.4581;
-137.7000;0.6602;-5.4634;
-137.4000;0.6545;-5.4713;
-137.1000;0.6593;-5.4554;
-136.8000;0.6610;-5.4581;
-136.5000;0.6610;-5.4502;
-136.2000;0.6593;-5.4581;
-135.9000;0.6626;-5.4581;
-135.6000;0.6618;-5.4634;
-135.3000;0.6642;-5.4502;
-135.0000;0.6585;-5.4607;
-134.7000;0.6610;-5.4554;
-134.4000;0.6593;-5.4528;
-134.1000;0.6593;-5.4607;
-133.8000;0.6610;-5.4502;
-133.5000;0.6585;-5.4554;
-133.2000;0.6602;-5.4475;
-132.9000;0.6602;-5.4502;
-132.6000;0.6602;-5.4528;
-132.3000;0.6577;-5.4528;
-132.0000;0.6585;-5.4502;
-131.7000;0.6593;-5.4502;
-131.4000;0.6593;-5.4502;
-131.1000;0.6593;-5.4475;
-130.8000;0.6569;-5.4528;
-130.5000;0.6618;-5.4475;
-130.2000;0.6585;-5.4554;
-129.9000;0.6585;-5.4502;
-129.6000;0.6593;-5.4449;
-129.3000;0.6602;-5.4502;
-129.0000;0.6610;-5.4607;
-128.7000;0.6553;-5.4739;
-128.4000;0.6577;-5.4634;
-128.1000;0.6569;-5.4581;
-127.8000;0.6553;-5.4607;
-127.5000;0.6553;-5.4634;
-127.2000;0.6602;-5.4581;
-126.9000;0.6577;-5.4554;
-126.6000;0.6593;-5.4554;
-126.3000;0.6610;-5.4422;
-126.0000;0.6569;-5.4370;
-125.7000;0.6561;-5.4264;
-125.4000;0.6610;-5.4211;
-125.1000;0.6618;-5.4185;
-124.8000;0.6618;-5.4185;
-124.5000;0.6602;-5.4290;
-124.2000;0.6602;-5.4343;
-123.9000;0.6610;-5.4396;
-123.6000;0.6569;-5.4502;
-123.3000;0.6585;-5.4475;
-123.0000;0.6602;-5.4396;
-122.7000;0.6659;-5.4343;
-122.4000;0.6610;-5.4475;
-122.1000;0.6610;-5.4502;
-121.8000;0.6585;-5.4554;
-121.5000;0.6593;-5.4607;
-121.2000;0.6602;-5.4607;
-120.9000;0.6610;-5.4686;
-120.6000;0.6593;-5.4818;
-120.3000;0.6602;-5.4739;
-120.0000;0.6602;-5.4739;
-119.7000;0.6602;-5.4713;
-119.4000;0.6602;-5.4634;
-119.1000;0.6593;-5.4634;
-118.8000;0.6618;-5.4686;
-118.5000;0.6610;-5.4739;
-118.2000;0.6585;-5.4634;
-117.9000;0.6569;-5.4713;
-117.6000;0.6626;-5.4554;
-117.3000;0.6618;-5.4475;
-117.0000;0.6577;-5.4528;
-116.7000;0.6577;-5.4475;
-116.4000;0.6577;-5.4502;
-116.1000;0.6585;-5.4475;
-115.8000;0.6577;-5.4634;
-115.5000;0.6577;-5.4528;
-115.2000;0.6569;-5.4502;
-114.9000;0.6618;-5.4343;
-114.6000;0.6593;-5.4449;
-114.3000;0.6593;-5.4396;
-114.0000;0.6593;-5.4396;
-113.7000;0.6602;-5.4396;
-113.4000;0.6536;-5.4634;
-113.1000;0.6610;-5.4449;
-112.8000;0.6593;-5.4502;
-112.5000;0.6553;-5.4581;
-112.2000;0.6553;-5.4634;
-111.9000;0.6602;-5.4554;
-111.6000;0.6610;-5.4449;
-111.3000;0.6585;-5.4396;
-111.0000;0.6602;-5.4343;
-110.7000;0.6602;-5.4317;
-110.4000;0.6593;-5.4317;
-110.1000;0.6602;-5.4238;
-109.8000;0.6602;-5.4264;
-109.5000;0.6593;-5.4343;
-109.2000;0.6602;-5.4343;
-108.9000;0.6593;-5.4343;
-108.6000;0.6602;-5.4343;
-108.3000;0.6602;-5.4343;
-108.0000;0.6610;-5.4290;
-107.7000;0.6593;-5.4370;
-107.4000;0.6593;-5.4396;
-107.1000;0.6561;-5.4475;
-106.8000;0.6577;-5.4396;
-106.5000;0.6602;-5.4422;
-106.2000;0.6585;-5.4396;
-105.9000;0.6536;-5.4396;
-105.6000;0.6569;-5.4343;
-105.3000;0.6569;-5.4449;
-105.0000;0.6602;-5.4370;
-104.7000;0.6602;-5.4422;
-104.4000;0.6585;-5.4422;
-104.1000;0.6520;-5.4686;
-103.8000;0.6602;-5.4422;
-103.5000;0.6602;-5.4502;
-103.2000;0.6602;-5.4449;
-102.9000;0.6585;-5.4554;
-102.6000;0.6593;-5.4554;
-102.3000;0.6593;-5.4528;
-102.0000;0.6553;-5.4686;
-101.7000;0.6585;-5.4607;
-101.4000;0.6618;-5.4554;
-101.1000;0.6618;-5.4634;
-100.8000;0.6634;-5.4581;
-100.5000;0.6593;-5.4686;
-100.2000;0.6602;-5.4660;
-99.9000;0.6618;-5.4607;
-99.6000;0.6602;-5.4634;
-99.3000;0.6667;-5.4370;
-99.0000;0.6610;-5.4422;
-98.7000;0.6593;-5.4396;
-98.4000;0.6553;-5.4528;
-98.1000;0.6610;-5.4396;
-97.8000;0.6602;-5.4396;
-97.5000;0.6561;-5.4528;
-97.2000;0.6536;-5.4554;
-96.9000;0.6593;-5.4502;
-96.6000;0.6585;-5.4502;
-96.3000;0.6602;-5.4396;
-96.0000;0.6610;-5.4238;
-95.7000;0.6577;-5.4290;
-95.4000;0.6577;-5.4370;
-95.1000;0.6545;-5.4502;
-94.8000;0.6593;-5.4475;
-94.5000;0.6569;-5.4475;
-94.2000;0.6610;-5.4370;
-93.9000;0.6553;-5.4422;
-93.6000;0.6618;-5.4290;
-93.3000;0.6577;-5.4317;
-93.0000;0.6593;-5.4264;
-92.7000;0.6585;-5.4370;
-92.4000;0.6585;-5.4370;
-92.1000;0.6602;-5.4370;
-91.8000;0.6585;-5.4370;
-91.5000;0.6593;-5.4475;
-91.2000;0.6634;-5.4475;
-90.9000;0.6602;-5.4502;
-90.6000;0.6593;-5.4449;
-90.3000;0.6520;-5.4713;
-90.0000;0.6593;-5.4554;
-89.7000;0.6610;-5.4554;
-89.4000;0.6602;-5.4607;
-89.1000;0.6618;-5.4607;
-88.8000;0.6602;-5.4660;
-88.5000;0.6659;-5.4581;
-88.2000;0.6610;-5.4713;
-87.9000;0.6618;-5.4634;
-87.6000;0.6610;-5.4607;
-87.3000;0.6610;-5.4607;
-87.0000;0.6585;-5.4634;
-86.7000;0.6602;-5.4634;
-86.4000;0.6593;-5.4607;
-86.1000;0.6602;-5.4634;
-85.8000;0.6602;-5.4660;
-85.5000;0.6593;-5.4713;
-85.2000;0.6585;-5.4766;
-84.9000;0.6610;-5.4686;
-84.6000;0.6585;-5.4713;
-84.3000;0.6577;-5.4871;
-84.0000;0.6593;-5.4924;
-83.7000;0.6593;-5.4977;
-83.4000;0.6593;-5.4871;
-83.1000;0.6585;-5.4818;
-82.8000;0.6577;-5.4818;
-82.5000;0.6593;-5.4766;
-82.2000;0.6585;-5.4739;
-81.9000;0.6593;-5.4713;
-81.6000;0.6602;-5.4766;
-81.3000;0.6593;-5.4792;
-81.0000;0.6577;-5.4792;
-80.7000;0.6593;-5.4792;
-80.4000;0.6602;-5.4818;
-80.1000;0.6585;-5.4898;
-79.8000;0.6610;-5.4792;
-79.5000;0.6593;-5.4818;
-79.2000;0.6585;-5.4818;
-78.9000;0.6593;-5.4739;
-78.6000;0.6577;-5.4713;
-78.3000;0.6626;-5.4554;
-78.0000;0.6585;-5.4554;
-77.7000;0.6610;-5.4554;
-77.4000;0.6561;-5.4660;
-77.1000;0.6618;-5.4607;
-76.8000;0.6602;-5.4634;
-76.5000;0.6577;-5.4660;
-76.2000;0.6642;-5.4475;
-75.9000;0.6610;-5.4502;
-75.6000;0.6602;-5.4607;
-75.3000;0.6593;-5.4634;
-75.0000;0.6618;-5.4528;
-74.7000;0.6610;-5.4554;
-74.4000;0.6585;-5.4686;
-74.1000;0.6593;-5.4660;
-73.8000;0.6593;-5.4739;
-73.5000;0.6593;-5.4713;
-73.2000;0.6593;-5.4766;
-72.9000;0.6593;-5.4766;
-72.6000;0.6585;-5.4686;
-72.3000;0.6593;-5.4686;
-72.0000;0.6585;-5.4792;
-71.7000;0.6602;-5.4660;
-71.4000;0.6585;-5.4660;
-71.1000;0.6577;-5.4713;
-70.8000;0.6593;-5.4766;
-70.5000;0.6618;-5.4686;
-70.2000;0.6634;-5.4660;
-69.9000;0.6610;-5.4581;
-69.6000;0.6585;-5.4634;
-69.3000;0.6512;-5.4845;
-69.0000;0.6610;-5.4475;
-68.7000;0.6602;-5.4422;
-68.4000;0.6610;-5.4422;
-68.1000;0.6610;-5.4528;
-67.8000;0.6602;-5.4581;
-67.5000;0.6610;-5.4554;
-67.2000;0.6610;-5.4554;
-66.9000;0.6610;-5.4634;
-66.6000;0.6602;-5.4660;
-66.3000;0.6602;-5.4766;
-66.0000;0.6602;-5.4818;
-65.7000;0.6585;-5.4898;
-65.4000;0.6602;-5.4818;
-65.1000;0.6585;-5.4871;
-64.8000;0.6593;-5.4818;
-64.5000;0.6602;-5.4766;
-64.2000;0.6602;-5.4792;
-63.9000;0.6618;-5.4739;
-63.6000;0.6610;-5.4739;
-63.3000;0.6602;-5.4766;
-63.0000;0.6585;-5.4686;
-62.7000;0.6610;-5.4634;
-62.4000;0.6610;-5.4686;
-62.1000;0.6577;-5.4713;
-61.8000;0.6593;-5.4660;
-61.5000;0.6577;-5.4845;
-61.2000;0.6602;-5.4818;
-60.9000;0.6569;-5.4924;
-60.6000;0.6569;-5.4924;
-60.3000;0.6610;-5.4818;
-60.0000;0.6593;-5.4792;
-59.7000;0.6577;-5.4792;
-59.4000;0.6585;-5.4660;
-59.1000;0.6585;-5.4634;
-58.8000;0.6593;-5.4607;
-58.5000;0.6659;-5.4554;
-58.2000;0.6593;-5.4660;
-57.9000;0.6626;-5.4581;
-57.6000;0.6577;-5.4686;
-57.3000;0.6610;-5.4713;
-57.0000;0.6593;-5.4713;
-56.7000;0.6610;-5.4686;
-56.4000;0.6626;-5.4634;
-56.1000;0.6593;-5.4766;
-55.8000;0.6520;-5.4924;
-55.5000;0.6585;-5.4686;
-55.2000;0.6610;-5.4660;
-54.9000;0.6610;-5.4607;
-54.6000;0.6602;-5.4634;
-54.3000;0.6602;-5.4660;
-54.0000;0.6585;-5.4713;
-53.7000;0.6593;-5.4713;
-53.4000;0.6610;-5.4660;
-53.1000;0.6634;-5.4581;
-52.8000;0.6602;-5.4607;
-52.5000;0.6585;-5.4607;
-52.2000;0.6593;-5.4581;
-51.9000;0.6593;-5.4660;
-51.6000;0.6577;-5.4739;
-51.3000;0.6610;-5.4792;
-51.0000;0.6569;-5.4898;
-50.7000;0.6585;-5.4871;
-50.4000;0.6593;-5.4818;
-50.1000;0.6585;-5.4713;
-49.8000;0.6602;-5.4713;
-49.5000;0.6610;-5.4686;
-49.2000;0.6593;-5.4660;
-48.9000;0.6585;-5.4607;
-48.6000;0.6602;-5.4528;
-48.3000;0.6593;-5.4581;
-48.0000;0.6585;-5.4634;
-47.7000;0.6593;-5.4607;
-47.4000;0.6593;-5.4581;
-47.1000;0.6610;-5.4607;
-46.8000;0.6593;-5.4581;
-46.5000;0.6585;-5.4607;
-46.2000;0.6593;-5.4475;
-45.9000;0.6602;-5.4422;
-45.6000;0.6602;-5.4475;
-45.3000;0.6545;-5.4739;
-45.0000;0.6585;-5.4660;
-44.7000;0.6610;-5.4713;
-44.4000;0.6593;-5.4792;
-44.1000;0.6602;-5.4766;
-43.8000;0.6577;-5.4871;
-43.5000;0.6602;-5.4792;
-43.2000;0.6618;-5.4686;
-42.9000;0.6610;-5.4766;
-42.6000;0.6602;-5.4792;
-42.3000;0.6602;-5.4924;
-42.0000;0.6602;-5.4898;
-41.7000;0.6593;-5.5030;
-41.4000;0.6602;-5.5003;
-41.1000;0.6593;-5.4898;
-40.8000;0.6577;-5.4871;
-40.5000;0.6585;-5.4845;
-40.2000;0.6602;-5.4792;
-39.9000;0.6610;-5.4766;
-39.6000;0.6593;-5.4766;
-39.3000;0.6602;-5.4686;
-39.0000;0.6577;-5.4713;
-38.7000;0.6585;-5.4766;
-38.4000;0.6577;-5.4818;
-38.1000;0.6593;-5.4818;
-37.8000;0.6593;-5.4818;
-37.5000;0.6577;-5.4951;
-37.2000;0.6593;-5.4924;
-36.9000;0.6634;-5.4766;
-36.6000;0.6602;-5.4845;
-36.3000;0.6602;-5.4924;
-36.0000;0.6618;-5.4871;
-35.7000;0.6634;-5.4845;
-35.4000;0.6602;-5.4871;
-35.1000;0.6569;-5.4871;
-34.8000;0.6585;-5.4898;
-34.5000;0.6593;-5.4818;
-34.2000;0.6585;-5.4845;
-33.9000;0.6618;-5.4818;
-33.6000;0.6585;-5.4898;
-33.3000;0.6593;-5.4845;
-33.0000;0.6593;-5.4792;
-32.7000;0.6610;-5.4686;
-32.4000;0.6602;-5.4739;
-32.1000;0.6602;-5.4792;
-31.8000;0.6610;-5.4766;
-31.5000;0.6610;-5.4845;
-31.2000;0.6602;-5.4898;
-30.9000;0.6618;-5.4818;
-30.6000;0.6602;-5.4739;
-30.3000;0.6593;-5.4792;
-30.0000;0.6602;-5.4792;
-29.7000;0.6569;-5.4818;
-29.4000;0.6593;-5.4818;
-29.1000;0.6626;-5.4766;
-28.8000;0.6593;-5.4818;
-28.5000;0.6569;-5.4792;
-28.2000;0.6496;-5.5056;
-27.9000;0.6602;-5.4766;
-27.6000;0.6577;-5.4818;
-27.3000;0.6569;-5.4871;
-27.0000;0.6593;-5.4713;
-26.7000;0.6610;-5.4660;
-26.4000;0.6593;-5.4686;
-26.1000;0.6593;-5.4792;
-25.8000;0.6585;-5.4898;
-25.5000;0.6593;-5.4898;
-25.2000;0.6569;-5.4898;
-24.9000;0.6585;-5.4871;
-24.6000;0.6585;-5.4898;
-24.3000;0.6602;-5.4845;
-24.0000;0.6585;-5.4818;
-23.7000;0.6585;-5.4871;
-23.4000;0.6561;-5.4977;
-23.1000;0.6593;-5.4845;
-22.8000;0.6642;-5.4739;
-22.5000;0.6585;-5.4845;
-22.2000;0.6585;-5.4818;
-21.9000;0.6593;-5.4792;
-21.6000;0.6593;-5.4792;
-21.3000;0.6618;-5.4818;
-21.0000;0.6585;-5.4924;
-20.7000;0.6602;-5.4818;
-20.4000;0.6536;-5.5083;
-20.1000;0.6593;-5.4924;
-19.8000;0.6577;-5.4924;
-19.5000;0.6536;-5.5083;
-19.2000;0.6561;-5.5030;
-18.9000;0.6593;-5.5003;
-18.6000;0.6585;-5.5003;
-18.3000;0.6602;-5.4977;
-18.0000;0.6593;-5.4924;
-17.7000;0.6593;-5.4898;
-17.4000;0.6593;-5.4898;
-17.1000;0.6577;-5.4924;
-16.8000;0.6610;-5.4871;
-16.5000;0.6593;-5.4924;
-16.2000;0.6610;-5.4898;
-15.9000;0.6593;-5.4845;
-15.6000;0.6602;-5.4766;
-15.3000;0.6593;-5.4660;
-15.0000;0.6602;-5.4554;
-14.7000;0.6585;-5.4475;
-14.4000;0.6577;-5.4475;
-14.1000;0.6602;-5.4528;
-13.8000;0.6585;-5.4660;
-13.5000;0.6602;-5.4660;
-13.2000;0.6602;-5.4581;
-12.9000;0.6593;-5.4554;
-12.6000;0.6585;-5.4528;
-12.3000;0.6593;-5.4554;
-12.0000;0.6577;-5.4502;
-11.7000;0.6593;-5.4475;
-11.4000;0.6602;-5.4502;
-11.1000;0.6585;-5.4502;
-10.8000;0.6593;-5.4554;
-10.5000;0.6610;-5.4475;
-10.2000;0.6585;-5.4581;
-9.9000;0.6610;-5.4475;
-9.6000;0.6593;-5.4581;
-9.3000;0.6585;-5.4634;
-9.0000;0.6593;-5.4634;
-8.7000;0.6593;-5.4607;
-8.4000;0.6569;-5.4766;
-8.1000;0.6602;-5.4713;
-7.8000;0.6593;-5.4713;
-7.5000;0.6602;-5.4766;
-7.2000;0.6561;-5.4924;
-6.9000;0.6610;-5.4660;
-6.6000;0.6585;-5.4686;
-6.3000;0.6618;-5.4634;
-6.0000;0.6593;-5.4660;
-5.7000;0.6602;-5.4713;
-5.4000;0.6512;-5.4898;
-5.1000;0.6618;-5.4634;
-4.8000;0.6602;-5.4634;
-4.5000;0.6512;-5.4818;
-4.2000;0.6593;-5.4713;
-3.9000;0.6602;-5.4660;
-3.6000;0.6585;-5.4686;
-3.3000;0.6577;-5.4739;
-3.0000;0.6585;-5.4686;
-2.7000;0.6585;-5.4845;
-2.4000;0.6618;-5.4792;
-2.1000;0.6602;-5.4818;
-1.8000;0.6593;-5.4818;
-1.5000;0.6577;-5.4845;
-1.2000;0.6585;-5.4766;
-0.9000;0.6593;-5.4686;
-0.6000;0.6593;-5.4713;
-0.3000;0.6618;-5.4660;
0.0000;0.6618;-5.4660;
0.3000;0.6984;-5.4554;
0.6000;0.7725;-5.3736;
0.9000;0.8319;-5.2996;
1.2000;0.8742;-5.2521;
1.5000;0.9174;-5.1835;
1.8000;0.9451;-5.1280;
2.1000;0.9654;-5.0884;
2.4000;0.9882;-5.0462;
2.7000;1.0020;-5.0250;
3.0000;1.0159;-5.0065;
3.3000;1.0256;-4.9960;
3.6000;1.0395;-4.9801;
3.9000;1.0492;-4.9669;
4.2000;1.0598;-4.9485;
4.5000;1.0647;-4.9564;
4.8000;1.0769;-4.9432;
5.1000;1.0867;-4.9352;
5.4000;1.0932;-4.9300;
5.7000;1.1022;-4.9220;
6.0000;1.1087;-4.9273;
6.3000;1.1160;-4.9273;
6.6000;1.1233;-4.9220;
6.9000;1.1306;-4.9247;
7.2000;1.1372;-4.9220;
7.5000;1.1437;-4.9141;
7.8000;1.1510;-4.9168;
8.1000;1.1575;-4.9194;
8.4000;1.1632;-4.9194;
8.7000;1.1697;-4.9247;
9.0000;1.1754;-4.9273;
9.3000;1.1827;-4.9247;
9.6000;1.1868;-4.9300;
9.9000;1.1933;-4.9352;
10.2000;1.1982;-4.9300;
10.5000;1.2031;-4.9352;
10.8000;1.2088;-4.9352;
11.1000;1.2129;-4.9458;
11.4000;1.2194;-4.9458;
11.7000;1.2259;-4.9352;
12.0000;1.2300;-4.9432;
12.3000;1.2340;-4.9405;
12.6000;1.2381;-4.9326;
12.9000;1.2422;-4.9300;
13.2000;1.2470;-4.9273;
13.5000;1.2479;-4.9405;
13.8000;1.2552;-4.9432;
14.1000;1.2609;-4.9379;
14.4000;1.2666;-4.9273;
14.7000;1.2707;-4.9300;
15.0000;1.2715;-4.9352;
15.3000;1.2747;-4.9379;
15.6000;1.2812;-4.9352;
15.9000;1.2829;-4.9405;
16.2000;1.2853;-4.9432;
16.5000;1.2943;-4.9379;
16.8000;1.2934;-4.9485;
17.1000;1.2959;-4.9405;
17.4000;1.2967;-4.9379;
17.7000;1.3000;-4.9379;
18.0000;1.3065;-4.9300;
18.3000;1.3057;-4.9458;
18.6000;1.3065;-4.9485;
18.9000;1.3097;-4.9511;
19.2000;1.3122;-4.9511;
19.5000;1.3195;-4.9485;
19.8000;1.3162;-4.9564;
20.1000;1.3195;-4.9485;
20.4000;1.3219;-4.9432;
20.7000;1.3236;-4.9379;
21.0000;1.3236;-4.9511;
21.3000;1.3284;-4.9432;
21.6000;1.3293;-4.9511;
21.9000;1.3301;-4.9564;
22.2000;1.3333;-4.9511;
22.5000;1.3341;-4.9537;
22.8000;1.3366;-4.9537;
23.1000;1.3390;-4.9669;
23.4000;1.3382;-4.9643;
23.7000;1.3407;-4.9564;
24.0000;1.3431;-4.9485;
24.3000;1.3439;-4.9537;
24.6000;1.3464;-4.9590;
24.9000;1.3464;-4.9617;
25.2000;1.3488;-4.9643;
25.5000;1.3496;-4.9590;
25.8000;1.3512;-4.9590;
26.1000;1.3529;-4.9564;
26.4000;1.3529;-4.9511;
26.7000;1.3569;-4.9432;
27.0000;1.3578;-4.9405;
27.3000;1.3578;-4.9352;
27.6000;1.3594;-4.9379;
27.9000;1.3602;-4.9379;
28.2000;1.3610;-4.9405;
28.5000;1.3618;-4.9432;
28.8000;1.3635;-4.9458;
29.1000;1.3626;-4.9564;
29.4000;1.3651;-4.9537;
29.7000;1.3667;-4.9485;
30.0000;1.3691;-4.9405;
30.3000;1.3683;-4.9485;
30.6000;1.3667;-4.9458;
30.9000;1.3757;-4.9300;
31.2000;1.3691;-4.9458;
31.5000;1.3691;-4.9537;
31.8000;1.3700;-4.9537;
32.1000;1.3732;-4.9432;
32.4000;1.3732;-4.9485;
32.7000;1.3724;-4.9511;
33.0000;1.3748;-4.9458;
33.3000;1.3748;-4.9485;
33.6000;1.3748;-4.9458;
33.9000;1.3789;-4.9458;
34.2000;1.3765;-4.9590;
34.5000;1.3781;-4.9537;
34.8000;1.3781;-4.9511;
35.1000;1.3781;-4.9511;
35.4000;1.3797;-4.9537;
35.7000;1.3805;-4.9511;
36.0000;1.3814;-4.9511;
36.3000;1.3805;-4.9537;
36.6000;1.3805;-4.9643;
36.9000;1.3822;-4.9617;
37.2000;1.3854;-4.9564;
37.5000;1.3838;-4.9590;
37.8000;1.3830;-4.9669;
38.1000;1.3838;-4.9696;
38.4000;1.3830;-4.9696;
38.7000;1.3822;-4.9749;
39.0000;1.3879;-4.9564;
39.3000;1.3862;-4.9590;
39.6000;1.3919;-4.9458;
39.9000;1.3822;-4.9722;
40.2000;1.3862;-4.9617;
40.5000;1.3854;-4.9590;
40.8000;1.3871;-4.9590;
41.1000;1.3895;-4.9458;
41.4000;1.3895;-4.9511;
41.7000;1.3887;-4.9485;
42.0000;1.3887;-4.9458;
42.3000;1.3895;-4.9379;
42.6000;1.3903;-4.9432;
42.9000;1.3903;-4.9405;
43.2000;1.3895;-4.9485;
43.5000;1.3928;-4.9432;
43.8000;1.3895;-4.9485;
44.1000;1.3952;-4.9300;
44.4000;1.3928;-4.9485;
44.7000;1.3919;-4.9537;
45.0000;1.3928;-4.9458;
45.3000;1.3919;-4.9458;
45.6000;1.3944;-4.9405;
45.9000;1.3968;-4.9379;
46.2000;1.3960;-4.9405;
46.5000;1.3960;-4.9511;
46.8000;1.3968;-4.9432;
47.1000;1.3968;-4.9379;
47.4000;1.3968;-4.9379;
47.7000;1.3968;-4.9432;
48.0000;1.3960;-4.9432;
48.3000;1.3968;-4.9379;
48.6000;1.3968;-4.9352;
48.9000;1.3960;-4.9432;
49.2000;1.3968;-4.9352;
49.5000;1.3976;-4.9352;
49.8000;1.4001;-4.9352;
50.1000;1.3985;-4.9458;
50.4000;1.4009;-4.9537;
50.7000;1.4001;-4.9590;
51.0000;1.3976;-4.9617;
51.3000;1.4009;-4.9564;
51.6000;1.4009;-4.9617;
51.9000;1.4009;-4.9643;
52.2000;1.4009;-4.9590;
52.5000;1.4025;-4.9537;
52.8000;1.4017;-4.9564;
53.1000;1.4066;-4.9405;
53.4000;1.4017;-4.9485;
53.7000;1.4009;-4.9511;
54.0000;1.4025;-4.9458;
54.3000;1.4033;-4.9537;
54.6000;1.4025;-4.9590;
54.9000;1.4025;-4.9590;
55.2000;1.4001;-4.9590;
55.5000;1.4033;-4.9511;
55.8000;1.4009;-4.9617;
56.1000;1.4058;-4.9564;
56.4000;1.4042;-4.9590;
56.7000;1.4042;-4.9564;
57.0000;1.4017;-4.9564;
57.3000;1.4042;-4.9485;
57.6000;1.4042;-4.9485;
57.9000;1.4025;-4.9564;
58.2000;1.4090;-4.9405;
58.5000;1.4050;-4.9511;
58.8000;1.4058;-4.9458;
59.1000;1.4017;-4.9537;
59.4000;1.4025;-4.9564;
59.7000;1.4098;-4.9352;
60.0000;1.4058;-4.9485;
60.3000;1.4098;-4.9300;
60.6000;1.4082;-4.9432;
60.9000;1.4082;-4.9379;
61.2000;1.4066;-4.9485;
61.5000;1.4058;-4.9537;
61.8000;1.4050;-4.9617;
62.1000;1.4082;-4.9617;
62.4000;1.4090;-4.9590;
62.7000;1.4090;-4.9537;
63.0000;1.4082;-4.9485;
63.3000;1.4090;-4.9432;
63.6000;1.4172;-4.9300;
63.9000;1.4042;-4.9643;
64.2000;1.4082;-4.9669;
64.5000;1.4098;-4.9643;
64.8000;1.4107;-4.9590;
65.1000;1.4090;-4.9590;
65.4000;1.4107;-4.9485;
65.7000;1.4074;-4.9537;
66.0000;1.4050;-4.9617;
66.3000;1.4090;-4.9537;
66.6000;1.4042;-4.9696;
66.9000;1.4115;-4.9511;
67.2000;1.4098;-4.9511;
67.5000;1.4107;-4.9432;
67.8000;1.4172;-4.9326;
68.1000;1.4107;-4.9485;
68.4000;1.4098;-4.9537;
68.7000;1.4123;-4.9617;
69.0000;1.4115;-4.9643;
69.3000;1.4115;-4.9617;
69.6000;1.4123;-4.9643;
69.9000;1.4090;-4.9749;
70.2000;1.4082;-4.9775;
70.5000;1.4131;-4.9617;
70.8000;1.4139;-4.9485;
71.1000;1.4131;-4.9537;
71.4000;1.4196;-4.9458;
71.7000;1.4066;-4.9775;
72.0000;1.4139;-4.9643;
72.3000;1.4139;-4.9696;
72.6000;1.4090;-4.9775;
72.9000;1.4155;-4.9669;
73.2000;1.4155;-4.9590;
73.5000;1.4139;-4.9590;
73.8000;1.4131;-4.9564;
74.1000;1.4147;-4.9564;
74.4000;1.4147;-4.9458;
74.7000;1.4147;-4.9405;
75.0000;1.4147;-4.9485;
75.3000;1.4115;-4.9590;
75.6000;1.4164;-4.9511;
75.9000;1.4155;-4.9643;
76.2000;1.4155;-4.9564;
76.5000;1.4139;-4.9643;
76.8000;1.4155;-4.9643;
77.1000;1.4180;-4.9537;
77.4000;1.4147;-4.9564;
77.7000;1.4164;-4.9537;
78.0000;1.4155;-4.9511;
78.3000;1.4155;-4.9511;
78.6000;1.4155;-4.9485;
78.9000;1.4139;-4.9590;
79.2000;1.4155;-4.9537;
79.5000;1.4164;-4.9564;
79.8000;1.4164;-4.9564;
80.1000;1.4131;-4.9643;
80.4000;1.4155;-4.9643;
80.7000;1.4164;-4.9643;
81.0000;1.4115;-4.9722;
81.3000;1.4155;-4.9722;
81.6000;1.4147;-4.9696;
81.9000;1.4221;-4.9564;
82.2000;1.4180;-4.9590;
82.5000;1.4180;-4.9617;
82.8000;1.4155;-4.9669;
83.1000;1.4155;-4.9643;
83.4000;1.4180;-4.9617;
83.7000;1.4180;-4.9617;
84.0000;1.4204;-4.9590;
84.3000;1.4180;-4.9669;
84.6000;1.4155;-4.9722;
84.9000;1.4188;-4.9643;
85.2000;1.4164;-4.9669;
85.5000;1.4155;-4.9669;
85.8000;1.4188;-4.9643;
86.1000;1.4172;-4.9564;
86.4000;1.4107;-4.9775;
86.7000;1.4196;-4.9669;
87.0000;1.4180;-4.9828;
87.3000;1.4188;-4.9854;
87.6000;1.4180;-4.9933;
87.9000;1.4188;-5.0039;
88.2000;1.4196;-4.9986;
88.5000;1.4196;-4.9881;
88.8000;1.4212;-4.9986;
89.1000;1.4180;-5.0013;
89.4000;1.4196;-4.9986;
89.7000;1.4147;-5.0171;
90.0000;1.4196;-5.0039;
90.3000;1.4196;-5.0039;
90.6000;1.4180;-5.0118;
90.9000;1.4180;-5.0065;
91.2000;1.4180;-4.9960;
91.5000;1.4204;-4.9933;
91.8000;1.4204;-4.9960;
92.1000;1.4188;-5.0039;
92.4000;1.4188;-5.0013;
92.7000;1.4180;-5.0039;
93.0000;1.4196;-4.9854;
93.3000;1.4204;-4.9828;
93.6000;1.4204;-4.9881;
93.9000;1.4221;-4.9775;
94.2000;1.4221;-4.9854;
94.5000;1.4221;-4.9933;
94.8000;1.4245;-4.9960;
95.1000;1.4229;-5.0039;
95.4000;1.4237;-4.9933;
95.7000;1.4180;-5.0065;
96.0000;1.4229;-4.9881;
96.3000;1.4204;-4.9986;
96.6000;1.4188;-4.9933;
96.9000;1.4221;-4.9881;
97.2000;1.4204;-4.9933;
97.5000;1.4212;-4.9881;
97.8000;1.4212;-5.0013;
98.1000;1.4188;-5.0065;
98.4000;1.4212;-4.9907;
98.7000;1.4237;-4.9854;
99.0000;1.4212;-4.9881;
99.3000;1.4229;-4.9881;
99.6000;1.4204;-4.9907;
99.9000;1.4237;-4.9881;
100.2000;1.4245;-4.9881;
100.5000;1.4204;-4.9986;
100.8000;1.4212;-4.9907;
101.1000;1.4221;-4.9881;
101.4000;1.4229;-4.9933;
101.7000;1.4229;-4.9986;
102.0000;1.4212;-4.9986;
102.3000;1.4204;-4.9986;
102.6000;1.4221;-4.9933;
102.9000;1.4212;-4.9907;
103.2000;1.4188;-4.9960;
103.5000;1.4229;-4.9907;
103.8000;1.4204;-5.0013;
104.1000;1.4229;-4.9907;
104.4000;1.4221;-4.9960;
104.7000;1.4237;-4.9933;
105.0000;1.4212;-5.0013;
105.3000;1.4221;-4.9933;
105.6000;1.4221;-4.9960;
105.9000;1.4229;-4.9960;
106.2000;1.4237;-4.9933;
106.5000;1.4245;-4.9933;
106.8000;1.4212;-5.0092;
107.1000;1.4221;-5.0118;
107.4000;1.4278;-4.9986;
107.7000;1.4229;-5.0092;
108.0000;1.4245;-5.0065;
108.3000;1.4221;-4.9986;
108.6000;1.4196;-5.0118;
108.9000;1.4253;-5.0013;
109.2000;1.4253;-4.9986;
109.5000;1.4237;-5.0065;
109.8000;1.4221;-5.0092;
110.1000;1.4229;-5.0092;
110.4000;1.4229;-5.0039;
110.7000;1.4229;-5.0013;
111.0000;1.4229;-5.0092;
111.3000;1.4237;-5.0039;
111.6000;1.4221;-4.9986;
111.9000;1.4204;-5.0092;
112.2000;1.4237;-5.0065;
112.5000;1.4212;-5.0092;
112.8000;1.4237;-5.0039;
113.1000;1.4245;-4.9986;
113.4000;1.4229;-5.0039;
113.7000;1.4196;-5.0065;
114.0000;1.4245;-4.9986;
114.3000;1.4237;-4.9986;
114.6000;1.4229;-4.9986;
114.9000;1.4229;-4.9986;
115.2000;1.4221;-4.9986;
115.5000;1.4245;-4.9881;
115.8000;1.4237;-4.9933;
116.1000;1.4221;-4.9933;
116.4000;1.4237;-4.9881;
116.7000;1.4237;-4.9933;
117.0000;1.4237;-4.9907;
117.3000;1.4237;-4.9933;
117.6000;1.4237;-4.9933;
117.9000;1.4253;-4.9881;
118.2000;1.4237;-4.9881;
118.5000;1.4221;-5.0065;
118.8000;1.4237;-5.0039;
119.1000;1.4253;-5.0039;
119.4000;1.4261;-4.9933;
119.7000;1.4261;-4.9933;
120.0000;1.4253;-4.9881;
120.3000;1.4269;-4.9933;
120.6000;1.4269;-4.9960;
120.9000;1.4269;-4.9907;
121.2000;1.4245;-4.9933;
121.5000;1.4261;-4.9933;
121.8000;1.4253;-4.9881;
122.1000;1.4278;-4.9881;
122.4000;1.4261;-4.9775;
122.7000;1.4245;-4.9828;
123.0000;1.4261;-4.9881;
123.3000;1.4269;-4.9933;
123.6000;1.4261;-4.9960;
123.9000;1.4261;-4.9933;
124.2000;1.4278;-4.9828;
124.5000;1.4286;-4.9801;
124.8000;1.4261;-4.9881;
125.1000;1.4278;-4.9907;
125.4000;1.4294;-4.9854;
125.7000;1.4269;-4.9960;
126.0000;1.4269;-4.9933;
126.3000;1.4261;-4.9933;
126.6000;1.4269;-4.9907;
126.9000;1.4278;-4.9960;
127.2000;1.4278;-4.9986;
127.5000;1.4253;-5.0092;
127.8000;1.4261;-5.0171;
128.1000;1.4278;-5.0013;
128.4000;1.4261;-5.0039;
128.7000;1.4245;-5.0118;
129.0000;1.4245;-5.0013;
129.3000;1.4253;-4.9933;
129.6000;1.4302;-4.9881;
129.9000;1.4261;-5.0013;
130.2000;1.4269;-5.0065;
130.5000;1.4245;-5.0171;
130.8000;1.4212;-5.0250;
131.1000;1.4253;-5.0118;
131.4000;1.4196;-5.0224;
131.7000;1.4229;-5.0197;
132.0000;1.4310;-4.9986;
132.3000;1.4269;-5.0092;
132.6000;1.4253;-5.0092;
132.9000;1.4302;-5.0013;
133.2000;1.4269;-5.0092;
133.5000;1.4278;-5.0065;
133.8000;1.4278;-5.0065;
134.1000;1.4278;-5.0118;
134.4000;1.4261;-5.0197;
134.7000;1.4253;-5.0329;
135.0000;1.4261;-5.0277;
135.3000;1.4261;-5.0224;
135.6000;1.4245;-5.0171;
135.9000;1.4204;-5.0277;
136.2000;1.4269;-5.0197;
136.5000;1.4253;-5.0224;
136.8000;1.4253;-5.0197;
137.1000;1.4269;-5.0118;
137.4000;1.4261;-5.0013;
137.7000;1.4278;-5.0013;
138.0000;1.4261;-5.0092;
138.3000;1.4269;-5.0092;
138.6000;1.4253;-5.0224;
138.9000;1.4269;-5.0197;
139.2000;1.4269;-5.0197;
139.5000;1.4269;-5.0277;
139.8000;1.4294;-5.0145;
140.1000;1.4278;-5.0118;
140.4000;1.4286;-5.0013;
140.7000;1.4278;-5.0039;
141.0000;1.4278;-4.9933;
141.3000;1.4278;-4.9960;
141.6000;1.4261;-4.9986;
141.9000;1.4229;-5.0145;
142.2000;1.4278;-5.0145;
142.5000;1.4269;-5.0171;
142.8000;1.4278;-5.0171;
143.1000;1.4261;-5.0145;
143.4000;1.4204;-5.0277;
143.7000;1.4261;-5.0065;
144.0000;1.4269;-5.0118;
144.3000;1.4261;-5.0171;
144.6000;1.4278;-5.0171;
144.9000;1.4286;-5.0092;
145.2000;1.4278;-5.0118;
145.5000;1.4269;-5.0092;
145.8000;1.4269;-5.0171;
146.1000;1.4286;-5.0224;
146.4000;1.4278;-5.0277;
146.7000;1.4286;-5.0197;
147.0000;1.4286;-5.0224;
147.3000;1.4302;-5.0224;
147.6000;1.4278;-5.0250;
147.9000;1.4286;-5.0171;
148.2000;1.4286;-5.0145;
148.5000;1.4286;-5.0250;
148.8000;1.4294;-5.0197;
149.1000;1.4286;-5.0197;
149.4000;1.4269;-5.0197;
149.7000;1.4278;-5.0145;
150.0000;1.4294;-5.0197;
150.3000;1.4286;-5.0250;
150.6000;1.4278;-5.0145;
150.9000;1.4269;-5.0197;
151.2000;1.4294;-5.0145;
151.5000;1.4261;-5.0224;
151.8000;1.4269;-5.0092;
152.1000;1.4269;-5.0065;
152.4000;1.4278;-5.0145;
152.7000;1.4269;-5.0197;
153.0000;1.4278;-5.0118;
153.3000;1.4269;-5.0092;
153.6000;1.4261;-5.0171;
153.9000;1.4286;-5.0224;
154.2000;1.4269;-5.0197;
154.5000;1.4286;-5.0250;
154.8000;1.4261;-5.0171;
155.1000;1.4294;-5.0092;
155.4000;1.4269;-5.0224;
155.7000;1.4302;-5.0065;
156.0000;1.4278;-5.0065;
156.3000;1.4286;-5.0065;
156.6000;1.4294;-5.0092;
156.9000;1.4294;-5.0118;
157.2000;1.4278;-5.0145;
157.5000;1.4359;-4.9881;
157.8000;1.4318;-5.0013;
158.1000;1.4278;-5.0065;
158.4000;1.4278;-5.0039;
158.7000;1.4278;-5.0039;
159.0000;1.4286;-4.9986;
159.3000;1.4269;-5.0065;
159.6000;1.4261;-5.0065;
159.9000;1.4278;-5.0013;
160.2000;1.4286;-5.0065;
160.5000;1.4253;-5.0171;
160.8000;1.4286;-5.0145;
161.1000;1.4278;-5.0224;
161.4000;1.4294;-5.0118;
161.7000;1.4286;-5.0171;
162.0000;1.4286;-5.0250;
162.3000;1.4278;-5.0356;
162.6000;1.4286;-5.0303;
162.9000;1.4269;-5.0356;
163.2000;1.4269;-5.0382;
163.5000;1.4278;-5.0329;
163.8000;1.4286;-5.0329;
164.1000;1.4269;-5.0329;
164.4000;1.4278;-5.0356;
164.7000;1.4278;-5.0277;
165.0000;1.4245;-5.0382;
165.3000;1.4278;-5.0382;
165.6000;1.4269;-5.0329;
165.9000;1.4278;-5.0329;
166.2000;1.4286;-5.0409;
166.5000;1.4310;-5.0382;
166.8000;1.4310;-5.0409;
167.1000;1.4294;-5.0435;
167.4000;1.4253;-5.0567;
167.7000;1.4294;-5.0409;
168.0000;1.4375;-5.0224;
168.3000;1.4253;-5.0435;
168.6000;1.4286;-5.0409;
168.9000;1.4261;-5.0435;
169.2000;1.4294;-5.0329;
169.5000;1.4294;-5.0329;
169.8000;1.4269;-5.0409;
170.1000;1.4286;-5.0541;
170.4000;1.4286;-5.0488;
170.7000;1.4294;-5.0514;
171.0000;1.4294;-5.0594;
171.3000;1.4245;-5.0594;
171.6000;1.4294;-5.0462;
171.9000;1.4302;-5.0488;
172.2000;1.4294;-5.0435;
172.5000;1.4310;-5.0382;
172.8000;1.4261;-5.0488;
173.1000;1.4286;-5.0382;
173.4000;1.4294;-5.0277;
173.7000;1.4269;-5.0356;
174.0000;1.4278;-5.0329;
174.3000;1.4286;-5.0329;
174.6000;1.4278;-5.0277;
174.9000;1.4269;-5.0329;
175.2000;1.4269;-5.0382;
175.5000;1.4278;-5.0303;
175.8000;1.4294;-5.0197;
176.1000;1.4278;-5.0224;
176.4000;1.4278;-5.0250;
176.7000;1.4286;-5.0171;
177.0000;1.4302;-5.0118;
177.3000;1.4294;-5.0145;
177.6000;1.4310;-5.0118;
177.9000;1.4294;-5.0171;
178.2000;1.4294;-5.0171;
178.5000;1.4302;-5.0197;
178.8000;1.4310;-5.0145;
179.1000;1.4278;-5.0224;
179.4000;1.4278;-5.0250;
179.7000;1.4286;-5.0224;
180.0000;1.4278;-5.0224;
180.3000;1.4286;-5.0224;
180.6000;1.4278;-5.0224;
180.9000;1.4294;-5.0197;
181.2000;1.4294;-5.0092;
181.5000;1.4302;-5.0039;
181.8000;1.4294;-5.0092;
182.1000;1.4221;-5.0303;
182.4000;1.4286;-5.0171;
182.7000;1.4278;-5.0145;
183.0000;1.4302;-5.0118;
183.3000;1.4294;-5.0145;
183.6000;1.4294;-5.0092;
183.9000;1.4294;-5.0039;
184.2000;1.4278;-5.0145;
184.5000;1.4302;-5.0224;
184.8000;1.4318;-5.0224;
185.1000;1.4286;-5.0224;
185.4000;1.4294;-5.0145;
185.7000;1.4294;-5.0118;
186.0000;1.4302;-5.0224;
186.3000;1.4286;-5.0197;
186.6000;1.4294;-5.0171;
186.9000;1.4286;-5.0197;
187.2000;1.4294;-5.0224;
187.5000;1.4318;-5.0118;
187.8000;1.4286;-5.0118;
188.1000;1.4294;-5.0145;
188.4000;1.4318;-5.0145;
188.7000;1.4310;-5.0118;
189.0000;1.4294;-5.0197;
189.3000;1.4294;-5.0171;
189.6000;1.4302;-5.0118;
189.9000;1.4310;-5.0145;
190.2000;1.4294;-5.0118;
190.5000;1.4294;-5.0092;
190.8000;1.4269;-5.0145;
191.1000;1.4302;-5.0039;
191.4000;1.4269;-5.0118;
191.7000;1.4302;-5.0039;
192.0000;1.4278;-5.0145;
192.3000;1.4318;-5.0197;
192.6000;1.4302;-5.0277;
192.9000;1.4294;-5.0250;
193.2000;1.4326;-5.0250;
193.5000;1.4286;-5.0382;
193.8000;1.4302;-5.0382;
194.1000;1.4286;-5.0409;
194.4000;1.4278;-5.0435;
194.7000;1.4318;-5.0435;
195.0000;1.4335;-5.0356;
195.3000;1.4278;-5.0356;
195.6000;1.4278;-5.0250;
195.9000;1.4229;-5.0435;
196.2000;1.4294;-5.0277;
196.5000;1.4302;-5.0250;
196.8000;1.4269;-5.0277;
197.1000;1.4302;-5.0250;
197.4000;1.4269;-5.0409;
197.7000;1.4318;-5.0197;
198.0000;1.4326;-5.0171;
198.3000;1.4383;-5.0013;
198.6000;1.4359;-5.0065;
198.9000;1.4245;-5.0329;
199.2000;1.4310;-5.0171;
199.5000;1.4278;-5.0092;
199.8000;1.4310;-4.9960;
200.1000;1.4302;-5.0065;
200.4000;1.4286;-5.0171;
200.7000;1.4302;-5.0224;
201.0000;1.4286;-5.0250;
201.3000;1.4294;-5.0250;
201.6000;1.4310;-5.0197;
201.9000;1.4286;-5.0250;
202.2000;1.4326;-5.0224;
202.5000;1.4335;-5.0145;
202.8000;1.4302;-5.0224;
203.1000;1.4408;-4.9986;
203.4000;1.4318;-5.0224;
203.7000;1.4302;-5.0277;
204.0000;1.4269;-5.0329;
204.3000;1.4310;-5.0277;
204.6000;1.4326;-5.0197;
204.9000;1.4310;-5.0250;
205.2000;1.4253;-5.0462;
205.5000;1.4294;-5.0329;
205.8000;1.4294;-5.0303;
206.1000;1.4294;-5.0329;
206.4000;1.4286;-5.0382;
206.7000;1.4294;-5.0488;
207.0000;1.4294;-5.0435;
207.3000;1.4310;-5.0303;
207.6000;1.4302;-5.0250;
207.9000;1.4302;-5.0224;
208.2000;1.4286;-5.0250;
208.5000;1.4278;-5.0277;
208.8000;1.4286;-5.0197;
209.1000;1.4286;-5.0250;
209.4000;1.4286;-5.0329;
209.7000;1.4294;-5.0303;
210.0000;1.4294;-5.0329;
210.3000;1.4294;-5.0303;
210.6000;1.4286;-5.0250;
210.9000;1.4294;-5.0303;
211.2000;1.4294;-5.0250;
211.5000;1.4294;-5.0277;
211.8000;1.4318;-5.0197;
212.1000;1.4302;-5.0197;
212.4000;1.4294;-5.0197;
212.7000;1.4326;-5.0224;
213.0000;1.4318;-5.0224;
213.3000;1.4326;-5.0250;
213.6000;1.4286;-5.0303;
213.9000;1.4302;-5.0224;
214.2000;1.4294;-5.0118;
214.5000;1.4286;-5.0118;
214.8000;1.4302;-5.0065;
215.1000;1.4302;-5.0118;
215.4000;1.4310;-5.0145;
215.7000;1.4326;-5.0118;
216.0000;1.4318;-5.0118;
216.3000;1.4302;-5.0145;
216.6000;1.4310;-5.0197;
216.9000;1.4286;-5.0277;
217.2000;1.4392;-5.0039;
217.5000;1.4286;-5.0250;
217.8000;1.4326;-5.0171;
218.1000;1.4326;-5.0145;
218.4000;1.4294;-5.0171;
218.7000;1.4278;-5.0171;
219.0000;1.4294;-5.0065;
219.3000;1.4302;-5.0145;
219.6000;1.4278;-5.0197;
219.9000;1.4302;-5.0197;
220.2000;1.4269;-5.0224;
220.5000;1.4310;-5.0092;
220.8000;1.4302;-5.0092;
221.1000;1.4302;-5.0092;
221.4000;1.4335;-5.0065;
221.7000;1.4318;-4.9960;
222.0000;1.4310;-5.0039;
222.3000;1.4294;-4.9986;
222.6000;1.4286;-4.9907;
222.9000;1.4302;-4.9881;
223.2000;1.4318;-4.9881;
223.5000;1.4318;-4.9881;
223.8000;1.4302;-4.9960;
224.1000;1.4294;-4.9907;
224.4000;1.4253;-4.9960;
224.7000;1.4294;-4.9960;
225.0000;1.4286;-5.0039;
225.3000;1.4302;-5.0092;
225.6000;1.4294;-5.0039;
225.9000;1.4286;-5.0092;
226.2000;1.4294;-5.0092;
226.5000;1.4294;-5.0013;
226.8000;1.4310;-5.0039;
227.1000;1.4302;-5.0118;
227.4000;1.4310;-5.0118;
227.7000;1.4229;-5.0303;
228.0000;1.4286;-5.0277;
228.3000;1.4302;-5.0197;
228.6000;1.4204;-5.0356;
228.9000;1.4302;-5.0118;
229.2000;1.4335;-4.9986;
229.5000;1.4310;-4.9986;
229.8000;1.4310;-5.0013;
230.1000;1.4302;-5.0092;
230.4000;1.4294;-5.0013;
230.7000;1.4310;-5.0013;
231.0000;1.4302;-4.9986;
231.3000;1.4310;-5.0145;
231.6000;1.4302;-5.0039;
231.9000;1.4302;-4.9986;
232.2000;1.4286;-5.0065;
232.5000;1.4286;-5.0092;
232.8000;1.4286;-5.0092;
233.1000;1.4286;-5.0065;
233.4000;1.4261;-5.0092;
233.7000;1.4294;-5.0013;
234.0000;1.4286;-4.9986;
234.3000;1.4310;-4.9960;
234.6000;1.4318;-5.0039;
234.9000;1.4310;-5.0013;
235.2000;1.4302;-5.0092;
235.5000;1.4294;-5.0145;
235.8000;1.4326;-5.0118;
236.1000;1.4302;-5.0197;
236.4000;1.4286;-5.0224;
236.7000;1.4286;-5.0250;
237.0000;1.4294;-5.0277;
237.3000;1.4310;-5.0171;
237.6000;1.4261;-5.0356;
237.9000;1.4286;-5.0303;
238.2000;1.4310;-5.0224;
238.5000;1.4294;-5.0329;
238.8000;1.4310;-5.0329;
239.1000;1.4286;-5.0277;
239.4000;1.4294;-5.0224;
239.7000;1.4294;-5.0171;
240.0000;1.4294;-5.0145;
240.3000;1.4310;-5.0171;
240.6000;1.4286;-5.0277;
240.9000;1.4302;-5.0329;
241.2000;1.4302;-5.0382;
241.5000;1.4294;-5.0382;
241.8000;1.4294;-5.0329;
242.1000;1.4302;-5.0356;
242.4000;1.4310;-5.0409;
242.7000;1.4294;-5.0356;
243.0000;1.4294;-5.0356;
243.3000;1.4302;-5.0329;
243.6000;1.4310;-5.0303;
243.9000;1.4286;-5.0224;
244.2000;1.4294;-5.0303;
244.5000;1.4294;-5.0277;
244.8000;1.4302;-5.0197;
245.1000;1.4294;-5.0224;
245.4000;1.4286;-5.0224;
245.7000;1.4286;-5.0303;
246.0000;1.4286;-5.0329;
246.3000;1.4310;-5.0303;
246.6000;1.4335;-5.0250;
246.9000;1.4302;-5.0303;
247.2000;1.4310;-5.0277;
247.5000;1.4245;-5.0435;
247.8000;1.4310;-5.0382;
248.1000;1.4302;-5.0382;
248.4000;1.4310;-5.0409;
248.7000;1.4326;-5.0329;
249.0000;1.4343;-5.0356;
249.3000;1.4302;-5.0514;
249.6000;1.4318;-5.0462;
249.9000;1.4302;-5.0435;
250.2000;1.4302;-5.0462;
250.5000;1.4310;-5.0435;
250.8000;1.4286;-5.0488;
251.1000;1.4302;-5.0514;
251.4000;1.4310;-5.0594;
251.7000;1.4286;-5.0594;
252.0000;1.4302;-5.0646;
252.3000;1.4294;-5.0673;
252.6000;1.4286;-5.0673;
252.9000;1.4245;-5.0726;
253.2000;1.4326;-5.0567;
253.5000;1.4302;-5.0620;
253.8000;1.4294;-5.0646;
254.1000;1.4302;-5.0673;
254.4000;1.4286;-5.0699;
254.7000;1.4294;-5.0594;
255.0000;1.4310;-5.0620;
255.3000;1.4310;-5.0673;
255.6000;1.4318;-5.0620;
255.9000;1.4286;-5.0646;
256.2000;1.4302;-5.0620;
256.5000;1.4286;-5.0620;
256.8000;1.4302;-5.0646;
257.1000;1.4286;-5.0673;
257.4000;1.4302;-5.0699;
257.7000;1.4310;-5.0699;
258.0000;1.4310;-5.0646;
258.3000;1.4245;-5.0831;
258.6000;1.4294;-5.0646;
258.9000;1.4294;-5.0541;
259.2000;1.4286;-5.0488;
259.5000;1.4253;-5.0646;
259.8000;1.4302;-5.0594;
260.1000;1.4318;-5.0514;
260.4000;1.4286;-5.0514;
260.7000;1.4310;-5.0382;
261.0000;1.4326;-5.0329;
261.3000;1.4302;-5.0409;
261.6000;1.4310;-5.0329;
261.9000;1.4294;-5.0382;
262.2000;1.4286;-5.0409;
262.5000;1.4294;-5.0435;
262.8000;1.4318;-5.0382;
263.1000;1.4286;-5.0435;
263.4000;1.4286;-5.0462;
263.7000;1.4302;-5.0382;
264.0000;1.4261;-5.0514;
264.3000;1.4302;-5.0435;
264.6000;1.4318;-5.0382;
264.9000;1.4302;-5.0488;
265.2000;1.4302;-5.0382;
265.5000;1.4302;-5.0356;
265.8000;1.4278;-5.0303;
266.1000;1.4294;-5.0250;
266.4000;1.4326;-5.0092;
266.7000;1.4310;-5.0118;
267.0000;1.4310;-5.0145;
267.3000;1.4335;-5.0118;
267.6000;1.4278;-5.0250;
267.9000;1.4294;-5.0250;
268.2000;1.4302;-5.0250;
268.5000;1.4294;-5.0356;
268.8000;1.4294;-5.0303;
269.1000;1.4310;-5.0356;
269.4000;1.4286;-5.0409;
269.7000;1.4286;-5.0409;
270.0000;1.4294;-5.0382;
270.3000;1.4302;-5.0329;
270.6000;1.4302;-5.0462;
270.9000;1.4302;-5.0488;
271.2000;1.4310;-5.0409;
271.5000;1.4302;-5.0409;
271.8000;1.4302;-5.0382;
272.1000;1.4326;-5.0435;
272.4000;1.4253;-5.0541;
272.7000;1.4310;-5.0382;
273.0000;1.4310;-5.0303;
273.3000;1.4294;-5.0329;
273.6000;1.4302;-5.0303;
273.9000;1.4286;-5.0277;
274.2000;1.4237;-5.0462;
274.5000;1.4286;-5.0409;
274.8000;1.4294;-5.0409;
275.1000;1.4302;-5.0356;
275.4000;1.4310;-5.0329;
275.7000;1.4302;-5.0329;
276.0000;1.4318;-5.0277;
276.3000;1.4318;-5.0224;
276.6000;1.4294;-5.0250;
276.9000;1.4302;-5.0277;
277.2000;1.4310;-5.0277;
277.5000;1.4294;-5.0329;
277.8000;1.4286;-5.0356;
278.1000;1.4294;-5.0329;
278.4000;1.4294;-5.0329;
278.7000;1.4278;-5.0435;
279.0000;1.4286;-5.0514;
279.3000;1.4294;-5.0514;
279.6000;1.4310;-5.0514;
279.9000;1.4294;-5.0462;
280.2000;1.4294;-5.0462;
280.5000;1.4302;-5.0356;
280.8000;1.4286;-5.0382;
281.1000;1.4269;-5.0356;
281.4000;1.4286;-5.0382;
281.7000;1.4294;-5.0329;
282.0000;1.4302;-5.0329;
282.3000;1.4294;-5.0250;
282.6000;1.4294;-5.0224;
282.9000;1.4302;-5.0171;
283.2000;1.4318;-5.0277;
283.5000;1.4310;-5.0303;
283.8000;1.4294;-5.0303;
284.1000;1.4253;-5.0409;
284.4000;1.4302;-5.0197;
284.7000;1.4318;-5.0277;
285.0000;1.4302;-5.0303;
285.3000;1.4294;-5.0356;
285.6000;1.4294;-5.0409;
285.9000;1.4310;-5.0356;
286.2000;1.4310;-5.0277;
286.5000;1.4302;-5.0277;
286.8000;1.4326;-5.0250;
287.1000;1.4310;-5.0277;
287.4000;1.4302;-5.0171;
287.7000;1.4269;-5.0303;
288.0000;1.4294;-5.0303;
288.3000;1.4294;-5.0250;
288.6000;1.4302;-5.0197;
288.9000;1.4310;-5.0171;
289.2000;1.4278;-5.0224;
289.5000;1.4318;-5.0092;
289.8000;1.4310;-5.0145;
290.1000;1.4294;-5.0197;
290.4000;1.4294;-5.0224;
290.7000;1.4253;-5.0356;
291.0000;1.4294;-5.0277;
291.3000;1.4310;-5.0303;
291.6000;1.4302;-5.0224;
291.9000;1.4310;-5.0250;
292.2000;1.4310;-5.0224;
292.5000;1.4294;-5.0277;
292.8000;1.4294;-5.0277;
293.1000;1.4286;-5.0356;
293.4000;1.4294;-5.0356;
293.7000;1.4286;-5.0409;
294.0000;1.4278;-5.0356;
294.3000;1.4294;-5.0277;
294.6000;1.4294;-5.0329;
294.9000;1.4302;-5.0250;
295.2000;1.4326;-5.0145;
295.5000;1.4473;-4.9881;
295.8000;1.4318;-5.0171;
296.1000;1.4343;-5.0118;
296.4000;1.4294;-5.0250;
296.7000;1.4294;-5.0197;
297.0000;1.4335;-5.0145;
297.3000;1.4302;-5.0092;
297.6000;1.4278;-5.0171;
297.9000;1.4294;-4.9986;
298.2000;1.4261;-5.0224;
298.5000;1.4302;-5.0250;
298.8000;1.4294;-5.0329;
299.1000;1.4286;-5.0356;
299.4000;1.4286;-5.0356;
299.7000;1.4278;-5.0356;
300.0000;1.4294;-5.0356;
300.3000;1.4261;-5.0462;
300.6000;1.4294;-5.0435;
300.9000;1.4302;-5.0409;
301.2000;1.4286;-5.0409;
301.5000;1.4286;-5.0409;
301.8000;1.4294;-5.0409;
302.1000;1.4302;-5.0382;
302.4000;1.4269;-5.0435;
302.7000;1.4302;-5.0356;
303.0000;1.4294;-5.0277;
303.3000;1.4286;-5.0224;
303.6000;1.4302;-5.0224;
303.9000;1.4310;-5.0277;
304.2000;1.4310;-5.0250;
304.5000;1.4351;-5.0065;
304.8000;1.4302;-5.0277;
305.1000;1.4294;-5.0224;
305.4000;1.4286;-5.0224;
305.7000;1.4294;-5.0303;
306.0000;1.4294;-5.0303;
306.3000;1.4286;-5.0303;
306.6000;1.4302;-5.0250;
306.9000;1.4278;-5.0277;
307.2000;1.4302;-5.0224;
307.5000;1.4351;-5.0171;
307.8000;1.4302;-5.0329;
308.1000;1.4302;-5.0277;
308.4000;1.4310;-5.0224;
308.7000;1.4310;-5.0277;
309.0000;1.4302;-5.0303;
309.3000;1.4310;-5.0250;
309.6000;1.4269;-5.0250;
309.9000;1.4286;-5.0145;
310.2000;1.4302;-5.0118;
310.5000;1.4318;-5.0118;
310.8000;1.4286;-5.0145;
311.1000;1.4310;-4.9986;
311.4000;1.4294;-4.9960;
311.7000;1.4286;-5.0039;
312.0000;1.4278;-5.0092;
312.3000;1.4326;-5.0065;
312.6000;1.4294;-5.0171;
312.9000;1.4302;-5.0145;
313.2000;1.4286;-5.0145;
313.5000;1.4286;-5.0197;
313.8000;1.4310;-5.0224;
314.1000;1.4318;-5.0118;
314.4000;1.4302;-5.0118;
314.7000;1.4286;-5.0171;
315.0000;1.4286;-5.0224;
315.3000;1.4302;-5.0224;
315.6000;1.4310;-5.0197;
315.9000;1.4294;-5.0197;
316.2000;1.4294;-5.0118;
316.5000;1.4343;-5.0092;
316.8000;1.4302;-5.0224;
317.1000;1.4294;-5.0277;
317.4000;1.4286;-5.0277;
317.7000;1.4302;-5.0303;
318.0000;1.4294;-5.0303;
318.3000;1.4310;-5.0277;
318.6000;1.4253;-5.0277;
318.9000;1.4286;-5.0224;
319.2000;1.4326;-5.0145;
319.5000;1.4318;-5.0065;
319.8000;1.4294;-5.0092;
320.1000;1.4294;-5.0039;
320.4000;1.4294;-5.0065;
320.7000;1.4302;-5.0118;
321.0000;1.4286;-5.0197;
321.3000;1.4302;-5.0250;
321.6000;1.4318;-5.0277;
321.9000;1.4310;-5.0277;
322.2000;1.4294;-5.0356;
322.5000;1.4351;-5.0277;
322.8000;1.4335;-5.0409;
323.1000;1.4318;-5.0435;
323.4000;1.4294;-5.0462;
323.7000;1.4310;-5.0435;
324.0000;1.4294;-5.0435;
324.3000;1.4294;-5.0435;
324.6000;1.4302;-5.0382;
324.9000;1.4294;-5.0356;
325.2000;1.4310;-5.0356;
325.5000;1.4302;-5.0409;
325.8000;1.4302;-5.0277;
326.1000;1.4302;-5.0356;
326.4000;1.4310;-5.0303;
326.7000;1.4294;-5.0409;
327.0000;1.4294;-5.0303;
327.3000;1.4302;-5.0277;
327.6000;1.4302;-5.0277;
327.9000;1.4302;-5.0197;
328.2000;1.4335;-5.0171;
328.5000;1.4278;-5.0197;
328.8000;1.4302;-5.0250;
329.1000;1.4318;-5.0250;
329.4000;1.4261;-5.0409;
329.7000;1.4326;-5.0250;
330.0000;1.4302;-5.0329;
330.3000;1.4229;-5.0541;
330.6000;1.4294;-5.0356;
330.9000;1.4310;-5.0224;
331.2000;1.4302;-5.0250;
331.5000;1.4294;-5.0250;
331.8000;1.4302;-5.0277;
332.1000;1.4286;-5.0356;
332.4000;1.4294;-5.0303;
332.7000;1.4310;-5.0382;
333.0000;1.4310;-5.0277;
333.3000;1.4310;-5.0329;
333.6000;1.4278;-5.0382;
333.9000;1.4294;-5.0277;
334.2000;1.4310;-5.0277;
334.5000;1.4326;-5.0435;
334.8000;1.4310;-5.0462;
335.1000;1.4343;-5.0409;
335.4000;1.4294;-5.0435;
335.7000;1.4302;-5.0382;
336.0000;1.4310;-5.0409;
336.3000;1.4310;-5.0356;
336.6000;1.4278;-5.0462;
336.9000;1.4286;-5.0409;
337.2000;1.4294;-5.0356;
337.5000;1.4278;-5.0356;
337.8000;1.4286;-5.0409;
338.1000;1.4302;-5.0356;
338.4000;1.4326;-5.0409;
338.7000;1.4302;-5.0435;
339.0000;1.4294;-5.0435;
339.3000;1.4310;-5.0382;
339.6000;1.4392;-5.0250;
339.9000;1.4302;-5.0382;
340.2000;1.4294;-5.0382;
340.5000;1.4310;-5.0409;
340.8000;1.4245;-5.0514;
341.1000;1.4261;-5.0462;
341.4000;1.4294;-5.0356;
341.7000;1.4294;-5.0356;
342.0000;1.4310;-5.0171;
342.3000;1.4302;-5.0092;
342.6000;1.4310;-5.0092;
342.9000;1.4294;-5.0197;
343.2000;1.4310;-5.0224;
343.5000;1.4310;-5.0197;
343.8000;1.4294;-5.0197;
344.1000;1.4278;-5.0250;
344.4000;1.4286;-5.0224;
344.7000;1.4302;-5.0277;
345.0000;1.4294;-5.0303;
345.3000;1.4302;-5.0277;
345.6000;1.4294;-5.0356;
345.9000;1.4326;-5.0303;
346.2000;1.4302;-5.0409;
346.5000;1.4302;-5.0435;
346.8000;1.4261;-5.0514;
347.1000;1.4302;-5.0462;
347.4000;1.4310;-5.0435;
347.7000;1.4286;-5.0541;
348.0000;1.4302;-5.0488;
348.3000;1.4278;-5.0409;
348.6000;1.4310;-5.0409;
348.9000;1.4294;-5.0435;
349.2000;1.4294;-5.0514;
349.5000;1.4294;-5.0541;
349.8000;1.4294;-5.0462;
350.1000;1.4294;-5.0462;
350.4000;1.4286;-5.0462;
350.7000;1.4294;-5.0435;
351.0000;1.4286;-5.0462;
351.3000;1.4294;-5.0409;
351.6000;1.4278;-5.0462;
351.9000;1.4294;-5.0435;
352.2000;1.4286;-5.0329;
352.5000;1.4310;-5.0303;
352.8000;1.4294;-5.0409;
353.1000;1.4286;-5.0382;
353.4000;1.4286;-5.0356;
353.7000;1.4383;-5.0118;
354.0000;1.4286;-5.0329;
354.3000;1.4302;-5.0382;
354.6000;1.4302;-5.0303;
354.9000;1.4318;-5.0277;
355.2000;1.4310;-5.0197;
355.5000;1.4310;-5.0303;
355.8000;1.4294;-5.0224;
356.1000;1.4335;-5.0197;
356.4000;1.4302;-5.0197;
356.7000;1.4302;-5.0145;
357.0000;1.4286;-5.0171;
357.3000;1.4294;-5.0224;
357.6000;1.4310;-5.0224;
357.9000;1.4302;-5.0197;
358.2000;1.4294;-5.0197;
358.5000;1.4302;-5.0171;
358.8000;1.4221;-5.0329;
359.1000;1.4278;-5.0277;
359.4000;1.4286;-5.0277;
359.7000;1.4253;-5.0303;
360.0000;1.4286;-5.0303;
360.3000;1.4302;-5.0277;
360.6000;1.4294;-5.0303;
360.9000;1.4286;-5.0382;
361.2000;1.4278;-5.0382;
361.5000;1.4302;-5.0329;
361.8000;1.4318;-5.0224;
362.1000;1.4278;-5.0382;
362.4000;1.4294;-5.0409;
362.7000;1.4286;-5.0409;
363.0000;1.4302;-5.0435;
363.3000;1.4294;-5.0435;
363.6000;1.4302;-5.0462;
363.9000;1.4302;-5.0435;
364.2000;1.4310;-5.0356;
364.5000;1.4302;-5.0329;
364.8000;1.4302;-5.0277;
365.1000;1.4310;-5.0356;
365.4000;1.4310;-5.0462;
365.7000;1.4335;-5.0382;
366.0000;1.4335;-5.0356;
366.3000;1.4310;-5.0435;
366.6000;1.4294;-5.0541;
366.9000;1.4286;-5.0514;
367.2000;1.4286;-5.0488;
367.5000;1.4294;-5.0462;
367.8000;1.4294;-5.0514;
368.1000;1.4294;-5.0541;
368.4000;1.4302;-5.0514;
368.7000;1.4286;-5.0462;
369.0000;1.4261;-5.0541;
369.3000;1.4310;-5.0409;
369.6000;1.4286;-5.0435;
369.9000;1.4294;-5.0435;
370.2000;1.4294;-5.0409;
370.5000;1.4318;-5.0382;
370.8000;1.4286;-5.0462;
371.1000;1.4286;-5.0356;
371.4000;1.4302;-5.0329;
371.7000;1.4326;-5.0224;
372.0000;1.4294;-5.0277;
372.3000;1.4253;-5.0435;
372.6000;1.4302;-5.0409;
372.9000;1.4310;-5.0356;
373.2000;1.4294;-5.0356;
373.5000;1.4269;-5.0356;
373.8000;1.4286;-5.0435;
374.1000;1.4310;-5.0382;
374.4000;1.4294;-5.0303;
374.7000;1.4294;-5.0382;
375.0000;1.4286;-5.0382;
375.3000;1.4261;-5.0488;
375.6000;1.4302;-5.0382;
375.9000;1.4294;-5.0382;
376.2000;1.4269;-5.0356;
376.5000;1.4269;-5.0382;
376.8000;1.4375;-5.0145;
377.1000;1.4294;-5.0329;
377.4000;1.4294;-5.0356;
377.7000;1.4278;-5.0356;
378.0000;1.4294;-5.0382;
378.3000;1.4286;-5.0382;
378.6000;1.4253;-5.0409;
378.9000;1.4294;-5.0356;
379.2000;1.4326;-5.0277;
379.5000;1.4302;-5.0224;
379.8000;1.4310;-5.0224;
380.1000;1.4302;-5.0224;
380.4000;1.4310;-5.0118;
380.7000;1.4294;-5.0145;
381.0000;1.4286;-5.0118;
381.3000;1.4286;-5.0224;
381.6000;1.4294;-5.0250;
381.9000;1.4302;-5.0277;
382.2000;1.4278;-5.0224;
382.5000;1.4278;-5.0145;
382.8000;1.4278;-5.0092;
383.1000;1.4278;-5.0013;
383.4000;1.4286;-5.0039;
383.7000;1.4269;-5.0039;
384.0000;1.4278;-5.0065;
384.3000;1.4302;-4.9960;
384.6000;1.4294;-4.9960;
384.9000;1.4269;-5.0039;
385.2000;1.4286;-4.9960;
385.5000;1.4302;-4.9907;
385.8000;1.4286;-5.0013;
386.1000;1.4294;-5.0145;
386.4000;1.4294;-5.0224;
386.7000;1.4302;-5.0171;
387.0000;1.4294;-5.0118;
387.3000;1.4294;-5.0118;
387.6000;1.4278;-5.0171;
387.9000;1.4196;-5.0356;
388.2000;1.4278;-5.0145;
388.5000;1.4286;-5.0171;
388.8000;1.4326;-5.0118;
389.1000;1.4375;-5.0039;
389.4000;1.4310;-5.0197;
389.7000;1.4261;-5.0303;
390.0000;1.4269;-5.0303;
390.3000;1.4278;-5.0303;
390.6000;1.4286;-5.0250;
390.9000;1.4286;-5.0382;
391.2000;1.4294;-5.0409;
391.5000;1.4286;-5.0435;
391.8000;1.4286;-5.0382;
392.1000;1.4302;-5.0435;
392.4000;1.4294;-5.0462;
392.7000;1.4286;-5.0435;
393.0000;1.4286;-5.0435;
393.3000;1.4286;-5.0462;
393.6000;1.4286;-5.0435;
393.9000;1.4294;-5.0409;
394.2000;1.4278;-5.0462;
394.5000;1.4302;-5.0435;
394.8000;1.4269;-5.0514;
395.1000;1.4269;-5.0409;
395.4000;1.4286;-5.0356;
395.7000;1.4326;-5.0224;
396.0000;1.4302;-5.0224;
396.3000;1.4269;-5.0250;
396.6000;1.4310;-5.0145;
396.9000;1.4302;-5.0197;
397.2000;1.4318;-5.0171;
397.5000;1.4286;-5.0277;
397.8000;1.4286;-5.0224;
398.1000;1.4278;-5.0171;
398.4000;1.4261;-5.0171;
398.7000;1.4310;-5.0065;
399.0000;1.4269;-5.0118;
399.3000;1.4310;-5.0065;
399.6000;1.4278;-5.0145;
399.9000;1.4253;-5.0303;
400.2000;1.4278;-5.0224;
400.5000;1.4278;-5.0145;
400.8000;1.4286;-5.0171;
401.1000;1.4286;-5.0171;
401.4000;1.4286;-5.0197;
401.7000;1.4286;-5.0145;
402.0000;1.4278;-5.0171;
402.3000;1.4294;-5.0171;
402.6000;1.4294;-5.0224;
402.9000;1.4310;-5.0092;
403.2000;1.4302;-4.9986;
403.5000;1.4286;-5.0118;
403.8000;1.4310;-5.0065;
404.1000;1.4335;-5.0039;
404.4000;1.4286;-5.0039;
404.7000;1.4286;-5.0065;
405.0000;1.4286;-5.0197;
405.3000;1.4278;-5.0171;
405.6000;1.4278;-5.0118;
405.9000;1.4294;-5.0171;
406.2000;1.4302;-5.0197;
406.5000;1.4294;-5.0250;
406.8000;1.4245;-5.0329;
407.1000;1.4335;-5.0065;
407.4000;1.4286;-5.0171;
407.7000;1.4294;-5.0118;
408.0000;1.4278;-5.0039;
408.3000;1.4278;-5.0039;
408.6000;1.4294;-4.9933;
408.9000;1.4302;-4.9986;
409.2000;1.4286;-5.0065;
409.5000;1.4286;-5.0145;
409.8000;1.4310;-5.0039;
410.1000;1.4286;-5.0039;
410.4000;1.4286;-5.0118;
410.7000;1.4302;-5.0171;
411.0000;1.4286;-5.0171;
411.3000;1.4310;-5.0039;
411.6000;1.4212;-5.0250;
411.9000;1.4302;-5.0092;
412.2000;1.4261;-5.0171;
412.5000;1.4253;-5.0197;
412.8000;1.4302;-5.0039;
413.1000;1.4237;-5.0197;
413.4000;1.4286;-5.0065;
413.7000;1.4335;-4.9907;
414.0000;1.4245;-5.0197;
414.3000;1.4286;-5.0065;
414.6000;1.4131;-5.0435;
414.9000;1.4261;-5.0197;
415.2000;1.4302;-5.0092;
415.5000;1.4278;-5.0092;
415.8000;1.4269;-5.0065;
416.1000;1.4302;-5.0065;
416.4000;1.4278;-5.0145;
416.7000;1.4302;-5.0065;
417.0000;1.4278;-5.0145;
417.3000;1.4286;-5.0224;
417.6000;1.4294;-5.0197;
417.9000;1.4286;-5.0145;
418.2000;1.4302;-5.0145;
418.5000;1.4294;-5.0145;
418.8000;1.4286;-5.0171;
419.1000;1.4294;-5.0118;
419.4000;1.4286;-5.0171;
419.7000;1.4302;-5.0039;
420.0000;1.4286;-5.0118;
420.3000;1.4343;-4.9907;
420.6000;1.4310;-4.9986;
420.9000;1.4278;-5.0013;
421.2000;1.4286;-4.9986;
421.5000;1.4335;-4.9907;
421.8000;1.4294;-5.0013;
422.1000;1.4278;-5.0039;
422.4000;1.4253;-5.0092;
422.7000;1.4294;-4.9986;
423.0000;1.4294;-5.0065;
423.3000;1.4269;-5.0065;
423.6000;1.4261;-5.0118;
423.9000;1.4286;-4.9986;
424.2000;1.4269;-5.0013;
424.5000;1.4278;-5.0065;
424.8000;1.4286;-5.0118;
425.1000;1.4278;-5.0224;
425.4000;1.4294;-5.0224;
425.7000;1.4286;-5.0250;
426.0000;1.4286;-5.0250;
426.3000;1.4302;-5.0145;
426.6000;1.4286;-5.0092;
426.9000;1.4278;-5.0013;
427.2000;1.4302;-4.9933;
427.5000;1.4302;-4.9960;
427.8000;1.4245;-5.0039;
428.1000;1.4302;-4.9960;
428.4000;1.4302;-4.9907;
428.7000;1.4286;-4.9960;
429.0000;1.4286;-5.0039;
429.3000;1.4302;-5.0013;
429.6000;1.4302;-4.9986;
429.9000;1.4294;-4.9828;
430.2000;1.4294;-4.9933;
430.5000;1.4269;-5.0092;
430.8000;1.4286;-5.0092;
431.1000;1.4286;-5.0065;
431.4000;1.4294;-5.0092;
431.7000;1.4286;-5.0224;
432.0000;1.4310;-5.0118;
432.3000;1.4294;-5.0224;
432.6000;1.4302;-5.0145;
432.9000;1.4310;-5.0092;
433.2000;1.4310;-5.0039;
433.5000;1.4286;-5.0092;
433.8000;1.4286;-5.0065;
434.1000;1.4359;-4.9881;
434.4000;1.4294;-4.9986;
434.7000;1.4294;-4.9933;
435.0000;1.4286;-4.9907;
435.3000;1.4269;-4.9854;
435.6000;1.4318;-4.9722;
435.9000;1.4294;-4.9749;
436.2000;1.4278;-4.9854;
436.5000;1.4278;-4.9881;
436.8000;1.4253;-4.9986;
437.1000;1.4286;-4.9933;
437.4000;1.4261;-5.0039;
437.7000;1.4278;-4.9986;
438.0000;1.4278;-4.9881;
438.3000;1.4294;-4.9854;
438.6000;1.4294;-4.9801;
438.9000;1.4286;-4.9828;
439.2000;1.4278;-4.9828;
439.5000;1.4278;-4.9881;
439.8000;1.4286;-4.9881;
440.1000;1.4278;-4.9881;
440.4000;1.4286;-4.9960;
440.7000;1.4302;-4.9907;
441.0000;1.4302;-4.9907;
441.3000;1.4286;-4.9907;
441.6000;1.4302;-4.9775;
441.9000;1.4286;-4.9881;
442.2000;1.4294;-4.9881;
442.5000;1.4278;-4.9960;
442.8000;1.4269;-4.9881;
443.1000;1.4286;-4.9881;
443.4000;1.4286;-4.9907;
443.7000;1.4278;-4.9986;
444.0000;1.4278;-5.0013;
444.3000;1.4302;-4.9960;
444.6000;1.4269;-4.9986;
444.9000;1.4286;-4.9986;
445.2000;1.4261;-5.0065;
445.5000;1.4245;-5.0065;
445.8000;1.4229;-5.0118;
446.1000;1.4261;-5.0039;
446.4000;1.4253;-5.0013;
446.7000;1.4261;-5.0065;
447.0000;1.4294;-4.9986;
447.3000;1.4286;-5.0039;
447.6000;1.4269;-5.0118;
447.9000;1.4294;-4.9986;
448.2000;1.4269;-4.9907;
448.5000;1.4294;-4.9881;
448.8000;1.4253;-4.9907;
449.1000;1.4269;-4.9828;
449.4000;1.4269;-4.9801;
449.7000;1.4278;-4.9854;
450.0000;1.4294;-4.9828;
450.3000;1.4278;-4.9907;
450.6000;1.4269;-5.0013;
450.9000;1.4237;-5.0065;
451.2000;1.4221;-5.0092;
451.5000;1.4261;-4.9933;
451.8000;1.4269;-4.9828;
452.1000;1.4286;-4.9828;
452.4000;1.4278;-4.9907;
452.7000;1.4318;-4.9801;
453.0000;1.4221;-4.9960;
453.3000;1.4318;-4.9775;
453.6000;1.4310;-4.9801;
453.9000;1.4253;-4.9986;
454.2000;1.4245;-5.0092;
454.5000;1.4286;-4.9960;
454.8000;1.4302;-4.9960;
455.1000;1.4286;-5.0013;
455.4000;1.4326;-4.9960;
455.7000;1.4278;-5.0039;
456.0000;1.4278;-5.0039;
456.3000;1.4286;-5.0013;
456.6000;1.4286;-4.9960;
456.9000;1.4269;-4.9881;
457.2000;1.4286;-4.9907;
457.5000;1.4286;-4.9960;
457.8000;1.4294;-4.9933;
458.1000;1.4278;-5.0039;
458.4000;1.4286;-4.9986;
458.7000;1.4286;-5.0039;
459.0000;1.4278;-5.0092;
459.3000;1.4269;-5.0092;
459.6000;1.4286;-5.0065;
459.9000;1.4278;-5.0092;
460.2000;1.4269;-5.0013;
460.5000;1.4278;-5.0039;
460.8000;1.4261;-5.0145;
461.1000;1.4278;-5.0092;
461.4000;1.4269;-5.0013;
461.7000;1.4286;-4.9933;
462.0000;1.4269;-5.0039;
462.3000;1.4286;-4.9933;
462.6000;1.4294;-4.9907;
462.9000;1.4278;-4.9828;
463.2000;1.4278;-4.9749;
463.5000;1.4294;-4.9749;
463.8000;1.4302;-4.9749;
464.1000;1.4294;-4.9722;
464.4000;1.4294;-4.9828;
464.7000;1.4294;-4.9801;
465.0000;1.4294;-4.9775;
465.3000;1.4286;-4.9828;
465.6000;1.4286;-4.9881;
465.9000;1.4278;-4.9960;
466.2000;1.4302;-4.9986;
466.5000;1.4245;-5.0092;
466.8000;1.4286;-4.9960;
467.1000;1.4294;-4.9881;
467.4000;1.4286;-4.9801;
467.7000;1.4310;-4.9749;
468.0000;1.4294;-4.9881;
468.3000;1.4237;-5.0092;
468.6000;1.4278;-5.0013;
468.9000;1.4286;-5.0039;
469.2000;1.4278;-4.9986;
469.5000;1.4286;-5.0013;
469.8000;1.4351;-4.9933;
470.1000;1.4302;-4.9960;
470.4000;1.4294;-5.0013;
470.7000;1.4278;-5.0039;
471.0000;1.4286;-5.0039;
471.3000;1.4286;-5.0013;
471.6000;1.4310;-4.9933;
471.9000;1.4278;-4.9986;
472.2000;1.4278;-4.9986;
472.5000;1.4310;-4.9960;
472.8000;1.4294;-4.9960;
473.1000;1.4351;-4.9881;
473.4000;1.4278;-4.9986;
473.7000;1.4286;-4.9933;
474.0000;1.4326;-4.9722;
474.3000;1.4286;-4.9801;
474.6000;1.4286;-4.9801;
474.9000;1.4294;-4.9775;
475.2000;1.4318;-4.9749;
475.5000;1.4278;-4.9801;
475.8000;1.4269;-4.9907;
476.1000;1.4261;-5.0013;
476.4000;1.4294;-4.9907;
476.7000;1.4278;-4.9881;
477.0000;1.4261;-4.9854;
477.3000;1.4278;-4.9933;
477.6000;1.4269;-4.9854;
477.9000;1.4245;-4.9986;
478.2000;1.4286;-4.9828;
478.5000;1.4286;-4.9854;
478.8000;1.4286;-4.9881;
479.1000;1.4278;-4.9907;
479.4000;1.4294;-4.9854;
479.7000;1.4286;-4.9749;
480.0000;1.4278;-4.9722;
480.3000;1.4278;-4.9722;
480.6000;1.4278;-4.9749;
480.9000;1.4367;-4.9485;
481.2000;1.4286;-4.9722;
481.5000;1.4286;-4.9775;
481.8000;1.4302;-4.9801;
482.1000;1.4286;-4.9854;
482.4000;1.4269;-4.9907;
482.7000;1.4286;-4.9828;
483.0000;1.4261;-4.9933;
483.3000;1.4278;-4.9907;
483.6000;1.4286;-4.9881;
483.9000;1.4278;-4.9854;
484.2000;1.4278;-4.9854;
484.5000;1.4278;-4.9854;
484.8000;1.4269;-4.9907;
485.1000;1.4278;-4.9907;
485.4000;1.4294;-4.9933;
485.7000;1.4278;-4.9854;
486.0000;1.4286;-4.9854;
486.3000;1.4261;-4.9828;
486.6000;1.4286;-4.9854;
486.9000;1.4302;-4.9854;
487.2000;1.4286;-4.9933;
487.5000;1.4269;-4.9933;
487.8000;1.4278;-4.9828;
488.1000;1.4278;-4.9775;
488.4000;1.4278;-4.9801;
488.7000;1.4269;-4.9828;
489.0000;1.4269;-4.9854;
489.3000;1.4278;-4.9801;
489.6000;1.4269;-4.9775;
489.9000;1.4286;-4.9749;
490.2000;1.4302;-4.9881;
490.5000;1.4237;-5.0013;
490.8000;1.4302;-4.9801;
491.1000;1.4310;-4.9960;
491.4000;1.4261;-5.0118;
491.7000;1.4294;-5.0118;
492.0000;1.4286;-5.0065;
492.3000;1.4286;-5.0118;
492.6000;1.4286;-5.0092;
492.9000;1.4253;-5.0145;
493.2000;1.4294;-4.9986;
493.5000;1.4278;-4.9933;
493.8000;1.4286;-4.9933;
494.1000;1.4286;-4.9907;
494.4000;1.4294;-4.9828;
494.7000;1.4294;-4.9801;
495.0000;1.4269;-4.9907;
495.3000;1.4278;-4.9828;
495.6000;1.4229;-4.9986;
495.9000;1.4302;-4.9801;
496.2000;1.4294;-4.9775;
496.5000;1.4278;-4.9854;
496.8000;1.4253;-4.9907;
497.1000;1.4302;-4.9854;
497.4000;1.4269;-4.9933;
497.7000;1.4269;-4.9960;
498.0000;1.4278;-4.9960;
498.3000;1.4302;-4.9854;
498.6000;1.4278;-5.0013;
498.9000;1.4269;-5.0013;
499.2000;1.4278;-4.9907;
499.5000;1.4269;-4.9828;
499.8000;1.4335;-4.9696;
500.1000;1.4261;-4.9828;
500.4000;1.4286;-4.9828;
500.7000;1.4261;-4.9933;
501.0000;1.4286;-4.9907;
501.3000;1.4278;-4.9907;
501.6000;1.4286;-4.9828;
501.9000;1.4302;-4.9801;
502.2000;1.4302;-4.9828;
502.5000;1.4278;-4.9828;
502.8000;1.4269;-4.9775;
503.1000;1.4253;-4.9828;
503.4000;1.4221;-5.0039;
503.7000;1.4286;-4.9907;
504.0000;1.4278;-4.9854;
504.3000;1.4269;-4.9881;
504.6000;1.4278;-4.9854;
504.9000;1.4212;-4.9986;
505.2000;1.4286;-4.9828;
505.5000;1.4229;-5.0065;
505.8000;1.4294;-4.9960;
506.1000;1.4278;-5.0013;
506.4000;1.4278;-5.0013;
506.7000;1.4278;-4.9986;
507.0000;1.4269;-5.0013;
507.3000;1.4286;-4.9986;
507.6000;1.4286;-5.0013;
507.9000;1.4229;-5.0013;
508.2000;1.4253;-4.9881;
508.5000;1.4269;-4.9854;
508.8000;1.4269;-4.9854;
509.1000;1.4286;-4.9801;
509.4000;1.4278;-4.9933;
509.7000;1.4269;-4.9960;
510.0000;1.4294;-4.9933;
510.3000;1.4269;-4.9960;
510.6000;1.4261;-4.9960;
510.9000;1.4294;-4.9881;
511.2000;1.4278;-4.9854;
511.5000;1.4278;-4.9907;
511.8000;1.4278;-4.9933;
512.1000;1.4286;-4.9960;
512.4000;1.4261;-5.0039;
512.7000;1.4286;-4.9960;
513.0000;1.4269;-4.9960;
513.3000;1.4294;-4.9960;
513.6000;1.4294;-4.9960;
513.9000;1.4269;-4.9960;
514.2000;1.4269;-4.9986;
514.5000;1.4286;-5.0013;
514.8000;1.4261;-5.0118;
515.1000;1.4286;-5.0039;
515.4000;1.4286;-5.0013;
515.7000;1.4278;-5.0013;
516.0000;1.4286;-5.0065;
516.3000;1.4310;-4.9933;
516.6000;1.4269;-4.9907;
516.9000;1.4278;-4.9960;
517.2000;1.4286;-5.0065;
517.5000;1.4294;-5.0039;
517.8000;1.4286;-4.9933;
518.1000;1.4269;-4.9854;
518.4000;1.4269;-4.9801;
518.7000;1.4286;-4.9749;
519.0000;1.4278;-4.9854;
519.3000;1.4278;-4.9801;
519.6000;1.4245;-4.9828;
519.9000;1.4318;-4.9643;
520.2000;1.4326;-4.9696;
520.5000;1.4286;-4.9828;
520.8000;1.4269;-4.9960;
521.1000;1.4261;-5.0013;
521.4000;1.4278;-4.9960;
521.7000;1.4278;-4.9907;
522.0000;1.4261;-4.9907;
522.3000;1.4286;-4.9801;
522.6000;1.4278;-4.9775;
522.9000;1.4294;-4.9722;
523.2000;1.4278;-4.9801;
523.5000;1.4294;-4.9828;
523.8000;1.4294;-4.9775;
524.1000;1.4294;-4.9722;
524.4000;1.4302;-4.9749;
524.7000;1.4278;-4.9907;
525.0000;1.4286;-4.9986;
525.3000;1.4286;-4.9986;
525.6000;1.4278;-5.0092;
525.9000;1.4261;-5.0092;
526.2000;1.4286;-5.0039;
526.5000;1.4269;-5.0065;
526.8000;1.4286;-5.0013;
527.1000;1.4278;-5.0013;
527.4000;1.4204;-5.0092;
527.7000;1.4286;-4.9933;
528.0000;1.4269;-4.9960;
528.3000;1.4286;-4.9881;
528.6000;1.4269;-4.9854;
528.9000;1.4229;-4.9960;
529.2000;1.4269;-4.9881;
529.5000;1.4294;-4.9828;
529.8000;1.4278;-4.9828;
530.1000;1.4261;-4.9854;
530.4000;1.4286;-4.9828;
530.7000;1.4212;-4.9933;
531.0000;1.4302;-4.9722;
531.3000;1.4278;-4.9696;
531.6000;1.4269;-4.9854;
531.9000;1.4286;-4.9801;
532.2000;1.4261;-4.9722;
532.5000;1.4261;-4.9722;
532.8000;1.4294;-4.9828;
533.1000;1.4286;-4.9881;
533.4000;1.4278;-4.9854;
533.7000;1.4278;-4.9907;
534.0000;1.4278;-4.9881;
534.3000;1.4278;-4.9907;
534.6000;1.4269;-4.9854;
534.9000;1.4278;-4.9801;
535.2000;1.4269;-4.9854;
535.5000;1.4278;-4.9907;
535.8000;1.4261;-4.9854;
536.1000;1.4261;-4.9854;
536.4000;1.4278;-4.9881;
536.7000;1.4286;-4.9801;
537.0000;1.4253;-4.9854;
537.3000;1.4269;-4.9801;
537.6000;1.4269;-4.9854;
537.9000;1.4286;-4.9854;
538.2000;1.4278;-4.9881;
538.5000;1.4269;-4.9960;
538.8000;1.4269;-4.9960;
539.1000;1.4278;-4.9986;
539.4000;1.4269;-5.0065;
539.7000;1.4359;-4.9775;
540.0000;1.4261;-4.9986;
540.3000;1.4278;-4.9960;
540.6000;1.4253;-4.9986;
540.9000;1.4269;-4.9986;
541.2000;1.4261;-4.9933;
541.5000;1.4253;-4.9933;
541.8000;1.4269;-4.9881;
542.1000;1.4261;-4.9881;
542.4000;1.4278;-4.9801;
542.7000;1.4302;-4.9722;
543.0000;1.4278;-4.9801;
543.3000;1.4269;-4.9828;
543.6000;1.4261;-4.9854;
543.9000;1.4278;-4.9828;
544.2000;1.4221;-4.9907;
544.5000;1.4269;-4.9749;
544.8000;1.4278;-4.9722;
545.1000;1.4172;-4.9907;
545.4000;1.4269;-4.9617;
545.7000;1.4253;-4.9669;
546.0000;1.4294;-4.9564;
546.3000;1.4261;-4.9696;
546.6000;1.4261;-4.9775;
546.9000;1.4278;-4.9775;
547.2000;1.4278;-4.9801;
547.5000;1.4261;-4.9907;
547.8000;1.4278;-4.9828;
548.1000;1.4286;-4.9775;
548.4000;1.4302;-4.9749;
548.7000;1.4278;-4.9828;
549.0000;1.4261;-4.9907;
549.3000;1.4261;-4.9881;
549.6000;1.4261;-4.9881;
549.9000;1.4269;-4.9775;
550.2000;1.4245;-4.9854;
550.5000;1.4245;-4.9828;
550.8000;1.4261;-4.9828;
551.1000;1.4269;-4.9828;
551.4000;1.4261;-4.9828;
551.7000;1.4253;-4.9854;
552.0000;1.4261;-4.9933;
552.3000;1.4269;-4.9933;
552.6000;1.4269;-4.9881;
552.9000;1.4261;-4.9854;
553.2000;1.4269;-4.9854;
553.5000;1.4286;-4.9907;
553.8000;1.4302;-4.9881;
554.1000;1.4253;-4.9907;
554.4000;1.4269;-4.9907;
554.7000;1.4269;-4.9986;
555.0000;1.4269;-5.0013;
555.3000;1.4269;-5.0039;
555.6000;1.4253;-5.0118;
555.9000;1.4294;-5.0065;
556.2000;1.4269;-5.0092;
556.5000;1.4269;-5.0092;
556.8000;1.4278;-5.0065;
557.1000;1.4294;-4.9933;
557.4000;1.4278;-4.9907;
557.7000;1.4310;-4.9933;
558.0000;1.4278;-5.0039;
558.3000;1.4286;-5.0013;
558.6000;1.4302;-4.9828;
558.9000;1.4294;-4.9933;
559.2000;1.4286;-4.9986;
559.5000;1.4278;-4.9881;
559.8000;1.4286;-4.9881;
560.1000;1.4286;-4.9907;
560.4000;1.4261;-4.9933;
560.7000;1.4261;-4.9881;
561.0000;1.4294;-4.9801;
561.3000;1.4245;-4.9854;
561.6000;1.4261;-4.9854;
561.9000;1.4269;-4.9907;
562.2000;1.4261;-4.9881;
562.5000;1.4286;-4.9828;
562.8000;1.4269;-4.9801;
563.1000;1.4278;-4.9801;
563.4000;1.4278;-4.9828;
563.7000;1.4286;-4.9828;
564.0000;1.4269;-4.9854;
564.3000;1.4278;-4.9854;
564.6000;1.4294;-4.9749;
564.9000;1.4269;-4.9960;
565.2000;1.4269;-4.9854;
565.5000;1.4278;-4.9881;
565.8000;1.4269;-4.9933;
566.1000;1.4286;-4.9907;
566.4000;1.4261;-4.9933;
566.7000;1.4269;-4.9933;
567.0000;1.4286;-4.9828;
567.3000;1.4302;-4.9854;
567.6000;1.4229;-5.0013;
567.9000;1.4245;-4.9986;
568.2000;1.4278;-4.9881;
568.5000;1.4278;-4.9749;
568.8000;1.4269;-4.9775;
569.1000;1.4229;-4.9749;
569.4000;1.4253;-4.9801;
569.7000;1.4253;-4.9801;
570.0000;1.4269;-4.9722;
570.3000;1.4261;-4.9775;
570.6000;1.4269;-4.9828;
570.9000;1.4229;-4.9986;
571.2000;1.4269;-4.9881;
571.5000;1.4278;-4.9933;
571.8000;1.4278;-4.9933;
572.1000;1.4269;-4.9907;
572.4000;1.4261;-4.9881;
572.7000;1.4269;-4.9881;
573.0000;1.4253;-4.9854;
573.3000;1.4261;-4.9801;
573.6000;1.4261;-4.9775;
573.9000;1.4278;-4.9775;
574.2000;1.4278;-4.9801;
574.5000;1.4278;-4.9801;
574.8000;1.4253;-4.9986;
575.1000;1.4253;-4.9960;
575.4000;1.4269;-4.9986;
575.7000;1.4253;-5.0013;
576.0000;1.4261;-4.9986;
576.3000;1.4245;-5.0039;
576.6000;1.4253;-5.0065;
576.9000;1.4253;-4.9960;
577.2000;1.4261;-4.9986;
577.5000;1.4261;-4.9960;
577.8000;1.4269;-4.9960;
578.1000;1.4286;-4.9775;
578.4000;1.4269;-4.9696;
578.7000;1.4278;-4.9643;
579.0000;1.4253;-4.9696;
579.3000;1.4269;-4.9643;
579.6000;1.4245;-4.9696;
579.9000;1.4269;-4.9722;
580.2000;1.4278;-4.9775;
580.5000;1.4253;-4.9801;
580.8000;1.4278;-4.9722;
581.1000;1.4269;-4.9801;
581.4000;1.4286;-4.9854;
581.7000;1.4269;-4.9907;
582.0000;1.4269;-4.9854;
582.3000;1.4245;-4.9801;
582.6000;1.4286;-4.9669;
582.9000;1.4269;-4.9749;
583.2000;1.4294;-4.9669;
583.5000;1.4269;-4.9722;
583.8000;1.4269;-4.9775;
584.1000;1.4196;-5.0013;
584.4000;1.4269;-4.9801;
584.7000;1.4253;-4.9907;
585.0000;1.4269;-4.9801;
585.3000;1.4278;-4.9669;
585.6000;1.4286;-4.9749;
585.9000;1.4278;-4.9749;
586.2000;1.4278;-4.9828;
586.5000;1.4294;-4.9749;
586.8000;1.4278;-4.9749;
587.1000;1.4269;-4.9669;
587.4000;1.4261;-4.9722;
587.7000;1.4237;-4.9775;
588.0000;1.4278;-4.9696;
588.3000;1.4245;-4.9643;
588.6000;1.4261;-4.9643;
588.9000;1.4237;-4.9722;
589.2000;1.4261;-4.9669;
589.5000;1.4261;-4.9564;
589.8000;1.4188;-4.9696;
590.1000;1.4245;-4.9643;
590.4000;1.4261;-4.9590;
590.7000;1.4269;-4.9511;
591.0000;1.4245;-4.9643;
591.3000;1.4245;-4.9696;
591.6000;1.4253;-4.9669;
591.9000;1.4253;-4.9749;
592.2000;1.4261;-4.9722;
592.5000;1.4253;-4.9696;
592.8000;1.4302;-4.9564;
593.1000;1.4269;-4.9696;
593.4000;1.4261;-4.9669;
593.7000;1.4237;-4.9643;
594.0000;1.4212;-4.9722;
594.3000;1.4261;-4.9564;
594.6000;1.4286;-4.9485;
594.9000;1.4261;-4.9564;
595.2000;1.4261;-4.9643;
595.5000;1.4253;-4.9590;
595.8000;1.4269;-4.9617;
596.1000;1.4261;-4.9669;
596.4000;1.4245;-4.9775;
596.7000;1.4261;-4.9828;
597.0000;1.4253;-4.9828;
597.3000;1.4261;-4.9775;
597.6000;1.4237;-4.9775;
597.9000;1.4237;-4.9775;
598.2000;1.4269;-4.9696;
598.5000;1.4278;-4.9590;
598.8000;1.4253;-4.9590;
599.1000;1.4253;-4.9669;
599.4000;1.4261;-4.9643;
599.7000;1.4278;-4.9669;
600.0000;1.4269;-4.9749;
600.3000;1.4278;-4.9933;
600.6000;1.4269;-5.0171;
600.9000;1.4204;-5.0329;
601.2000;1.4107;-5.0594;
601.5000;1.4001;-5.0805;
601.8000;1.3911;-5.0990;
602.1000;1.3789;-5.1280;
602.4000;1.3659;-5.1465;
602.7000;1.3545;-5.1650;
603.0000;1.3439;-5.1861;
603.3000;1.3350;-5.1993;
603.6000;1.3203;-5.2310;
603.9000;1.3122;-5.2416;
604.2000;1.3016;-5.2600;
604.5000;1.2967;-5.2653;
604.8000;1.2902;-5.2759;
605.1000;1.2796;-5.2838;
605.4000;1.2715;-5.2891;
605.7000;1.2641;-5.2864;
606.0000;1.2568;-5.2944;
606.3000;1.2503;-5.2812;
606.6000;1.2470;-5.2812;
606.9000;1.2348;-5.3023;
607.2000;1.2357;-5.2864;
607.5000;1.2177;-5.3155;
607.8000;1.2145;-5.3208;
608.1000;1.2080;-5.3340;
608.4000;1.1950;-5.3498;
608.7000;1.1941;-5.3498;
609.0000;1.1884;-5.3577;
609.3000;1.1795;-5.3789;
609.6000;1.1779;-5.3736;
609.9000;1.1730;-5.3630;
610.2000;1.1673;-5.3577;
610.5000;1.1591;-5.3709;
610.8000;1.1575;-5.3683;
611.1000;1.1510;-5.3762;
611.4000;1.1461;-5.3762;
611.7000;1.1355;-5.3947;
612.0000;1.1363;-5.3762;
612.3000;1.1323;-5.3762;
612.6000;1.1266;-5.3789;
612.9000;1.1233;-5.3683;
613.2000;1.1144;-5.3709;
613.5000;1.1119;-5.3736;
613.8000;1.1062;-5.3815;
614.1000;1.1111;-5.3762;
614.4000;1.0989;-5.4053;
614.7000;1.0932;-5.4158;
615.0000;1.0908;-5.4158;
615.3000;1.0842;-5.4317;
615.6000;1.0826;-5.4264;
615.9000;1.0777;-5.4290;
616.2000;1.0761;-5.4290;
616.5000;1.0696;-5.4396;
616.8000;1.0639;-5.4449;
617.1000;1.0631;-5.4396;
617.4000;1.0582;-5.4396;
617.7000;1.0549;-5.4343;
618.0000;1.0517;-5.4449;
618.3000;1.0468;-5.4502;
618.6000;1.0427;-5.4502;
618.9000;1.0419;-5.4370;
619.2000;1.0362;-5.4422;
619.5000;1.0346;-5.4396;
619.8000;1.0313;-5.4528;
620.1000;1.0281;-5.4581;
620.4000;1.0232;-5.4607;
620.7000;1.0208;-5.4607;
621.0000;1.0167;-5.4581;
621.3000;1.0159;-5.4607;
621.6000;1.0110;-5.4581;
621.9000;1.0004;-5.4686;
622.2000;1.0045;-5.4607;
622.5000;1.0020;-5.4607;
622.8000;0.9906;-5.4792;
623.1000;0.9955;-5.4739;
623.4000;0.9915;-5.4713;
623.7000;0.9898;-5.4686;
624.0000;0.9866;-5.4660;
624.3000;0.9858;-5.4634;
624.6000;0.9817;-5.4634;
624.9000;0.9792;-5.4634;
625.2000;0.9768;-5.4660;
625.5000;0.9735;-5.4634;
625.8000;0.9719;-5.4607;
626.1000;0.9703;-5.4792;
626.4000;0.9687;-5.4792;
626.7000;0.9646;-5.4845;
627.0000;0.9638;-5.4871;
627.3000;0.9589;-5.4898;
627.6000;0.9573;-5.4898;
627.9000;0.9540;-5.4871;
628.2000;0.9524;-5.4924;
628.5000;0.9516;-5.4951;
628.8000;0.9467;-5.5056;
629.1000;0.9467;-5.4924;
629.4000;0.9426;-5.4977;
629.7000;0.9410;-5.5030;
630.0000;0.9402;-5.5003;
630.3000;0.9377;-5.5109;
630.6000;0.9345;-5.5056;
630.9000;0.9361;-5.5003;
631.2000;0.9255;-5.5267;
631.5000;0.9312;-5.5135;
631.8000;0.9271;-5.5109;
632.1000;0.9255;-5.5109;
632.4000;0.9214;-5.5083;
632.7000;0.9198;-5.5109;
633.0000;0.9206;-5.5056;
633.3000;0.9174;-5.5030;
633.6000;0.9149;-5.5083;
633.9000;0.9141;-5.5083;
634.2000;0.9117;-5.5056;
634.5000;0.9084;-5.5083;
634.8000;0.9084;-5.5056;
635.1000;0.9060;-5.5083;
635.4000;0.9044;-5.5056;
635.7000;0.9019;-5.5109;
636.0000;0.9019;-5.5109;
636.3000;0.8995;-5.5109;
636.6000;0.8954;-5.5109;
636.9000;0.9035;-5.4845;
637.2000;0.8954;-5.4977;
637.5000;0.8921;-5.5030;
637.8000;0.8913;-5.5003;
638.1000;0.8930;-5.4951;
638.4000;0.8873;-5.5003;
638.7000;0.8848;-5.5030;
639.0000;0.8807;-5.5135;
639.3000;0.8873;-5.4951;
639.6000;0.8742;-5.5162;
639.9000;0.8807;-5.4898;
640.2000;0.8775;-5.4898;
640.5000;0.8807;-5.4845;
640.8000;0.8783;-5.5030;
641.1000;0.8775;-5.4977;
641.4000;0.8734;-5.5083;
641.7000;0.8669;-5.5267;
642.0000;0.8710;-5.5162;
642.3000;0.8694;-5.5215;
642.6000;0.8759;-5.5083;
642.9000;0.8661;-5.5241;
643.2000;0.8653;-5.5109;
643.5000;0.8628;-5.5083;
643.8000;0.8628;-5.5030;
644.1000;0.8612;-5.4951;
644.4000;0.8612;-5.4951;
644.7000;0.8604;-5.4898;
645.0000;0.8571;-5.4898;
645.3000;0.8563;-5.5003;
645.6000;0.8580;-5.4977;
645.9000;0.8555;-5.4898;
646.2000;0.8531;-5.4951;
646.5000;0.8531;-5.4871;
646.8000;0.8531;-5.4871;
647.1000;0.8506;-5.4924;
647.4000;0.8506;-5.4951;
647.7000;0.8474;-5.4951;
648.0000;0.8482;-5.4951;
648.3000;0.8457;-5.4951;
648.6000;0.8449;-5.4951;
648.9000;0.8417;-5.5030;
649.2000;0.8425;-5.5083;
649.5000;0.8417;-5.5135;
649.8000;0.8392;-5.5135;
650.1000;0.8384;-5.5030;
650.4000;0.8376;-5.5109;
650.7000;0.8376;-5.5083;
651.0000;0.8352;-5.5135;
651.3000;0.8352;-5.5135;
651.6000;0.8344;-5.5135;
651.9000;0.8335;-5.5083;
652.2000;0.8335;-5.5056;
652.5000;0.8327;-5.5030;
652.8000;0.8303;-5.5030;
653.1000;0.8295;-5.5083;
653.4000;0.8295;-5.5135;
653.7000;0.8278;-5.5162;
654.0000;0.8254;-5.5215;
654.3000;0.8246;-5.5188;
654.6000;0.8246;-5.5135;
654.9000;0.8230;-5.5215;
655.2000;0.8213;-5.5241;
655.5000;0.8213;-5.5135;
655.8000;0.8262;-5.4924;
656.1000;0.8197;-5.5030;
656.4000;0.8213;-5.5003;
656.7000;0.8189;-5.5056;
657.0000;0.8181;-5.5109;
657.3000;0.8181;-5.5135;
657.6000;0.8164;-5.5241;
657.9000;0.8254;-5.5030;
658.2000;0.8140;-5.5188;
658.5000;0.8140;-5.5162;
658.8000;0.8124;-5.5135;
659.1000;0.8107;-5.5162;
659.4000;0.8099;-5.5083;
659.7000;0.8099;-5.5135;
660.0000;0.8059;-5.5215;
660.3000;0.8091;-5.5083;
660.6000;0.8042;-5.5347;
660.9000;0.8107;-5.5241;
661.2000;0.8050;-5.5373;
661.5000;0.8010;-5.5505;
661.8000;0.8034;-5.5426;
662.1000;0.8034;-5.5347;
662.4000;0.8026;-5.5294;
662.7000;0.8010;-5.5215;
663.0000;0.8010;-5.5215;
663.3000;0.8010;-5.5241;
663.6000;0.8018;-5.5109;
663.9000;0.8018;-5.5056;
664.2000;0.7977;-5.5056;
664.5000;0.7993;-5.5030;
664.8000;0.8034;-5.4845;
665.1000;0.7961;-5.4924;
665.4000;0.7969;-5.5003;
665.7000;0.7961;-5.4951;
666.0000;0.7945;-5.5056;
666.3000;0.7961;-5.5083;
666.6000;0.7920;-5.5215;
666.9000;0.7945;-5.5135;
667.2000;0.7928;-5.5135;
667.5000;0.7945;-5.5109;
667.8000;0.7969;-5.4924;
668.1000;0.7896;-5.5056;
668.4000;0.7896;-5.5030;
668.7000;0.7896;-5.4898;
669.0000;0.7896;-5.4924;
669.3000;0.7871;-5.4977;
669.6000;0.7871;-5.5056;
669.9000;0.7847;-5.5056;
670.2000;0.7863;-5.5109;
670.5000;0.7839;-5.5188;
670.8000;0.7823;-5.5294;
671.1000;0.7831;-5.5241;
671.4000;0.7823;-5.5215;
671.7000;0.7831;-5.5188;
672.0000;0.7806;-5.5188;
672.3000;0.7839;-5.5135;
672.6000;0.7823;-5.5215;
672.9000;0.7831;-5.5135;
673.2000;0.7814;-5.5109;
673.5000;0.7814;-5.5083;
673.8000;0.7814;-5.5135;
674.1000;0.7798;-5.5241;
674.4000;0.7774;-5.5241;
674.7000;0.7782;-5.5215;
675.0000;0.7725;-5.5267;
675.3000;0.7766;-5.5162;
675.6000;0.7766;-5.5267;
675.9000;0.7749;-5.5241;
676.2000;0.7725;-5.5399;
676.5000;0.7692;-5.5479;
676.8000;0.7741;-5.5347;
677.1000;0.7725;-5.5320;
677.4000;0.7741;-5.5215;
677.7000;0.7757;-5.5162;
678.0000;0.7725;-5.5162;
678.3000;0.7676;-5.5241;
678.6000;0.7733;-5.5215;
678.9000;0.7749;-5.5241;
679.2000;0.7749;-5.5241;
679.5000;0.7676;-5.5347;
679.8000;0.7692;-5.5320;
680.1000;0.7692;-5.5241;
680.4000;0.7684;-5.5294;
680.7000;0.7660;-5.5320;
681.0000;0.7660;-5.5399;
681.3000;0.7660;-5.5294;
681.6000;0.7668;-5.5267;
681.9000;0.7643;-5.5347;
682.2000;0.7652;-5.5320;
682.5000;0.7627;-5.5347;
682.8000;0.7643;-5.5294;
683.1000;0.7668;-5.5241;
683.4000;0.7643;-5.5294;
683.7000;0.7643;-5.5162;
684.0000;0.7635;-5.5215;
684.3000;0.7643;-5.5188;
684.6000;0.7619;-5.5162;
684.9000;0.7619;-5.5083;
685.2000;0.7611;-5.5056;
685.5000;0.7603;-5.5030;
685.8000;0.7586;-5.5083;
686.1000;0.7586;-5.5162;
686.4000;0.7570;-5.5241;
686.7000;0.7570;-5.5109;
687.0000;0.7578;-5.5162;
687.3000;0.7562;-5.5241;
687.6000;0.7554;-5.5215;
687.9000;0.7570;-5.5188;
688.2000;0.7570;-5.5294;
688.5000;0.7570;-5.5294;
688.8000;0.7554;-5.5188;
689.1000;0.7546;-5.5083;
689.4000;0.7554;-5.5056;
689.7000;0.7538;-5.5135;
690.0000;0.7530;-5.5188;
690.3000;0.7538;-5.5215;
690.6000;0.7538;-5.5215;
690.9000;0.7603;-5.5030;
691.2000;0.7521;-5.5215;
691.5000;0.7521;-5.5215;
691.8000;0.7530;-5.5188;
692.1000;0.7505;-5.5241;
692.4000;0.7513;-5.5267;
692.7000;0.7497;-5.5215;
693.0000;0.7521;-5.5241;
693.3000;0.7505;-5.5347;
693.6000;0.7497;-5.5320;
693.9000;0.7489;-5.5215;
694.2000;0.7481;-5.5241;
694.5000;0.7489;-5.5188;
694.8000;0.7464;-5.5188;
695.1000;0.7481;-5.5188;
695.4000;0.7473;-5.5215;
695.7000;0.7473;-5.5267;
696.0000;0.7424;-5.5399;
696.3000;0.7448;-5.5373;
696.6000;0.7448;-5.5373;
696.9000;0.7448;-5.5373;
697.2000;0.7456;-5.5294;
697.5000;0.7440;-5.5267;
697.8000;0.7440;-5.5241;
698.1000;0.7399;-5.5320;
698.4000;0.7448;-5.5294;
698.7000;0.7448;-5.5373;
699.0000;0.7432;-5.5399;
699.3000;0.7416;-5.5399;
699.6000;0.7424;-5.5320;
699.9000;0.7416;-5.5320;
700.2000;0.7383;-5.5320;
700.5000;0.7416;-5.5188;
700.8000;0.7416;-5.5215;
701.1000;0.7407;-5.5241;
701.4000;0.7391;-5.5294;
701.7000;0.7391;-5.5241;
702.0000;0.7416;-5.5109;
702.3000;0.7285;-5.5426;
702.6000;0.7326;-5.5294;
702.9000;0.7375;-5.5241;
703.2000;0.7440;-5.5215;
703.5000;0.7375;-5.5399;
703.8000;0.7383;-5.5399;
704.1000;0.7334;-5.5531;
704.4000;0.7432;-5.5294;
704.7000;0.7375;-5.5347;
705.0000;0.7367;-5.5373;
705.3000;0.7375;-5.5426;
705.6000;0.7375;-5.5399;
705.9000;0.7350;-5.5426;
706.2000;0.7375;-5.5399;
706.5000;0.7334;-5.5426;
706.8000;0.7334;-5.5452;
707.1000;0.7350;-5.5399;
707.4000;0.7350;-5.5399;
707.7000;0.7334;-5.5320;
708.0000;0.7318;-5.5347;
708.3000;0.7334;-5.5320;
708.6000;0.7334;-5.5267;
708.9000;0.7318;-5.5215;
709.2000;0.7326;-5.5162;
709.5000;0.7350;-5.5135;
709.8000;0.7342;-5.5056;
710.1000;0.7326;-5.5109;
710.4000;0.7326;-5.5188;
710.7000;0.7399;-5.5003;
711.0000;0.7302;-5.5294;
711.3000;0.7326;-5.5215;
711.6000;0.7310;-5.5188;
711.9000;0.7285;-5.5320;
712.2000;0.7293;-5.5294;
712.5000;0.7302;-5.5267;
712.8000;0.7293;-5.5267;
713.1000;0.7293;-5.5320;
713.4000;0.7310;-5.5241;
713.7000;0.7302;-5.5294;
714.0000;0.7293;-5.5294;
714.3000;0.7269;-5.5347;
714.6000;0.7285;-5.5215;
714.9000;0.7302;-5.5267;
715.2000;0.7269;-5.5320;
715.5000;0.7285;-5.5215;
715.8000;0.7261;-5.5267;
716.1000;0.7277;-5.5294;
716.4000;0.7253;-5.5241;
716.7000;0.7245;-5.5426;
717.0000;0.7269;-5.5373;
717.3000;0.7269;-5.5426;
717.6000;0.7261;-5.5479;
717.9000;0.7253;-5.5479;
718.2000;0.7261;-5.5479;
718.5000;0.7261;-5.5426;
718.8000;0.7228;-5.5584;
719.1000;0.7245;-5.5479;
719.4000;0.7245;-5.5399;
719.7000;0.7253;-5.5347;
720.0000;0.7236;-5.5347;
720.3000;0.7220;-5.5347;
720.6000;0.7220;-5.5294;
720.9000;0.7245;-5.5241;
721.2000;0.7318;-5.5109;
721.5000;0.7204;-5.5452;
721.8000;0.7212;-5.5426;
722.1000;0.7220;-5.5399;
722.4000;0.7220;-5.5399;
722.7000;0.7196;-5.5426;
723.0000;0.7293;-5.5162;
723.3000;0.7179;-5.5479;
723.6000;0.7220;-5.5373;
723.9000;0.7163;-5.5426;
724.2000;0.7228;-5.5294;
724.5000;0.7179;-5.5399;
724.8000;0.7285;-5.5241;
725.1000;0.7204;-5.5452;
725.4000;0.7179;-5.5479;
725.7000;0.7277;-5.5188;
726.0000;0.7188;-5.5320;
726.3000;0.7171;-5.5347;
726.6000;0.7188;-5.5347;
726.9000;0.7179;-5.5399;
727.2000;0.7155;-5.5479;
727.5000;0.7179;-5.5373;
727.8000;0.7179;-5.5373;
728.1000;0.7155;-5.5399;
728.4000;0.7171;-5.5320;
728.7000;0.7147;-5.5347;
729.0000;0.7163;-5.5320;
729.3000;0.7228;-5.5241;
729.6000;0.7171;-5.5347;
729.9000;0.7106;-5.5505;
730.2000;0.7171;-5.5399;
730.5000;0.7171;-5.5426;
730.8000;0.7155;-5.5426;
731.1000;0.7147;-5.5426;
731.4000;0.7155;-5.5399;
731.7000;0.7147;-5.5347;
732.0000;0.7163;-5.5267;
732.3000;0.7147;-5.5294;
732.6000;0.7155;-5.5294;
732.9000;0.7139;-5.5294;
733.2000;0.7114;-5.5347;
733.5000;0.7106;-5.5426;
733.8000;0.7123;-5.5294;
734.1000;0.7098;-5.5399;
734.4000;0.7171;-5.5162;
734.7000;0.7131;-5.5347;
735.0000;0.7131;-5.5347;
735.3000;0.7147;-5.5241;
735.6000;0.7171;-5.5188;
735.9000;0.7114;-5.5320;
736.2000;0.7131;-5.5267;
736.5000;0.7106;-5.5347;
736.8000;0.7123;-5.5320;
737.1000;0.7114;-5.5267;
737.4000;0.7114;-5.5347;
737.7000;0.7106;-5.5373;
738.0000;0.7123;-5.5267;
738.3000;0.7114;-5.5373;
738.6000;0.7106;-5.5452;
738.9000;0.7106;-5.5452;
739.2000;0.7131;-5.5373;
739.5000;0.7098;-5.5479;
739.8000;0.7066;-5.5452;
740.1000;0.7106;-5.5373;
740.4000;0.7114;-5.5452;
740.7000;0.7106;-5.5452;
741.0000;0.7090;-5.5426;
741.3000;0.7098;-5.5505;
741.6000;0.7131;-5.5399;
741.9000;0.7106;-5.5426;
742.2000;0.7090;-5.5426;
742.5000;0.7090;-5.5399;
742.8000;0.7155;-5.5135;
743.1000;0.7074;-5.5320;
743.4000;0.7074;-5.5426;
743.7000;0.7066;-5.5426;
744.0000;0.7090;-5.5347;
744.3000;0.7098;-5.5347;
744.6000;0.7082;-5.5373;
744.9000;0.7074;-5.5347;
745.2000;0.7090;-5.5320;
745.5000;0.7049;-5.5373;
745.8000;0.7139;-5.5109;
746.1000;0.7082;-5.5188;
746.4000;0.7057;-5.5241;
746.7000;0.7114;-5.5109;
747.0000;0.7098;-5.5162;
747.3000;0.7114;-5.5030;
747.6000;0.7090;-5.5083;
747.9000;0.7066;-5.5135;
748.2000;0.7082;-5.5135;
748.5000;0.7057;-5.5109;
748.8000;0.7049;-5.5030;
749.1000;0.7066;-5.5056;
749.4000;0.7074;-5.5162;
749.7000;0.7066;-5.5188;
750.0000;0.7057;-5.5188;
750.3000;0.7041;-5.5162;
750.6000;0.7049;-5.5109;
750.9000;0.7066;-5.5083;
751.2000;0.7074;-5.5109;
751.5000;0.7033;-5.5241;
751.8000;0.7049;-5.5215;
752.1000;0.7098;-5.5083;
752.4000;0.7041;-5.5241;
752.7000;0.7033;-5.5188;
753.0000;0.7074;-5.4977;
753.3000;0.7025;-5.5162;
753.6000;0.7074;-5.5109;
753.9000;0.7066;-5.5083;
754.2000;0.7033;-5.5109;
754.5000;0.7049;-5.5135;
754.8000;0.7009;-5.5188;
755.1000;0.7025;-5.5162;
755.4000;0.7009;-5.5215;
755.7000;0.7033;-5.5162;
756.0000;0.7017;-5.5083;
756.3000;0.7017;-5.5109;
756.6000;0.6992;-5.5241;
756.9000;0.7025;-5.5083;
757.2000;0.7017;-5.5056;
757.5000;0.7009;-5.5162;
757.8000;0.7033;-5.5083;
758.1000;0.6992;-5.5188;
758.4000;0.7009;-5.5162;
758.7000;0.7000;-5.5188;
759.0000;0.7009;-5.5162;
759.3000;0.7009;-5.5162;
759.6000;0.6968;-5.5373;
759.9000;0.7009;-5.5294;
760.2000;0.7017;-5.5267;
760.5000;0.7025;-5.5162;
760.8000;0.7000;-5.5135;
761.1000;0.7009;-5.5083;
761.4000;0.7000;-5.5135;
761.7000;0.7009;-5.5083;
762.0000;0.7000;-5.5083;
762.3000;0.7009;-5.5003;
762.6000;0.7000;-5.5056;
762.9000;0.6984;-5.5056;
763.2000;0.6984;-5.4977;
763.5000;0.7000;-5.4898;
763.8000;0.6984;-5.4924;
764.1000;0.6984;-5.4924;
764.4000;0.6976;-5.5003;
764.7000;0.6992;-5.4924;
765.0000;0.6976;-5.4951;
765.3000;0.6968;-5.4924;
765.6000;0.6976;-5.4951;
765.9000;0.6976;-5.5030;
766.2000;0.6984;-5.4924;
766.5000;0.6976;-5.4924;
766.8000;0.6968;-5.4977;
767.1000;0.6960;-5.4951;
767.4000;0.6992;-5.4818;
767.7000;0.6984;-5.4898;
768.0000;0.6960;-5.4951;
768.3000;0.6960;-5.5003;
768.6000;0.6976;-5.4924;
768.9000;0.6984;-5.4898;
769.2000;0.6968;-5.4898;
769.5000;0.6952;-5.4924;
769.8000;0.6943;-5.5003;
770.1000;0.6992;-5.4898;
770.4000;0.7009;-5.4871;
770.7000;0.6968;-5.4871;
771.0000;0.6984;-5.4739;
771.3000;0.6992;-5.4766;
771.6000;0.6968;-5.4845;
771.9000;0.6927;-5.4951;
772.2000;0.6968;-5.4845;
772.5000;0.6943;-5.4924;
772.8000;0.6960;-5.4898;
773.1000;0.6960;-5.4924;
773.4000;0.6943;-5.4951;
773.7000;0.6968;-5.4898;
774.0000;0.6943;-5.4898;
774.3000;0.6976;-5.4871;
774.6000;0.6952;-5.4951;
774.9000;0.6927;-5.5162;
775.2000;0.6927;-5.5135;
775.5000;0.6943;-5.5109;
775.8000;0.6935;-5.5056;
776.1000;0.6984;-5.4871;
776.4000;0.6943;-5.5030;
776.7000;0.6943;-5.5083;
777.0000;0.6911;-5.5162;
777.3000;0.6911;-5.5267;
777.6000;0.6943;-5.5135;
777.9000;0.6943;-5.5056;
778.2000;0.6943;-5.5003;
778.5000;0.6935;-5.5109;
778.8000;0.6952;-5.5056;
779.1000;0.6952;-5.5003;
779.4000;0.6943;-5.5056;
779.7000;0.6927;-5.5056;
780.0000;0.6935;-5.5083;
780.3000;0.6943;-5.5162;
780.6000;0.6927;-5.5188;
780.9000;0.6943;-5.5241;
781.2000;0.6960;-5.5188;
781.5000;0.6952;-5.5241;
781.8000;0.6935;-5.5215;
782.1000;0.6886;-5.5294;
782.4000;0.6935;-5.5294;
782.7000;0.6943;-5.5267;
783.0000;0.6952;-5.5241;
783.3000;0.6927;-5.5320;
783.6000;0.6927;-5.5294;
783.9000;0.6927;-5.5241;
784.2000;0.6935;-5.5241;
784.5000;0.6911;-5.5373;
784.8000;0.6927;-5.5426;
785.1000;0.6911;-5.5426;
785.4000;0.6919;-5.5399;
785.7000;0.6927;-5.5294;
786.0000;0.6919;-5.5267;
786.3000;0.6903;-5.5320;
786.6000;0.6935;-5.5188;
786.9000;0.6919;-5.5135;
787.2000;0.6911;-5.5083;
787.5000;0.6919;-5.5056;
787.8000;0.6952;-5.4977;
788.1000;0.6911;-5.5109;
788.4000;0.6895;-5.5056;
788.7000;0.6911;-5.5083;
789.0000;0.6911;-5.5083;
789.3000;0.6919;-5.5056;
789.6000;0.6903;-5.5135;
789.9000;0.6903;-5.5135;
790.2000;0.6903;-5.5215;
790.5000;0.6886;-5.5241;
790.8000;0.6927;-5.5109;
791.1000;0.6886;-5.5162;
791.4000;0.6903;-5.5135;
791.7000;0.6919;-5.5135;
792.0000;0.6903;-5.5215;
792.3000;0.6927;-5.5162;
792.6000;0.6903;-5.5162;
792.9000;0.6878;-5.5188;
793.2000;0.6862;-5.5188;
793.5000;0.6903;-5.4977;
793.8000;0.6911;-5.4924;
794.1000;0.6886;-5.4898;
794.4000;0.6919;-5.4818;
794.7000;0.6895;-5.4924;
795.0000;0.6870;-5.4924;
795.3000;0.6927;-5.4845;
795.6000;0.6886;-5.4977;
795.9000;0.6886;-5.4924;
796.2000;0.6838;-5.5083;
796.5000;0.6862;-5.5135;
796.8000;0.6903;-5.5056;
797.1000;0.6903;-5.5135;
797.4000;0.6903;-5.5109;
797.7000;0.6886;-5.5135;
798.0000;0.6895;-5.5188;
798.3000;0.6870;-5.5188;
798.6000;0.6895;-5.5162;
798.9000;0.6886;-5.5162;
799.2000;0.6911;-5.5135;
799.5000;0.6878;-5.5135;
799.8000;0.6943;-5.5003;
800.1000;0.6878;-5.5083;
800.4000;0.6878;-5.5056;
800.7000;0.6862;-5.5056;
801.0000;0.6854;-5.5083;
801.3000;0.6862;-5.5083;
801.6000;0.6870;-5.5135;
801.9000;0.6886;-5.5109;
802.2000;0.6886;-5.5162;
802.5000;0.6862;-5.5162;
802.8000;0.6870;-5.5135;
803.1000;0.6870;-5.5188;
803.4000;0.6878;-5.5162;
803.7000;0.6846;-5.5215;
804.0000;0.6886;-5.5109;
804.3000;0.6846;-5.5135;
804.6000;0.6870;-5.5109;
804.9000;0.6870;-5.5030;
805.2000;0.6862;-5.5109;
805.5000;0.6886;-5.5083;
805.8000;0.6878;-5.5135;
806.1000;0.6878;-5.5109;
806.4000;0.6870;-5.5083;
806.7000;0.6862;-5.5030;
807.0000;0.6886;-5.5030;
807.3000;0.6878;-5.5135;
807.6000;0.6862;-5.5188;
807.9000;0.6854;-5.5135;
808.2000;0.6870;-5.5188;
808.5000;0.6870;-5.5188;
808.8000;0.6862;-5.5320;
809.1000;0.6846;-5.5347;
809.4000;0.6854;-5.5452;
809.7000;0.6886;-5.5320;
810.0000;0.6862;-5.5267;
810.3000;0.6862;-5.5267;
810.6000;0.6846;-5.5267;
810.9000;0.6854;-5.5188;
811.2000;0.6846;-5.5294;
811.5000;0.6838;-5.5294;
811.8000;0.6870;-5.5135;
812.1000;0.6838;-5.5188;
812.4000;0.6862;-5.5162;
812.7000;0.6854;-5.5162;
813.0000;0.6846;-5.5215;
813.3000;0.6870;-5.5135;
813.6000;0.6854;-5.5135;
813.9000;0.6846;-5.5162;
814.2000;0.6846;-5.5109;
814.5000;0.6829;-5.5162;
814.8000;0.6862;-5.5109;
815.1000;0.6854;-5.5135;
815.4000;0.6829;-5.5162;
815.7000;0.6846;-5.5109;
816.0000;0.6846;-5.5056;
816.3000;0.6829;-5.5135;
816.6000;0.6838;-5.5109;
816.9000;0.6813;-5.5162;
817.2000;0.6846;-5.5109;
817.5000;0.6878;-5.5030;
817.8000;0.6846;-5.5162;
818.1000;0.6862;-5.5135;
818.4000;0.6846;-5.5109;
818.7000;0.6838;-5.5162;
819.0000;0.6838;-5.5188;
819.3000;0.6813;-5.5241;
819.6000;0.6813;-5.5267;
819.9000;0.6870;-5.5162;
820.2000;0.6813;-5.5320;
820.5000;0.6821;-5.5241;
820.8000;0.6854;-5.5188;
821.1000;0.6829;-5.5294;
821.4000;0.6838;-5.5241;
821.7000;0.6870;-5.5109;
822.0000;0.6829;-5.5188;
822.3000;0.6846;-5.5109;
822.6000;0.6878;-5.5056;
822.9000;0.6838;-5.5267;
823.2000;0.6813;-5.5320;
823.5000;0.6854;-5.5215;
823.8000;0.6813;-5.5294;
824.1000;0.6813;-5.5241;
824.4000;0.6821;-5.5188;
824.7000;0.6821;-5.5188;
825.0000;0.6829;-5.5083;
825.3000;0.6821;-5.5109;
825.6000;0.6813;-5.5162;
825.9000;0.6821;-5.5135;
826.2000;0.6829;-5.5135;
826.5000;0.6821;-5.5162;
826.8000;0.6821;-5.5056;
827.1000;0.6813;-5.5056;
827.4000;0.6821;-5.5056;
827.7000;0.6805;-5.5109;
828.0000;0.6813;-5.5083;
828.3000;0.6813;-5.5083;
828.6000;0.6813;-5.5109;
828.9000;0.6805;-5.5109;
829.2000;0.6821;-5.5056;
829.5000;0.6821;-5.5083;
829.8000;0.6805;-5.5162;
830.1000;0.6813;-5.5188;
830.4000;0.6813;-5.5135;
830.7000;0.6813;-5.5188;
831.0000;0.6797;-5.5215;
831.3000;0.6821;-5.5056;
831.6000;0.6813;-5.5083;
831.9000;0.6756;-5.5294;
832.2000;0.6805;-5.5215;
832.5000;0.6821;-5.5241;
832.8000;0.6821;-5.5267;
833.1000;0.6797;-5.5267;
833.4000;0.6772;-5.5267;
833.7000;0.6813;-5.5135;
834.0000;0.6805;-5.5056;
834.3000;0.6821;-5.5056;
834.6000;0.6821;-5.5056;
834.9000;0.6821;-5.5162;
835.2000;0.6821;-5.5135;
835.5000;0.6821;-5.5241;
835.8000;0.6813;-5.5267;
836.1000;0.6821;-5.5267;
836.4000;0.6805;-5.5347;
836.7000;0.6813;-5.5320;
837.0000;0.6797;-5.5294;
837.3000;0.6789;-5.5267;
837.6000;0.6813;-5.5215;
837.9000;0.6797;-5.5215;
838.2000;0.6805;-5.5162;
838.5000;0.6797;-5.5215;
838.8000;0.6813;-5.5083;
839.1000;0.6805;-5.5162;
839.4000;0.6813;-5.5188;
839.7000;0.6813;-5.5162;
840.0000;0.6756;-5.5347;
840.3000;0.6821;-5.5241;
840.6000;0.6829;-5.5162;
840.9000;0.6821;-5.5162;
841.2000;0.6805;-5.5056;
841.5000;0.6829;-5.5030;
841.8000;0.6789;-5.5162;
842.1000;0.6781;-5.5215;
842.4000;0.6789;-5.5215;
842.7000;0.6781;-5.5267;
843.0000;0.6789;-5.5215;
843.3000;0.6789;-5.5215;
843.6000;0.6797;-5.5162;
843.9000;0.6821;-5.5135;
844.2000;0.6813;-5.5135;
844.5000;0.6805;-5.5109;
844.8000;0.6789;-5.5162;
845.1000;0.6797;-5.5109;
845.4000;0.6789;-5.4977;
845.7000;0.6797;-5.5056;
846.0000;0.6789;-5.5056;
846.3000;0.6756;-5.5162;
846.6000;0.6797;-5.5083;
846.9000;0.6789;-5.5135;
847.2000;0.6707;-5.5347;
847.5000;0.6781;-5.5162;
847.8000;0.6724;-5.5215;
848.1000;0.6789;-5.5003;
848.4000;0.6781;-5.4977;
848.7000;0.6789;-5.5056;
849.0000;0.6789;-5.5162;
849.3000;0.6797;-5.5135;
849.6000;0.6789;-5.5162;
849.9000;0.6789;-5.5162;
850.2000;0.6789;-5.5109;
850.5000;0.6789;-5.5083;
850.8000;0.6838;-5.4898;
851.1000;0.6789;-5.5003;
851.4000;0.6789;-5.5030;
851.7000;0.6797;-5.5003;
852.0000;0.6805;-5.4951;
852.3000;0.6772;-5.5003;
852.6000;0.6781;-5.4977;
852.9000;0.6789;-5.4924;
853.2000;0.6797;-5.4924;
853.5000;0.6789;-5.4951;
853.8000;0.6781;-5.4898;
854.1000;0.6748;-5.4951;
854.4000;0.6789;-5.4898;
854.7000;0.6789;-5.4871;
855.0000;0.6821;-5.4792;
855.3000;0.6797;-5.4898;
855.6000;0.6789;-5.4871;
855.9000;0.6781;-5.4898;
856.2000;0.6789;-5.4977;
856.5000;0.6789;-5.5056;
856.8000;0.6797;-5.5030;
857.1000;0.6797;-5.4977;
857.4000;0.6781;-5.5056;
857.7000;0.6764;-5.5083;
858.0000;0.6789;-5.5003;
858.3000;0.6789;-5.4977;
858.6000;0.6821;-5.4924;
858.9000;0.6772;-5.5056;
859.2000;0.6789;-5.5030;
859.5000;0.6797;-5.4951;
859.8000;0.6789;-5.5003;
860.1000;0.6772;-5.5056;
860.4000;0.6781;-5.5135;
860.7000;0.6789;-5.5188;
861.0000;0.6854;-5.5030;
861.3000;0.6764;-5.5162;
861.6000;0.6797;-5.5083;
861.9000;0.6781;-5.5241;
862.2000;0.6797;-5.5162;
862.5000;0.6805;-5.5083;
862.8000;0.6829;-5.4977;
863.1000;0.6732;-5.5135;
863.4000;0.6813;-5.4977;
863.7000;0.6764;-5.5109;
864.0000;0.6691;-5.5347;
864.3000;0.6772;-5.5135;
864.6000;0.6789;-5.5109;
864.9000;0.6781;-5.5109;
865.2000;0.6781;-5.5056;
865.5000;0.6781;-5.5056;
865.8000;0.6699;-5.5215;
866.1000;0.6797;-5.5030;
866.4000;0.6805;-5.5056;
866.7000;0.6740;-5.5241;
867.0000;0.6772;-5.5162;
867.3000;0.6781;-5.5215;
867.6000;0.6772;-5.5241;
867.9000;0.6772;-5.5188;
868.2000;0.6716;-5.5241;
868.5000;0.6756;-5.5109;
868.8000;0.6764;-5.5083;
869.1000;0.6781;-5.5083;
869.4000;0.6764;-5.5188;
869.7000;0.6756;-5.5162;
870.0000;0.6764;-5.5135;
870.3000;0.6764;-5.5056;
870.6000;0.6756;-5.5109;
870.9000;0.6764;-5.5083;
871.2000;0.6756;-5.5030;
871.5000;0.6764;-5.4924;
871.8000;0.6764;-5.4951;
872.1000;0.6740;-5.4951;
872.4000;0.6756;-5.5083;
872.7000;0.6756;-5.5030;
873.0000;0.6748;-5.5056;
873.3000;0.6740;-5.5083;
873.6000;0.6740;-5.5056;
873.9000;0.6740;-5.5003;
874.2000;0.6740;-5.5003;
874.5000;0.6740;-5.5109;
874.8000;0.6748;-5.5030;
875.1000;0.6724;-5.5109;
875.4000;0.6756;-5.4977;
875.7000;0.6764;-5.4898;
876.0000;0.6748;-5.5056;
876.3000;0.6764;-5.5030;
876.6000;0.6748;-5.5003;
876.9000;0.6756;-5.5030;
877.2000;0.6748;-5.5083;
877.5000;0.6756;-5.5109;
877.8000;0.6740;-5.5056;
878.1000;0.6781;-5.4898;
878.4000;0.6748;-5.4924;
878.7000;0.6748;-5.4845;
879.0000;0.6740;-5.4871;
879.3000;0.6732;-5.4924;
879.6000;0.6740;-5.4898;
879.9000;0.6781;-5.5003;
880.2000;0.6772;-5.5056;
880.5000;0.6740;-5.5056;
880.8000;0.6756;-5.5030;
881.1000;0.6756;-5.4977;
881.4000;0.6756;-5.5003;
881.7000;0.6756;-5.5056;
882.0000;0.6748;-5.5056;
882.3000;0.6756;-5.5056;
882.6000;0.6748;-5.5135;
882.9000;0.6740;-5.5162;
883.2000;0.6732;-5.5215;
883.5000;0.6724;-5.5135;
883.8000;0.6781;-5.5056;
884.1000;0.6846;-5.4977;
884.4000;0.6772;-5.5003;
884.7000;0.6748;-5.5030;
885.0000;0.6813;-5.4871;
885.3000;0.6740;-5.4924;
885.6000;0.6756;-5.4951;
885.9000;0.6748;-5.4951;
886.2000;0.6748;-5.5003;
886.5000;0.6748;-5.5056;
886.8000;0.6683;-5.5109;
887.1000;0.6740;-5.4898;
887.4000;0.6691;-5.5030;
887.7000;0.6748;-5.4951;
888.0000;0.6805;-5.4818;
888.3000;0.6821;-5.4766;
888.6000;0.6732;-5.5003;
888.9000;0.6756;-5.5083;
889.2000;0.6740;-5.5135;
889.5000;0.6732;-5.5109;
889.8000;0.6756;-5.5135;
890.1000;0.6740;-5.5109;
890.4000;0.6740;-5.5162;
890.7000;0.6748;-5.5135;
891.0000;0.6748;-5.5083;
891.3000;0.6781;-5.4977;
891.6000;0.6748;-5.5056;
891.9000;0.6748;-5.5056;
892.2000;0.6732;-5.4924;
892.5000;0.6748;-5.4898;
892.8000;0.6748;-5.4818;
893.1000;0.6748;-5.4871;
893.4000;0.6740;-5.4977;
893.7000;0.6740;-5.5083;
894.0000;0.6732;-5.5083;
894.3000;0.6756;-5.5030;
894.6000;0.6724;-5.5135;
894.9000;0.6716;-5.5109;
895.2000;0.6716;-5.5083;
895.5000;0.6748;-5.4924;
895.8000;0.6740;-5.4924;
896.1000;0.6740;-5.4977;
896.4000;0.6732;-5.5083;
896.7000;0.6756;-5.4924;
897.0000;0.6732;-5.4951;
897.3000;0.6732;-5.5162;
897.6000;0.6699;-5.5215;
897.9000;0.6732;-5.5109;
898.2000;0.6707;-5.5188;
898.5000;0.6740;-5.5030;
898.8000;0.6740;-5.5083;
899.1000;0.6724;-5.5135;
899.4000;0.6748;-5.5083;
899.7000;0.6724;-5.5083;
900.0000;0.6716;-5.5109;
900.3000;0.6732;-5.5083;
900.6000;0.6805;-5.4898;
900.9000;0.6667;-5.5267;
901.2000;0.6716;-5.5188;
901.5000;0.6748;-5.5215;
901.8000;0.6805;-5.5030;
902.1000;0.6740;-5.5188;
902.4000;0.6732;-5.5188;
902.7000;0.6764;-5.5030;
903.0000;0.6716;-5.5030;
903.3000;0.6724;-5.5003;
903.6000;0.6716;-5.5003;
903.9000;0.6724;-5.4924;
904.2000;0.6732;-5.4951;
904.5000;0.6716;-5.5003;
904.8000;0.6707;-5.4977;
905.1000;0.6740;-5.4898;
905.4000;0.6724;-5.4951;
905.7000;0.6716;-5.4924;
906.0000;0.6724;-5.4977;
906.3000;0.6699;-5.5003;
906.6000;0.6716;-5.5056;
906.9000;0.6732;-5.5056;
907.2000;0.6691;-5.5030;
907.5000;0.6748;-5.4977;
907.8000;0.6756;-5.4871;
908.1000;0.6756;-5.4792;
908.4000;0.6724;-5.4845;
908.7000;0.6707;-5.4871;
909.0000;0.6659;-5.5083;
909.3000;0.6699;-5.5003;
909.6000;0.6724;-5.5003;
909.9000;0.6764;-5.4871;
910.2000;0.6699;-5.5030;
910.5000;0.6724;-5.4951;
910.8000;0.6732;-5.4977;
911.1000;0.6772;-5.4845;
911.4000;0.6699;-5.5030;
911.7000;0.6716;-5.4977;
912.0000;0.6740;-5.4924;
912.3000;0.6716;-5.4951;
912.6000;0.6691;-5.5030;
912.9000;0.6724;-5.4951;
913.2000;0.6724;-5.4977;
913.5000;0.6740;-5.4977;
913.8000;0.6716;-5.4951;
914.1000;0.6724;-5.5003;
914.4000;0.6724;-5.5030;
914.7000;0.6675;-5.5109;
915.0000;0.6699;-5.5083;
915.3000;0.6699;-5.5030;
915.6000;0.6740;-5.4951;
915.9000;0.6716;-5.4977;
916.2000;0.6732;-5.4951;
916.5000;0.6732;-5.4924;
916.8000;0.6699;-5.5030;
917.1000;0.6699;-5.5030;
917.4000;0.6716;-5.4977;
917.7000;0.6699;-5.4924;
918.0000;0.6707;-5.4977;
918.3000;0.6724;-5.4951;
918.6000;0.6707;-5.5056;
918.9000;0.6716;-5.5083;
919.2000;0.6699;-5.5188;
919.5000;0.6707;-5.5215;
919.8000;0.6707;-5.5215;
920.1000;0.6707;-5.5188;
920.4000;0.6691;-5.5109;
920.7000;0.6707;-5.5109;
921.0000;0.6707;-5.5003;
921.3000;0.6707;-5.4924;
921.6000;0.6748;-5.4924;
921.9000;0.6716;-5.5003;
922.2000;0.6707;-5.5056;
922.5000;0.6707;-5.5030;
922.8000;0.6659;-5.5162;
923.1000;0.6740;-5.4977;
923.4000;0.6707;-5.5056;
923.7000;0.6724;-5.5056;
924.0000;0.6650;-5.5294;
924.3000;0.6707;-5.5030;
924.6000;0.6724;-5.5056;
924.9000;0.6659;-5.5135;
925.2000;0.6716;-5.4898;
925.5000;0.6716;-5.4871;
925.8000;0.6716;-5.4977;
926.1000;0.6691;-5.5056;
926.4000;0.6707;-5.4977;
926.7000;0.6699;-5.5003;
927.0000;0.6707;-5.4924;
927.3000;0.6699;-5.4845;
927.6000;0.6716;-5.4792;
927.9000;0.6707;-5.4792;
928.2000;0.6732;-5.4713;
928.5000;0.6707;-5.4766;
928.8000;0.6699;-5.4818;
929.1000;0.6716;-5.4739;
929.4000;0.6699;-5.4871;
929.7000;0.6699;-5.4898;
930.0000;0.6716;-5.4924;
930.3000;0.6707;-5.4898;
930.6000;0.6691;-5.4924;
930.9000;0.6699;-5.4898;
931.2000;0.6683;-5.4924;
931.5000;0.6707;-5.4924;
931.8000;0.6691;-5.4951;
932.1000;0.6699;-5.4818;
932.4000;0.6699;-5.4845;
932.7000;0.6691;-5.4845;
933.0000;0.6699;-5.4898;
933.3000;0.6691;-5.4818;
933.6000;0.6724;-5.4792;
933.9000;0.6707;-5.4871;
934.2000;0.6740;-5.4766;
934.5000;0.6691;-5.4845;
934.8000;0.6716;-5.4713;
935.1000;0.6707;-5.4739;
935.4000;0.6740;-5.4818;
935.7000;0.6699;-5.4924;
936.0000;0.6691;-5.4977;
936.3000;0.6683;-5.5030;
936.6000;0.6716;-5.4951;
936.9000;0.6691;-5.4977;
937.2000;0.6716;-5.4977;
937.5000;0.6724;-5.4898;
937.8000;0.6699;-5.4924;
938.1000;0.6707;-5.4924;
938.4000;0.6691;-5.5003;
938.7000;0.6699;-5.5083;
939.0000;0.6699;-5.5109;
939.3000;0.6707;-5.5030;
939.6000;0.6724;-5.4977;
939.9000;0.6707;-5.4977;
940.2000;0.6707;-5.4951;
940.5000;0.6716;-5.5003;
940.8000;0.6683;-5.5083;
941.1000;0.6691;-5.5083;
941.4000;0.6716;-5.5056;
941.7000;0.6699;-5.5083;
942.0000;0.6707;-5.5109;
942.3000;0.6683;-5.5188;
942.6000;0.6699;-5.5188;
942.9000;0.6707;-5.5215;
943.2000;0.6699;-5.5241;
943.5000;0.6699;-5.5241;
943.8000;0.6683;-5.5215;
944.1000;0.6707;-5.5162;
944.4000;0.6716;-5.5109;
944.7000;0.6691;-5.5056;
945.0000;0.6707;-5.4977;
945.3000;0.6724;-5.4924;
945.6000;0.6683;-5.5003;
945.9000;0.6683;-5.5135;
946.2000;0.6691;-5.5056;
946.5000;0.6716;-5.5003;
946.8000;0.6764;-5.4792;
947.1000;0.6699;-5.5056;
947.4000;0.6699;-5.4977;
947.7000;0.6724;-5.4951;
948.0000;0.6667;-5.5083;
948.3000;0.6691;-5.4898;
948.6000;0.6675;-5.4818;
948.9000;0.6667;-5.4818;
949.2000;0.6699;-5.4686;
949.5000;0.6699;-5.4713;
949.8000;0.6675;-5.4713;
950.1000;0.6691;-5.4713;
950.4000;0.6707;-5.4660;
950.7000;0.6667;-5.4792;
951.0000;0.6675;-5.4845;
951.3000;0.6683;-5.4845;
951.6000;0.6683;-5.4818;
951.9000;0.6675;-5.4766;
952.2000;0.6691;-5.4766;
952.5000;0.6675;-5.4924;
952.8000;0.6667;-5.5003;
953.1000;0.6691;-5.4898;
953.4000;0.6691;-5.4871;
953.7000;0.6659;-5.4924;
954.0000;0.6683;-5.4845;
954.3000;0.6675;-5.4818;
954.6000;0.6675;-5.4898;
954.9000;0.6691;-5.4898;
955.2000;0.6675;-5.4951;
955.5000;0.6675;-5.4871;
955.8000;0.6683;-5.4951;
956.1000;0.6732;-5.4818;
956.4000;0.6675;-5.4871;
956.7000;0.6691;-5.4818;
957.0000;0.6699;-5.4818;
957.3000;0.6716;-5.4713;
957.6000;0.6691;-5.4739;
957.9000;0.6683;-5.4739;
958.2000;0.6683;-5.4766;
958.5000;0.6699;-5.4792;
958.8000;0.6659;-5.4845;
959.1000;0.6691;-5.4713;
959.4000;0.6707;-5.4686;
959.7000;0.6772;-5.4528;
960.0000;0.6707;-5.4686;
960.3000;0.6716;-5.4581;
960.6000;0.6691;-5.4713;
960.9000;0.6691;-5.4818;
961.2000;0.6683;-5.4818;
961.5000;0.6683;-5.4766;
961.8000;0.6675;-5.4792;
962.1000;0.6707;-5.4634;
962.4000;0.6691;-5.4739;
962.7000;0.6659;-5.4845;
963.0000;0.6691;-5.4766;
963.3000;0.6691;-5.4766;
963.6000;0.6683;-5.4845;
963.9000;0.6699;-5.4845;
964.2000;0.6748;-5.4581;
964.5000;0.6683;-5.4713;
964.8000;0.6626;-5.4871;
965.1000;0.6707;-5.4766;
965.4000;0.6675;-5.4845;
965.7000;0.6699;-5.4739;
966.0000;0.6675;-5.4792;
966.3000;0.6683;-5.4898;
966.6000;0.6675;-5.4871;
966.9000;0.6683;-5.4898;
967.2000;0.6691;-5.4792;
967.5000;0.6667;-5.4792;
967.8000;0.6675;-5.4739;
968.1000;0.6626;-5.4898;
968.4000;0.6667;-5.4792;
968.7000;0.6691;-5.4792;
969.0000;0.6683;-5.4898;
969.3000;0.6691;-5.4924;
969.6000;0.6699;-5.4898;
969.9000;0.6699;-5.4871;
970.2000;0.6683;-5.4951;
970.5000;0.6626;-5.5030;
970.8000;0.6675;-5.4951;
971.1000;0.6675;-5.4871;
971.4000;0.6667;-5.4898;
971.7000;0.6659;-5.4924;
972.0000;0.6683;-5.4845;
972.3000;0.6675;-5.4898;
972.6000;0.6683;-5.4977;
972.9000;0.6675;-5.5030;
973.2000;0.6675;-5.5056;
973.5000;0.6675;-5.4977;
973.8000;0.6659;-5.4977;
974.1000;0.6626;-5.5030;
974.4000;0.6667;-5.4977;
974.7000;0.6675;-5.5003;
975.0000;0.6675;-5.5056;
975.3000;0.6675;-5.5056;
975.6000;0.6626;-5.5083;
975.9000;0.6683;-5.5003;
976.2000;0.6683;-5.4951;
976.5000;0.6667;-5.5003;
976.8000;0.6659;-5.4977;
977.1000;0.6716;-5.4898;
977.4000;0.6675;-5.4871;
977.7000;0.6675;-5.4845;
978.0000;0.6675;-5.4739;
978.3000;0.6683;-5.4686;
978.6000;0.6683;-5.4686;
978.9000;0.6675;-5.4766;
979.2000;0.6659;-5.4792;
979.5000;0.6740;-5.4634;
979.8000;0.6691;-5.4739;
980.1000;0.6675;-5.4713;
980.4000;0.6683;-5.4686;
980.7000;0.6691;-5.4739;
981.0000;0.6683;-5.4845;
981.3000;0.6691;-5.4713;
981.6000;0.6659;-5.4845;
981.9000;0.6724;-5.4766;
982.2000;0.6756;-5.4713;
982.5000;0.6675;-5.4845;
982.8000;0.6675;-5.4818;
983.1000;0.6610;-5.4951;
983.4000;0.6659;-5.4871;
983.7000;0.6667;-5.4924;
984.0000;0.6675;-5.4924;
984.3000;0.6610;-5.5109;
984.6000;0.6659;-5.5003;
984.9000;0.6667;-5.4951;
985.2000;0.6667;-5.4898;
985.5000;0.6716;-5.4686;
985.8000;0.6675;-5.4713;
986.1000;0.6659;-5.4766;
986.4000;0.6659;-5.4792;
986.7000;0.6667;-5.4871;
987.0000;0.6659;-5.4898;
987.3000;0.6707;-5.4871;
987.6000;0.6659;-5.5030;
987.9000;0.6659;-5.5056;
988.2000;0.6675;-5.4845;
988.5000;0.6667;-5.4898;
988.8000;0.6650;-5.4924;
989.1000;0.6691;-5.4818;
989.4000;0.6667;-5.4871;
989.7000;0.6667;-5.4792;
990.0000;0.6675;-5.4713;
990.3000;0.6675;-5.4792;
990.6000;0.6626;-5.4898;
990.9000;0.6675;-5.4713;
991.2000;0.6667;-5.4739;
991.5000;0.6691;-5.4634;
991.8000;0.6659;-5.4766;
992.1000;0.6683;-5.4766;
992.4000;0.6675;-5.4792;
992.7000;0.6683;-5.4660;
993.0000;0.6707;-5.4686;
993.3000;0.6667;-5.4818;
993.6000;0.6667;-5.4713;
993.9000;0.6699;-5.4607;
994.2000;0.6667;-5.4660;
994.5000;0.6667;-5.4686;
994.8000;0.6659;-5.4792;
995.1000;0.6667;-5.4818;
995.4000;0.6675;-5.4792;
995.7000;0.6659;-5.4845;
996.0000;0.6667;-5.4845;
996.3000;0.6659;-5.4898;
996.6000;0.6659;-5.4845;
996.9000;0.6667;-5.4792;
997.2000;0.6683;-5.4686;
997.5000;0.6659;-5.4766;
997.8000;0.6716;-5.4660;
998.1000;0.6667;-5.4713;
998.4000;0.6667;-5.4766;
998.7000;0.6659;-5.4792;
999.0000;0.6610;-5.4898;
999.3000;0.6650;-5.4792;
999.6000;0.6724;-5.4660;
999.9000;0.6667;-5.4818;
1000.2000;0.6707;-5.4818;
1000.5000;0.6740;-5.4766;
1000.8000;0.6585;-5.5030;
1001.1000;0.6667;-5.4871;
1001.4000;0.6675;-5.4951;
1001.7000;0.6675;-5.4924;
1002.0000;0.6650;-5.5083;
1002.3000;0.6642;-5.5109;
1002.6000;0.6675;-5.5003;
1002.9000;0.6642;-5.5056;
1003.2000;0.6659;-5.4951;
1003.5000;0.6650;-5.4898;
1003.8000;0.6707;-5.4792;
1004.1000;0.6675;-5.4924;
1004.4000;0.6683;-5.4951;
1004.7000;0.6659;-5.5030;
1005.0000;0.6659;-5.5056;
1005.3000;0.6659;-5.5083;
1005.6000;0.6659;-5.5003;
1005.9000;0.6667;-5.5003;
1006.2000;0.6659;-5.4951;
1006.5000;0.6659;-5.4871;
1006.8000;0.6675;-5.4792;
1007.1000;0.6659;-5.4739;
1007.4000;0.6642;-5.4739;
1007.7000;0.6618;-5.4792;
1008.0000;0.6634;-5.4818;
1008.3000;0.6659;-5.4792;
1008.6000;0.6626;-5.4951;
1008.9000;0.6667;-5.4845;
1009.2000;0.6667;-5.4792;
1009.5000;0.6659;-5.4845;
1009.8000;0.6650;-5.4898;
1010.1000;0.6642;-5.4898;
1010.4000;0.6650;-5.4898;
1010.7000;0.6642;-5.4898;
1011.0000;0.6650;-5.4818;
1011.3000;0.6650;-5.4898;
1011.6000;0.6650;-5.4924;
1011.9000;0.6659;-5.5056;
1012.2000;0.6634;-5.5109;
1012.5000;0.6659;-5.5003;
1012.8000;0.6650;-5.5030;
1013.1000;0.6659;-5.4977;
1013.4000;0.6642;-5.4951;
1013.7000;0.6650;-5.4951;
1014.0000;0.6659;-5.4951;
1014.3000;0.6634;-5.4898;
1014.6000;0.6659;-5.4898;
1014.9000;0.6634;-5.4977;
1015.2000;0.6659;-5.4845;
1015.5000;0.6634;-5.4951;
1015.8000;0.6675;-5.4818;
1016.1000;0.6667;-5.4845;
1016.4000;0.6675;-5.4766;
1016.7000;0.6675;-5.4792;
1017.0000;0.6610;-5.4924;
1017.3000;0.6642;-5.4818;
1017.6000;0.6667;-5.4871;
1017.9000;0.6699;-5.4686;
1018.2000;0.6659;-5.4766;
1018.5000;0.6642;-5.4845;
1018.8000;0.6642;-5.4871;
1019.1000;0.6626;-5.4845;
1019.4000;0.6659;-5.4766;
1019.7000;0.6642;-5.4871;
1020.0000;0.6667;-5.4818;
1020.3000;0.6659;-5.4818;
1020.6000;0.6650;-5.4818;
1020.9000;0.6659;-5.4818;
1021.2000;0.6650;-5.4792;
1021.5000;0.6659;-5.4739;
1021.8000;0.6683;-5.4607;
1022.1000;0.6683;-5.4554;
1022.4000;0.6634;-5.4713;
1022.7000;0.6642;-5.4792;
1023.0000;0.6610;-5.4818;
1023.3000;0.6667;-5.4660;
1023.6000;0.6642;-5.4713;
1023.9000;0.6650;-5.4660;
1024.2000;0.6659;-5.4713;
1024.5000;0.6577;-5.4951;
1024.8000;0.6634;-5.4898;
1025.1000;0.6602;-5.4898;
1025.4000;0.6642;-5.4766;
1025.7000;0.6650;-5.4871;
1026.0000;0.6642;-5.4845;
1026.3000;0.6683;-5.4792;
1026.6000;0.6659;-5.4898;
1026.9000;0.6642;-5.4898;
1027.2000;0.6634;-5.4818;
1027.5000;0.6659;-5.4739;
1027.8000;0.6659;-5.4766;
1028.1000;0.6659;-5.4898;
1028.4000;0.6642;-5.4871;
1028.7000;0.6667;-5.4924;
1029.0000;0.6642;-5.4977;
1029.3000;0.6634;-5.4951;
1029.6000;0.6650;-5.4845;
1029.9000;0.6659;-5.4792;
1030.2000;0.6691;-5.4713;
1030.5000;0.6650;-5.4792;
1030.8000;0.6634;-5.4977;
1031.1000;0.6659;-5.4924;
1031.4000;0.6659;-5.4924;
1031.7000;0.6642;-5.4924;
1032.0000;0.6659;-5.4845;
1032.3000;0.6667;-5.4898;
1032.6000;0.6650;-5.4977;
1032.9000;0.6634;-5.4977;
1033.2000;0.6569;-5.5188;
1033.5000;0.6634;-5.4977;
1033.8000;0.6650;-5.4818;
1034.1000;0.6699;-5.4634;
1034.4000;0.6642;-5.4713;
1034.7000;0.6642;-5.4792;
1035.0000;0.6634;-5.4845;
1035.3000;0.6659;-5.4792;
1035.6000;0.6569;-5.4977;
1035.9000;0.6626;-5.4898;
1036.2000;0.6642;-5.4871;
1036.5000;0.6650;-5.4845;
1036.8000;0.6626;-5.4845;
1037.1000;0.6634;-5.4739;
1037.4000;0.6659;-5.4713;
1037.7000;0.6659;-5.4739;
1038.0000;0.6667;-5.4845;
1038.3000;0.6659;-5.4898;
1038.6000;0.6650;-5.4924;
1038.9000;0.6667;-5.4898;
1039.2000;0.6650;-5.4871;
1039.5000;0.6642;-5.4818;
1039.8000;0.6650;-5.4766;
1040.1000;0.6618;-5.4845;
1040.4000;0.6642;-5.4792;
1040.7000;0.6626;-5.4792;
1041.0000;0.6707;-5.4607;
1041.3000;0.6634;-5.4818;
1041.6000;0.6675;-5.4713;
1041.9000;0.6675;-5.4739;
1042.2000;0.6650;-5.4766;
1042.5000;0.6659;-5.4766;
1042.8000;0.6667;-5.4739;
1043.1000;0.6642;-5.4845;
1043.4000;0.6642;-5.4845;
1043.7000;0.6650;-5.4898;
1044.0000;0.6626;-5.4977;
1044.3000;0.6642;-5.4951;
1044.6000;0.6642;-5.4898;
1044.9000;0.6626;-5.4898;
1045.2000;0.6642;-5.4898;
1045.5000;0.6626;-5.4898;
1045.8000;0.6618;-5.4951;
1046.1000;0.6634;-5.4924;
1046.4000;0.6626;-5.4871;
1046.7000;0.6626;-5.4818;
1047.0000;0.6642;-5.4739;
1047.3000;0.6650;-5.4686;
1047.6000;0.6659;-5.4607;
1047.9000;0.6667;-5.4528;
1048.2000;0.6626;-5.4686;
1048.5000;0.6642;-5.4634;
1048.8000;0.6659;-5.4607;
1049.1000;0.6659;-5.4554;
1049.4000;0.6642;-5.4634;
1049.7000;0.6650;-5.4686;
1050.0000;0.6634;-5.4686;
1050.3000;0.6650;-5.4713;
1050.6000;0.6618;-5.4792;
1050.9000;0.6642;-5.4634;
1051.2000;0.6634;-5.4739;
1051.5000;0.6642;-5.4766;
1051.8000;0.6650;-5.4713;
1052.1000;0.6634;-5.4634;
1052.4000;0.6634;-5.4686;
1052.7000;0.6650;-5.4607;
1053.0000;0.6650;-5.4686;
1053.3000;0.6724;-5.4422;
1053.6000;0.6634;-5.4554;
1053.9000;0.6642;-5.4554;
1054.2000;0.6667;-5.4581;
1054.5000;0.6659;-5.4607;
1054.8000;0.6634;-5.4713;
1055.1000;0.6634;-5.4713;
1055.4000;0.6659;-5.4686;
1055.7000;0.6675;-5.4739;
1056.0000;0.6642;-5.4871;
1056.3000;0.6602;-5.5030;
1056.6000;0.6659;-5.4845;
1056.9000;0.6634;-5.4766;
1057.2000;0.6618;-5.4818;
1057.5000;0.6618;-5.4871;
1057.8000;0.6626;-5.4924;
1058.1000;0.6642;-5.4898;
1058.4000;0.6634;-5.4818;
1058.7000;0.6659;-5.4713;
1059.0000;0.6602;-5.4792;
1059.3000;0.6626;-5.4766;
1059.6000;0.6642;-5.4686;
1059.9000;0.6642;-5.4634;
1060.2000;0.6618;-5.4660;
1060.5000;0.6650;-5.4607;
1060.8000;0.6626;-5.4581;
1061.1000;0.6650;-5.4502;
1061.4000;0.6642;-5.4475;
1061.7000;0.6642;-5.4581;
1062.0000;0.6634;-5.4660;
1062.3000;0.6642;-5.4766;
1062.6000;0.6626;-5.4818;
1062.9000;0.6642;-5.4766;
1063.2000;0.6642;-5.4686;
1063.5000;0.6626;-5.4686;
1063.8000;0.6618;-5.4686;
1064.1000;0.6561;-5.4792;
1064.4000;0.6585;-5.4818;
1064.7000;0.6626;-5.4660;
1065.0000;0.6634;-5.4713;
1065.3000;0.6634;-5.4660;
1065.6000;0.6650;-5.4634;
1065.9000;0.6602;-5.4766;
1066.2000;0.6634;-5.4686;
1066.5000;0.6626;-5.4713;
1066.8000;0.6642;-5.4792;
1067.1000;0.6634;-5.4845;
1067.4000;0.6626;-5.4871;
1067.7000;0.6650;-5.4766;
1068.0000;0.6650;-5.4634;
1068.3000;0.6642;-5.4528;
1068.6000;0.6650;-5.4554;
1068.9000;0.6626;-5.4581;
1069.2000;0.6626;-5.4634;
1069.5000;0.6634;-5.4502;
1069.8000;0.6618;-5.4528;
1070.1000;0.6626;-5.4581;
1070.4000;0.6634;-5.4581;
1070.7000;0.6642;-5.4660;
1071.0000;0.6634;-5.4607;
1071.3000;0.6626;-5.4581;
1071.6000;0.6618;-5.4607;
1071.9000;0.6626;-5.4607;
1072.2000;0.6610;-5.4581;
1072.5000;0.6610;-5.4607;
1072.8000;0.6626;-5.4607;
1073.1000;0.6618;-5.4660;
1073.4000;0.6626;-5.4739;
1073.7000;0.6642;-5.4818;
1074.0000;0.6610;-5.4818;
1074.3000;0.6642;-5.4713;
1074.6000;0.6602;-5.4845;
1074.9000;0.6650;-5.4713;
1075.2000;0.6642;-5.4686;
1075.5000;0.6642;-5.4660;
1075.8000;0.6642;-5.4792;
1076.1000;0.6659;-5.4766;
1076.4000;0.6642;-5.4818;
1076.7000;0.6618;-5.4898;
1077.0000;0.6626;-5.4766;
1077.3000;0.6691;-5.4634;
1077.6000;0.6642;-5.4739;
1077.9000;0.6626;-5.4766;
1078.2000;0.6659;-5.4660;
1078.5000;0.6626;-5.4739;
1078.8000;0.6642;-5.4792;
1079.1000;0.6626;-5.4898;
1079.4000;0.6634;-5.4871;
1079.7000;0.6642;-5.4792;
1080.0000;0.6650;-5.4739;
1080.3000;0.6626;-5.4845;
1080.6000;0.6634;-5.4818;
1080.9000;0.6626;-5.4766;
1081.2000;0.6650;-5.4766;
1081.5000;0.6618;-5.4871;
1081.8000;0.6618;-5.4871;
1082.1000;0.6618;-5.4818;
1082.4000;0.6618;-5.4766;
1082.7000;0.6626;-5.4845;
1083.0000;0.6626;-5.4766;
1083.3000;0.6626;-5.4818;
1083.6000;0.6642;-5.4739;
1083.9000;0.6634;-5.4792;
1084.2000;0.6634;-5.4766;
1084.5000;0.6618;-5.4818;
1084.8000;0.6634;-5.4766;
1085.1000;0.6634;-5.4660;
1085.4000;0.6634;-5.4581;
1085.7000;0.6618;-5.4739;
1086.0000;0.6626;-5.4686;
1086.3000;0.6642;-5.4634;
1086.6000;0.6634;-5.4634;
1086.9000;0.6593;-5.4766;
1087.2000;0.6626;-5.4792;
1087.5000;0.6618;-5.4766;
1087.8000;0.6618;-5.4818;
1088.1000;0.6618;-5.4818;
1088.4000;0.6634;-5.4845;
1088.7000;0.6626;-5.4845;
1089.0000;0.6634;-5.4818;
1089.3000;0.6618;-5.4739;
1089.6000;0.6626;-5.4713;
1089.9000;0.6634;-5.4739;
1090.2000;0.6642;-5.4792;
1090.5000;0.6634;-5.4766;
1090.8000;0.6618;-5.4686;
1091.1000;0.6642;-5.4634;
1091.4000;0.6642;-5.4607;
1091.7000;0.6626;-5.4607;
1092.0000;0.6659;-5.4607;
1092.3000;0.6626;-5.4766;
1092.6000;0.6642;-5.4818;
1092.9000;0.6593;-5.5003;
1093.2000;0.6634;-5.4818;
1093.5000;0.6602;-5.4977;
1093.8000;0.6602;-5.5003;
1094.1000;0.6626;-5.4924;
1094.4000;0.6610;-5.4898;
1094.7000;0.6634;-5.4871;
1095.0000;0.6691;-5.4713;
1095.3000;0.6626;-5.4898;
1095.6000;0.6610;-5.4951;
1095.9000;0.6716;-5.4634;
1096.2000;0.6618;-5.4845;
1096.5000;0.6602;-5.4871;
1096.8000;0.6618;-5.4898;
1097.1000;0.6626;-5.4924;
1097.4000;0.6553;-5.5135;
1097.7000;0.6618;-5.4924;
1098.0000;0.6585;-5.4898;
1098.3000;0.6553;-5.4951;
1098.6000;0.6618;-5.4792;
1098.9000;0.6610;-5.4845;
1099.2000;0.6618;-5.4766;
1099.5000;0.6634;-5.4739;
1099.8000;0.6626;-5.4792;
1100.1000;0.6642;-5.4739;
1100.4000;0.6642;-5.4871;
1100.7000;0.6634;-5.4818;
1101.0000;0.6634;-5.4739;
1101.3000;0.6634;-5.4792;
1101.6000;0.6634;-5.4739;
1101.9000;0.6634;-5.4713;
1102.2000;0.6626;-5.4686;
1102.5000;0.6659;-5.4713;
1102.8000;0.6626;-5.4818;
1103.1000;0.6642;-5.4766;
1103.4000;0.6618;-5.4766;
1103.7000;0.6610;-5.4766;
1104.0000;0.6626;-5.4660;
1104.3000;0.6626;-5.4713;
1104.6000;0.6610;-5.4792;
1104.9000;0.6610;-5.4713;
1105.2000;0.6634;-5.4686;
1105.5000;0.6634;-5.4581;
1105.8000;0.6610;-5.4634;
1106.1000;0.6618;-5.4660;
1106.4000;0.6610;-5.4660;
1106.7000;0.6642;-5.4581;
1107.0000;0.6634;-5.4686;
1107.3000;0.6642;-5.4660;
1107.6000;0.6642;-5.4660;
1107.9000;0.6618;-5.4660;
1108.2000;0.6618;-5.4686;
1108.5000;0.6618;-5.4607;
1108.8000;0.6675;-5.4502;
1109.1000;0.6618;-5.4660;
1109.4000;0.6626;-5.4686;
1109.7000;0.6618;-5.4845;
1110.0000;0.6650;-5.4713;
1110.3000;0.6626;-5.4792;
1110.6000;0.6610;-5.4871;
1110.9000;0.6626;-5.4792;
1111.2000;0.6626;-5.4818;
1111.5000;0.6618;-5.4871;
1111.8000;0.6634;-5.4818;
1112.1000;0.6618;-5.4845;
1112.4000;0.6626;-5.4924;
1112.7000;0.6626;-5.4924;
1113.0000;0.6610;-5.4818;
1113.3000;0.6626;-5.4818;
1113.6000;0.6610;-5.4818;
1113.9000;0.6569;-5.4898;
1114.2000;0.6618;-5.4686;
1114.5000;0.6642;-5.4660;
1114.8000;0.6618;-5.4660;
1115.1000;0.6602;-5.4660;
1115.4000;0.6626;-5.4686;
1115.7000;0.6626;-5.4660;
1116.0000;0.6618;-5.4634;
1116.3000;0.6610;-5.4554;
1116.6000;0.6626;-5.4554;
1116.9000;0.6650;-5.4581;
1117.2000;0.6553;-5.4924;
1117.5000;0.6634;-5.4818;
1117.8000;0.6610;-5.4845;
1118.1000;0.6618;-5.4792;
1118.4000;0.6659;-5.4686;
1118.7000;0.6610;-5.4818;
1119.0000;0.6593;-5.4898;
1119.3000;0.6650;-5.4818;
1119.6000;0.6642;-5.4845;
1119.9000;0.6667;-5.4766;
1120.2000;0.6642;-5.4924;
1120.5000;0.6642;-5.4924;
1120.8000;0.6626;-5.4871;
1121.1000;0.6642;-5.4686;
1121.4000;0.6610;-5.4713;
1121.7000;0.6634;-5.4686;
1122.0000;0.6634;-5.4660;
1122.3000;0.6634;-5.4686;
1122.6000;0.6683;-5.4475;
1122.9000;0.6618;-5.4554;
1123.2000;0.6634;-5.4554;
1123.5000;0.6626;-5.4634;
1123.8000;0.6626;-5.4634;
1124.1000;0.6569;-5.4766;
1124.4000;0.6610;-5.4686;
1124.7000;0.6626;-5.4686;
1125.0000;0.6610;-5.4660;
1125.3000;0.6602;-5.4634;
1125.6000;0.6593;-5.4607;
1125.9000;0.6602;-5.4554;
1126.2000;0.6650;-5.4449;
1126.5000;0.6610;-5.4607;
1126.8000;0.6626;-5.4660;
1127.1000;0.6667;-5.4502;
1127.4000;0.6618;-5.4634;
1127.7000;0.6634;-5.4581;
1128.0000;0.6634;-5.4660;
1128.3000;0.6626;-5.4686;
1128.6000;0.6610;-5.4766;
1128.9000;0.6610;-5.4686;
1129.2000;0.6577;-5.4871;
1129.5000;0.6691;-5.4634;
1129.8000;0.6626;-5.4739;
1130.1000;0.6642;-5.4739;
1130.4000;0.6602;-5.4871;
1130.7000;0.6626;-5.4766;
1131.0000;0.6634;-5.4739;
1131.3000;0.6642;-5.4686;
1131.6000;0.6626;-5.4686;
1131.9000;0.6699;-5.4449;
1132.2000;0.6626;-5.4739;
1132.5000;0.6626;-5.4713;
1132.8000;0.6618;-5.4739;
1133.1000;0.6659;-5.4581;
1133.4000;0.6626;-5.4686;
1133.7000;0.6634;-5.4713;
1134.0000;0.6618;-5.4739;
1134.3000;0.6634;-5.4739;
1134.6000;0.6618;-5.4686;
1134.9000;0.6675;-5.4554;
1135.2000;0.6618;-5.4713;
1135.5000;0.6602;-5.4739;
1135.8000;0.6626;-5.4739;
1136.1000;0.6650;-5.4660;
1136.4000;0.6618;-5.4739;
1136.7000;0.6642;-5.4660;
1137.0000;0.6610;-5.4739;
1137.3000;0.6618;-5.4766;
1137.6000;0.6610;-5.4818;
1137.9000;0.6675;-5.4713;
1138.2000;0.6618;-5.4739;
1138.5000;0.6593;-5.4713;
1138.8000;0.6610;-5.4686;
1139.1000;0.6634;-5.4502;
1139.4000;0.6634;-5.4475;
1139.7000;0.6618;-5.4581;
1140.0000;0.6602;-5.4581;
1140.3000;0.6618;-5.4581;
1140.6000;0.6602;-5.4660;
1140.9000;0.6610;-5.4634;
1141.2000;0.6618;-5.4634;
1141.5000;0.6626;-5.4686;
1141.8000;0.6602;-5.4766;
1142.1000;0.6610;-5.4713;
1142.4000;0.6650;-5.4581;
1142.7000;0.6618;-5.4660;
1143.0000;0.6618;-5.4581;
1143.3000;0.6585;-5.4634;
1143.6000;0.6610;-5.4607;
1143.9000;0.6610;-5.4660;
1144.2000;0.6545;-5.4845;
1144.5000;0.6610;-5.4686;
1144.8000;0.6610;-5.4554;
1145.1000;0.6634;-5.4554;
1145.4000;0.6602;-5.4686;
1145.7000;0.6618;-5.4660;
1146.0000;0.6602;-5.4634;
1146.3000;0.6626;-5.4581;
1146.6000;0.6626;-5.4581;
1146.9000;0.6610;-5.4581;
1147.2000;0.6618;-5.4581;
1147.5000;0.6610;-5.4660;
1147.8000;0.6626;-5.4528;
1148.1000;0.6618;-5.4449;
1148.4000;0.6610;-5.4370;
1148.7000;0.6569;-5.4581;
1149.0000;0.6602;-5.4449;
1149.3000;0.6618;-5.4502;
1149.6000;0.6618;-5.4449;
1149.9000;0.6610;-5.4528;
1150.2000;0.6585;-5.4528;
1150.5000;0.6602;-5.4554;
1150.8000;0.6634;-5.4554;
1151.1000;0.6634;-5.4528;
1151.4000;0.6618;-5.4581;
1151.7000;0.6610;-5.4528;
1152.0000;0.6650;-5.4422;
1152.3000;0.6626;-5.4317;
1152.6000;0.6618;-5.4290;
1152.9000;0.6626;-5.4317;
1153.2000;0.6593;-5.4396;
1153.5000;0.6585;-5.4449;
1153.8000;0.6610;-5.4396;
1154.1000;0.6626;-5.4502;
1154.4000;0.6593;-5.4581;
1154.7000;0.6610;-5.4528;
1155.0000;0.6577;-5.4607;
1155.3000;0.6650;-5.4607;
1155.6000;0.6618;-5.4739;
1155.9000;0.6642;-5.4792;
1156.2000;0.6610;-5.4871;
1156.5000;0.6602;-5.4924;
1156.8000;0.6626;-5.4766;
1157.1000;0.6626;-5.4713;
1157.4000;0.6577;-5.4871;
1157.7000;0.6602;-5.4871;
1158.0000;0.6610;-5.4898;
1158.3000;0.6634;-5.4977;
1158.6000;0.6634;-5.4898;
1158.9000;0.6659;-5.4818;
1159.2000;0.6634;-5.4845;
1159.5000;0.6618;-5.4845;
1159.8000;0.6610;-5.4792;
1160.1000;0.6585;-5.4845;
1160.4000;0.6618;-5.4766;
1160.7000;0.6602;-5.4792;
1161.0000;0.6602;-5.4871;
1161.3000;0.6602;-5.4845;
1161.6000;0.6610;-5.4924;
1161.9000;0.6618;-5.4898;
1162.2000;0.6618;-5.4845;
1162.5000;0.6593;-5.4951;
1162.8000;0.6634;-5.4871;
1163.1000;0.6610;-5.4898;
1163.4000;0.6618;-5.4871;
1163.7000;0.6626;-5.4845;
1164.0000;0.6593;-5.4898;
1164.3000;0.6602;-5.4951;
1164.6000;0.6545;-5.5003;
1164.9000;0.6610;-5.4792;
1165.2000;0.6602;-5.4898;
1165.5000;0.6593;-5.4898;
1165.8000;0.6618;-5.4818;
1166.1000;0.6585;-5.4845;
1166.4000;0.6585;-5.4845;
1166.7000;0.6602;-5.4766;
1167.0000;0.6610;-5.4766;
1167.3000;0.6593;-5.4713;
1167.6000;0.6626;-5.4660;
1167.9000;0.6610;-5.4634;
1168.2000;0.6618;-5.4581;
1168.5000;0.6618;-5.4502;
1168.8000;0.6602;-5.4554;
1169.1000;0.6610;-5.4581;
1169.4000;0.6618;-5.4581;
1169.7000;0.6618;-5.4581;
1170.0000;0.6602;-5.4713;
1170.3000;0.6569;-5.4792;
1170.6000;0.6585;-5.4739;
1170.9000;0.6626;-5.4634;
1171.2000;0.6618;-5.4766;
1171.5000;0.6610;-5.4739;
1171.8000;0.6602;-5.4766;
1172.1000;0.6650;-5.4660;
1172.4000;0.6602;-5.4766;
1172.7000;0.6602;-5.4766;
1173.0000;0.6618;-5.4686;
1173.3000;0.6634;-5.4607;
1173.6000;0.6618;-5.4554;
1173.9000;0.6593;-5.4449;
1174.2000;0.6618;-5.4422;
1174.5000;0.6610;-5.4502;
1174.8000;0.6602;-5.4502;
1175.1000;0.6602;-5.4502;
1175.4000;0.6593;-5.4554;
1175.7000;0.6626;-5.4502;
1176.0000;0.6610;-5.4581;
1176.3000;0.6602;-5.4634;
1176.6000;0.6585;-5.4713;
1176.9000;0.6610;-5.4634;
1177.2000;0.6610;-5.4607;
1177.5000;0.6610;-5.4607;
1177.8000;0.6593;-5.4686;
1178.1000;0.6602;-5.4686;
1178.4000;0.6602;-5.4766;
1178.7000;0.6593;-5.4739;
1179.0000;0.6610;-5.4739;
1179.3000;0.6618;-5.4739;
1179.6000;0.6618;-5.4766;
1179.9000;0.6602;-5.4818;
1180.2000;0.6610;-5.4792;
1180.5000;0.6593;-5.4818;
1180.8000;0.6593;-5.4766;
1181.1000;0.6610;-5.4660;
1181.4000;0.6593;-5.4660;
1181.7000;0.6602;-5.4660;
1182.0000;0.6610;-5.4660;
1182.3000;0.6610;-5.4528;
1182.6000;0.6610;-5.4502;
1182.9000;0.6602;-5.4660;
1183.2000;0.6602;-5.4792;
1183.5000;0.6650;-5.4713;
1183.8000;0.6602;-5.4766;
1184.1000;0.6618;-5.4739;
1184.4000;0.6618;-5.4686;
1184.7000;0.6667;-5.4528;
1185.0000;0.6626;-5.4634;
1185.3000;0.6585;-5.4686;
1185.6000;0.6602;-5.4713;
1185.9000;0.6593;-5.4739;
1186.2000;0.6585;-5.4660;
1186.5000;0.6593;-5.4581;
1186.8000;0.6610;-5.4528;
1187.1000;0.6602;-5.4475;
1187.4000;0.6610;-5.4528;
1187.7000;0.6569;-5.4607;
1188.0000;0.6593;-5.4528;
1188.3000;0.6610;-5.4528;
1188.6000;0.6626;-5.4475;
1188.9000;0.6626;-5.4475;
1189.2000;0.6602;-5.4502;
1189.5000;0.6618;-5.4475;
1189.8000;0.6610;-5.4607;
1190.1000;0.6642;-5.4554;
1190.4000;0.6610;-5.4634;
1190.7000;0.6610;-5.4766;
1191.0000;0.6610;-5.4792;
1191.3000;0.6602;-5.4792;
1191.6000;0.6618;-5.4686;
1191.9000;0.6602;-5.4713;
1192.2000;0.6610;-5.4686;
1192.5000;0.6577;-5.4766;
1192.8000;0.6610;-5.4686;
1193.1000;0.6610;-5.4660;
1193.4000;0.6610;-5.4686;
1193.7000;0.6626;-5.4686;
1194.0000;0.6618;-5.4660;
1194.3000;0.6602;-5.4713;
1194.6000;0.6610;-5.4686;
1194.9000;0.6602;-5.4686;
1195.2000;0.6602;-5.4739;
1195.5000;0.6610;-5.4792;
1195.8000;0.6553;-5.4924;
1196.1000;0.6618;-5.4739;
1196.4000;0.6626;-5.4766;
1196.7000;0.6610;-5.4818;
1197.0000;0.6593;-5.4871;
1197.3000;0.6626;-5.4818;
1197.6000;0.6585;-5.4871;
1197.9000;0.6593;-5.4818;
1198.2000;0.6593;-5.4792;
1198.5000;0.6593;-5.4792;
1198.8000;0.6593;-5.4871;
1199.1000;0.6610;-5.4898;
1199.4000;0.6610;-5.4951;
1199.7000;0.6593;-5.4924;
1200.0000;0.6610;-5.4818;
1200.3000;0.6634;-5.4792;
1200.6000;0.6634;-5.4766;
1200.9000;0.6585;-5.4686;
1201.2000;0.6602;-5.4634;
1201.5000;0.6585;-5.4660;
1201.8000;0.6593;-5.4607;
1202.1000;0.6602;-5.4475;
1202.4000;0.6577;-5.4502;
1202.7000;0.6569;-5.4449;
1203.0000;0.6593;-5.4528;
1203.3000;0.6593;-5.4607;
1203.6000;0.6553;-5.4818;
1203.9000;0.6593;-5.4845;
1204.2000;0.6593;-5.4792;
1204.5000;0.6593;-5.4766;
1204.8000;0.6602;-5.4713;
1205.1000;0.6618;-5.4554;
1205.4000;0.6618;-5.4634;
1205.7000;0.6569;-5.4607;
1206.0000;0.6569;-5.4581;
1206.3000;0.6602;-5.4502;
1206.6000;0.6593;-5.4528;
1206.9000;0.6585;-5.4502;
1207.2000;0.6561;-5.4528;
1207.5000;0.6593;-5.4422;
1207.8000;0.6593;-5.4290;
1208.1000;0.6610;-5.4343;
1208.4000;0.6602;-5.4422;
1208.7000;0.6585;-5.4422;
1209.0000;0.6667;-5.4290;
1209.3000;0.6593;-5.4528;
1209.6000;0.6593;-5.4528;
1209.9000;0.6585;-5.4581;
1210.2000;0.6585;-5.4713;
1210.5000;0.6602;-5.4713;
1210.8000;0.6610;-5.4607;
1211.1000;0.6569;-5.4713;
1211.4000;0.6618;-5.4581;
1211.7000;0.6610;-5.4581;
1212.0000;0.6593;-5.4528;
1212.3000;0.6569;-5.4554;
1212.6000;0.6577;-5.4554;
1212.9000;0.6593;-5.4528;
1213.2000;0.6593;-5.4475;
1213.5000;0.6602;-5.4449;
1213.8000;0.6593;-5.4502;
1214.1000;0.6593;-5.4475;
1214.4000;0.6585;-5.4502;
1214.7000;0.6593;-5.4581;
1215.0000;0.6618;-5.4502;
1215.3000;0.6577;-5.4449;
1215.6000;0.6634;-5.4238;
1215.9000;0.6602;-5.4264;
1216.2000;0.6593;-5.4317;
1216.5000;0.6593;-5.4264;
1216.8000;0.6602;-5.4211;
1217.1000;0.6610;-5.4238;
1217.4000;0.6593;-5.4211;
1217.7000;0.6585;-5.4264;
1218.0000;0.6593;-5.4290;
1218.3000;0.6553;-5.4343;
1218.6000;0.6610;-5.4106;
1218.9000;0.6577;-5.4238;
1219.2000;0.6602;-5.4238;
1219.5000;0.6602;-5.4290;
1219.8000;0.6659;-5.4211;
1220.1000;0.6593;-5.4422;
1220.4000;0.6585;-5.4396;
1220.7000;0.6602;-5.4370;
1221.0000;0.6585;-5.4343;
1221.3000;0.6593;-5.4343;
1221.6000;0.6602;-5.4317;
1221.9000;0.6610;-5.4290;
1222.2000;0.6569;-5.4449;
1222.5000;0.6593;-5.4370;
1222.8000;0.6602;-5.4396;
1223.1000;0.6610;-5.4343;
1223.4000;0.6610;-5.4449;
1223.7000;0.6593;-5.4554;
1224.0000;0.6602;-5.4554;
1224.3000;0.6602;-5.4528;
1224.6000;0.6691;-5.4238;
1224.9000;0.6585;-5.4528;
1225.2000;0.6610;-5.4422;
1225.5000;0.6618;-5.4449;
1225.8000;0.6618;-5.4317;
1226.1000;0.6602;-5.4396;
1226.4000;0.6602;-5.4370;
1226.7000;0.6577;-5.4370;
1227.0000;0.6626;-5.4211;
1227.3000;0.6585;-5.4290;
1227.6000;0.6577;-5.4343;
1227.9000;0.6602;-5.4264;
1228.2000;0.6593;-5.4317;
1228.5000;0.6593;-5.4396;
1228.8000;0.6593;-5.4449;
1229.1000;0.6626;-5.4396;
1229.4000;0.6610;-5.4422;
1229.7000;0.6520;-5.4581;
1230.0000;0.6536;-5.4475;
1230.3000;0.6577;-5.4422;
1230.6000;0.6602;-5.4343;
1230.9000;0.6585;-5.4343;
1231.2000;0.6577;-5.4370;
1231.5000;0.6593;-5.4422;
1231.8000;0.6577;-5.4502;
1232.1000;0.6577;-5.4475;
1232.4000;0.6593;-5.4422;
1232.7000;0.6593;-5.4475;
1233.0000;0.6577;-5.4502;
1233.3000;0.6610;-5.4422;
1233.6000;0.6593;-5.4422;
1233.9000;0.6585;-5.4502;
1234.2000;0.6602;-5.4396;
1234.5000;0.6642;-5.4264;
1234.8000;0.6626;-5.4370;
1235.1000;0.6593;-5.4449;
1235.4000;0.6577;-5.4475;
1235.7000;0.6602;-5.4317;
1236.0000;0.6593;-5.4449;
1236.3000;0.6642;-5.4343;
1236.6000;0.6593;-5.4449;
1236.9000;0.6569;-5.4502;
1237.2000;0.6626;-5.4449;
1237.5000;0.6569;-5.4581;
1237.8000;0.6602;-5.4581;
1238.1000;0.6602;-5.4475;
1238.4000;0.6602;-5.4475;
1238.7000;0.6585;-5.4449;
1239.0000;0.6610;-5.4370;
1239.3000;0.6602;-5.4449;
1239.6000;0.6585;-5.4475;
1239.9000;0.6593;-5.4343;
1240.2000;0.6610;-5.4396;
1240.5000;0.6618;-5.4290;
1240.8000;0.6585;-5.4343;
1241.1000;0.6577;-5.4343;
1241.4000;0.6593;-5.4290;
1241.7000;0.6602;-5.4290;
1242.0000;0.6569;-5.4264;
1242.3000;0.6585;-5.4264;
1242.6000;0.6593;-5.4317;
1242.9000;0.6593;-5.4290;
1243.2000;0.6585;-5.4370;
1243.5000;0.6585;-5.4396;
1243.8000;0.6536;-5.4554;
1244.1000;0.6585;-5.4422;
1244.4000;0.6585;-5.4475;
1244.7000;0.6561;-5.4528;
1245.0000;0.6593;-5.4449;
1245.3000;0.6602;-5.4396;
1245.6000;0.6593;-5.4370;
1245.9000;0.6602;-5.4238;
1246.2000;0.6602;-5.4185;
1246.5000;0.6593;-5.4185;
1246.8000;0.6602;-5.4132;
1247.1000;0.6602;-5.4185;
1247.4000;0.6593;-5.4396;
1247.7000;0.6618;-5.4502;
1248.0000;0.6593;-5.4581;
1248.3000;0.6593;-5.4554;
1248.6000;0.6610;-5.4449;
1248.9000;0.6577;-5.4528;
1249.2000;0.6585;-5.4343;
1249.5000;0.6585;-5.4238;
1249.8000;0.6593;-5.4264;
1250.1000;0.6602;-5.4290;
1250.4000;0.6602;-5.4317;
1250.7000;0.6593;-5.4370;
1251.0000;0.6610;-5.4317;
1251.3000;0.6602;-5.4370;
1251.6000;0.6585;-5.4370;
1251.9000;0.6585;-5.4370;
1252.2000;0.6593;-5.4396;
1252.5000;0.6610;-5.4370;
1252.8000;0.6618;-5.4396;
1253.1000;0.6610;-5.4396;
1253.4000;0.6585;-5.4370;
1253.7000;0.6585;-5.4422;
1254.0000;0.6602;-5.4343;
1254.3000;0.6585;-5.4317;
1254.6000;0.6585;-5.4422;
1254.9000;0.6585;-5.4449;
1255.2000;0.6561;-5.4449;
1255.5000;0.6593;-5.4422;
1255.8000;0.6577;-5.4422;
1256.1000;0.6593;-5.4290;
1256.4000;0.6569;-5.4396;
1256.7000;0.6585;-5.4449;
1257.0000;0.6553;-5.4607;
1257.3000;0.6561;-5.4475;
1257.6000;0.6593;-5.4528;
1257.9000;0.6602;-5.4475;
1258.2000;0.6577;-5.4554;
1258.5000;0.6585;-5.4502;
1258.8000;0.6593;-5.4422;
1259.1000;0.6610;-5.4370;
1259.4000;0.6577;-5.4449;
1259.7000;0.6593;-5.4422;
1260.0000;0.6577;-5.4475;
1260.3000;0.6602;-5.4422;
1260.6000;0.6602;-5.4422;
1260.9000;0.6585;-5.4449;
1261.2000;0.6593;-5.4396;
1261.5000;0.6585;-5.4343;
1261.8000;0.6577;-5.4449;
1262.1000;0.6577;-5.4502;
1262.4000;0.6585;-5.4422;
1262.7000;0.6593;-5.4317;
1263.0000;0.6593;-5.4290;
1263.3000;0.6602;-5.4238;
1263.6000;0.6512;-5.4449;
1263.9000;0.6593;-5.4264;
1264.2000;0.6602;-5.4132;
1264.5000;0.6585;-5.4211;
1264.8000;0.6593;-5.4238;
1265.1000;0.6593;-5.4158;
1265.4000;0.6602;-5.4238;
1265.7000;0.6593;-5.4290;
1266.0000;0.6593;-5.4290;
1266.3000;0.6593;-5.4264;
1266.6000;0.6593;-5.4238;
1266.9000;0.6585;-5.4343;
1267.2000;0.6593;-5.4343;
1267.5000;0.6593;-5.4396;
1267.8000;0.6602;-5.4396;
1268.1000;0.6593;-5.4317;
1268.4000;0.6585;-5.4290;
1268.7000;0.6593;-5.4343;
1269.0000;0.6585;-5.4264;
1269.3000;0.6593;-5.4238;
1269.6000;0.6585;-5.4264;
1269.9000;0.6585;-5.4317;
1270.2000;0.6569;-5.4422;
1270.5000;0.6593;-5.4449;
1270.8000;0.6602;-5.4396;
1271.1000;0.6593;-5.4449;
1271.4000;0.6577;-5.4422;
1271.7000;0.6602;-5.4370;
1272.0000;0.6602;-5.4317;
1272.3000;0.6610;-5.4317;
1272.6000;0.6593;-5.4422;
1272.9000;0.6602;-5.4343;
1273.2000;0.6602;-5.4343;
1273.5000;0.6602;-5.4396;
1273.8000;0.6585;-5.4396;
1274.1000;0.6561;-5.4502;
1274.4000;0.6585;-5.4528;
1274.7000;0.6593;-5.4554;
1275.0000;0.6585;-5.4634;
1275.3000;0.6593;-5.4607;
1275.6000;0.6602;-5.4634;
1275.9000;0.6577;-5.4581;
1276.2000;0.6585;-5.4528;
1276.5000;0.6577;-5.4475;
1276.8000;0.6593;-5.4396;
1277.1000;0.6618;-5.4343;
1277.4000;0.6602;-5.4264;
1277.7000;0.6593;-5.4264;
1278.0000;0.6618;-5.4317;
1278.3000;0.6610;-5.4370;
1278.6000;0.6650;-5.4211;
1278.9000;0.6585;-5.4396;
1279.2000;0.6593;-5.4343;
1279.5000;0.6585;-5.4290;
1279.8000;0.6585;-5.4343;
1280.1000;0.6593;-5.4396;
1280.4000;0.6585;-5.4396;
1280.7000;0.6585;-5.4475;
1281.0000;0.6561;-5.4581;
1281.3000;0.6569;-5.4581;
1281.6000;0.6585;-5.4554;
1281.9000;0.6585;-5.4528;
1282.2000;0.6602;-5.4528;
1282.5000;0.6618;-5.4475;
1282.8000;0.6642;-5.4422;
1283.1000;0.6602;-5.4502;
1283.4000;0.6602;-5.4502;
1283.7000;0.6585;-5.4554;
1284.0000;0.6602;-5.4581;
1284.3000;0.6569;-5.4581;
1284.6000;0.6618;-5.4422;
1284.9000;0.6577;-5.4475;
1285.2000;0.6577;-5.4554;
1285.5000;0.6593;-5.4475;
1285.8000;0.6602;-5.4370;
1286.1000;0.6569;-5.4554;
1286.4000;0.6593;-5.4502;
1286.7000;0.6602;-5.4528;
1287.0000;0.6593;-5.4449;
1287.3000;0.6602;-5.4343;
1287.6000;0.6585;-5.4370;
1287.9000;0.6593;-5.4396;
1288.2000;0.6561;-5.4449;
1288.5000;0.6602;-5.4343;
1288.8000;0.6593;-5.4475;
1289.1000;0.6577;-5.4449;
1289.4000;0.6577;-5.4396;
1289.7000;0.6577;-5.4502;
1290.0000;0.6602;-5.4502;
1290.3000;0.6585;-5.4475;
1290.6000;0.6577;-5.4422;
1290.9000;0.6585;-5.4396;
1291.2000;0.6593;-5.4317;
1291.5000;0.6569;-5.4343;
1291.8000;0.6577;-5.4317;
1292.1000;0.6569;-5.4317;
1292.4000;0.6610;-5.4317;
1292.7000;0.6618;-5.4238;
1293.0000;0.6569;-5.4396;
1293.3000;0.6585;-5.4370;
1293.6000;0.6585;-5.4343;
1293.9000;0.6593;-5.4370;
1294.2000;0.6569;-5.4449;
1294.5000;0.6585;-5.4422;
1294.8000;0.6593;-5.4449;
1295.1000;0.6585;-5.4554;
1295.4000;0.6585;-5.4581;
1295.7000;0.6585;-5.4502;
1296.0000;0.6585;-5.4607;
1296.3000;0.6593;-5.4581;
1296.6000;0.6577;-5.4581;
1296.9000;0.6593;-5.4528;
1297.2000;0.6577;-5.4475;
1297.5000;0.6593;-5.4449;
1297.8000;0.6610;-5.4343;
1298.1000;0.6520;-5.4581;
1298.4000;0.6610;-5.4370;
1298.7000;0.6585;-5.4475;
1299.0000;0.6610;-5.4370;
1299.3000;0.6585;-5.4422;
1299.6000;0.6553;-5.4370;
1299.9000;0.6585;-5.4290;
1300.2000;0.6585;-5.4370;
1300.5000;0.6577;-5.4211;
1300.8000;0.6553;-5.4264;
1301.1000;0.6545;-5.4370;
1301.4000;0.6585;-5.4290;
1301.7000;0.6585;-5.4343;
1302.0000;0.6569;-5.4554;
1302.3000;0.6585;-5.4502;
1302.6000;0.6577;-5.4528;
1302.9000;0.6577;-5.4449;
1303.2000;0.6569;-5.4449;
1303.5000;0.6577;-5.4449;
1303.8000;0.6602;-5.4528;
1304.1000;0.6536;-5.4660;
1304.4000;0.6561;-5.4607;
1304.7000;0.6577;-5.4475;
1305.0000;0.6569;-5.4475;
1305.3000;0.6561;-5.4449;
1305.6000;0.6569;-5.4370;
1305.9000;0.6585;-5.4343;
1306.2000;0.6561;-5.4396;
1306.5000;0.6577;-5.4370;
1306.8000;0.6577;-5.4317;
1307.1000;0.6618;-5.4290;
1307.4000;0.6634;-5.4211;
1307.7000;0.6585;-5.4422;
1308.0000;0.6602;-5.4422;
1308.3000;0.6593;-5.4581;
1308.6000;0.6585;-5.4554;
1308.9000;0.6585;-5.4581;
1309.2000;0.6585;-5.4607;
1309.5000;0.6593;-5.4554;
1309.8000;0.6610;-5.4528;
1310.1000;0.6585;-5.4581;
1310.4000;0.6585;-5.4554;
1310.7000;0.6585;-5.4475;
1311.0000;0.6585;-5.4528;
1311.3000;0.6553;-5.4581;
1311.6000;0.6577;-5.4475;
1311.9000;0.6577;-5.4528;
1312.2000;0.6577;-5.4634;
1312.5000;0.6569;-5.4686;
1312.8000;0.6585;-5.4607;
1313.1000;0.6577;-5.4634;
1313.4000;0.6593;-5.4686;
1313.7000;0.6585;-5.4713;
1314.0000;0.6577;-5.4686;
1314.3000;0.6675;-5.4422;
1314.6000;0.6577;-5.4581;
1314.9000;0.6593;-5.4528;
1315.2000;0.6593;-5.4502;
1315.5000;0.6602;-5.4449;
1315.8000;0.6593;-5.4475;
1316.1000;0.6593;-5.4449;
1316.4000;0.6593;-5.4528;
1316.7000;0.6610;-5.4502;
1317.0000;0.6585;-5.4581;
1317.3000;0.6593;-5.4634;
1317.6000;0.6593;-5.4581;
1317.9000;0.6593;-5.4607;
1318.2000;0.6618;-5.4554;
1318.5000;0.6593;-5.4502;
1318.8000;0.6585;-5.4554;
1319.1000;0.6593;-5.4528;
1319.4000;0.6602;-5.4528;
1319.7000;0.6585;-5.4475;
1320.0000;0.6577;-5.4475;
1320.3000;0.6602;-5.4502;
1320.6000;0.6585;-5.4607;
1320.9000;0.6585;-5.4528;
1321.2000;0.6512;-5.4581;
1321.5000;0.6569;-5.4502;
1321.8000;0.6545;-5.4581;
1322.1000;0.6593;-5.4528;
1322.4000;0.6585;-5.4475;
1322.7000;0.6585;-5.4528;
1323.0000;0.6585;-5.4528;
1323.3000;0.6585;-5.4475;
1323.6000;0.6593;-5.4449;
1323.9000;0.6602;-5.4449;
1324.2000;0.6585;-5.4554;
1324.5000;0.6585;-5.4502;
1324.8000;0.6577;-5.4475;
1325.1000;0.6593;-5.4343;
1325.4000;0.6602;-5.4343;
1325.7000;0.6602;-5.4343;
1326.0000;0.6626;-5.4317;
1326.3000;0.6585;-5.4396;
1326.6000;0.6585;-5.4238;
1326.9000;0.6593;-5.4264;
1327.2000;0.6602;-5.4290;
1327.5000;0.6585;-5.4290;
1327.8000;0.6602;-5.4343;
1328.1000;0.6593;-5.4317;
1328.4000;0.6545;-5.4422;
1328.7000;0.6536;-5.4449;
1329.0000;0.6569;-5.4370;
1329.3000;0.6602;-5.4317;
1329.6000;0.6593;-5.4343;
1329.9000;0.6593;-5.4475;
1330.2000;0.6585;-5.4502;
1330.5000;0.6545;-5.4739;
1330.8000;0.6593;-5.4581;
1331.1000;0.6602;-5.4660;
1331.4000;0.6585;-5.4634;
1331.7000;0.6577;-5.4607;
1332.0000;0.6569;-5.4634;
1332.3000;0.6585;-5.4686;
1332.6000;0.6602;-5.4660;
1332.9000;0.6577;-5.4660;
1333.2000;0.6577;-5.4528;
1333.5000;0.6569;-5.4528;
1333.8000;0.6585;-5.4449;
1334.1000;0.6553;-5.4607;
1334.4000;0.6593;-5.4475;
1334.7000;0.6585;-5.4554;
1335.0000;0.6577;-5.4607;
1335.3000;0.6585;-5.4660;
1335.6000;0.6610;-5.4528;
1335.9000;0.6650;-5.4449;
1336.2000;0.6593;-5.4422;
1336.5000;0.6577;-5.4422;
1336.8000;0.6585;-5.4422;
1337.1000;0.6569;-5.4502;
1337.4000;0.6593;-5.4449;
1337.7000;0.6585;-5.4502;
1338.0000;0.6520;-5.4554;
1338.3000;0.6602;-5.4264;
1338.6000;0.6593;-5.4290;
1338.9000;0.6585;-5.4370;
1339.2000;0.6602;-5.4343;
1339.5000;0.6585;-5.4396;
1339.8000;0.6585;-5.4475;
1340.1000;0.6577;-5.4449;
1340.4000;0.6593;-5.4449;
1340.7000;0.6536;-5.4528;
1341.0000;0.6642;-5.4185;
1341.3000;0.6602;-5.4290;
1341.6000;0.6569;-5.4370;
1341.9000;0.6569;-5.4422;
1342.2000;0.6593;-5.4370;
1342.5000;0.6593;-5.4317;
1342.8000;0.6496;-5.4554;
1343.1000;0.6577;-5.4317;
1343.4000;0.6585;-5.4343;
1343.7000;0.6577;-5.4317;
1344.0000;0.6577;-5.4370;
1344.3000;0.6593;-5.4343;
1344.6000;0.6602;-5.4370;
1344.9000;0.6577;-5.4370;
1345.2000;0.6585;-5.4422;
1345.5000;0.6602;-5.4396;
1345.8000;0.6593;-5.4396;
1346.1000;0.6593;-5.4343;
1346.4000;0.6585;-5.4317;
1346.7000;0.6585;-5.4370;
1347.0000;0.6569;-5.4396;
1347.3000;0.6602;-5.4343;
1347.6000;0.6577;-5.4396;
1347.9000;0.6569;-5.4449;
1348.2000;0.6585;-5.4370;
1348.5000;0.6545;-5.4317;
1348.8000;0.6585;-5.4317;
1349.1000;0.6602;-5.4290;
1349.4000;0.6602;-5.4343;
1349.7000;0.6577;-5.4449;
1350.0000;0.6585;-5.4396;
1350.3000;0.6593;-5.4422;
1350.6000;0.6593;-5.4422;
1350.9000;0.6577;-5.4449;
1351.2000;0.6585;-5.4502;
1351.5000;0.6593;-5.4528;
1351.8000;0.6577;-5.4554;
1352.1000;0.6593;-5.4554;
1352.4000;0.6561;-5.4581;
1352.7000;0.6561;-5.4660;
1353.0000;0.6593;-5.4502;
1353.3000;0.6561;-5.4502;
1353.6000;0.6577;-5.4449;
1353.9000;0.6602;-5.4370;
1354.2000;0.6610;-5.4475;
1354.5000;0.6577;-5.4475;
1354.8000;0.6585;-5.4449;
1355.1000;0.6593;-5.4475;
1355.4000;0.6585;-5.4528;
1355.7000;0.6577;-5.4502;
1356.0000;0.6569;-5.4502;
1356.3000;0.6569;-5.4502;
1356.6000;0.6561;-5.4422;
1356.9000;0.6585;-5.4370;
1357.2000;0.6561;-5.4370;
1357.5000;0.6553;-5.4290;
1357.8000;0.6569;-5.4264;
1358.1000;0.6569;-5.4211;
1358.4000;0.6561;-5.4211;
1358.7000;0.6593;-5.4185;
1359.0000;0.6577;-5.4238;
1359.3000;0.6585;-5.4211;
1359.6000;0.6593;-5.4238;
1359.9000;0.6577;-5.4290;
1360.2000;0.6577;-5.4317;
1360.5000;0.6545;-5.4370;
1360.8000;0.6593;-5.4238;
1361.1000;0.6593;-5.4317;
1361.4000;0.6593;-5.4396;
1361.7000;0.6626;-5.4343;
1362.0000;0.6585;-5.4502;
1362.3000;0.6593;-5.4528;
1362.6000;0.6618;-5.4449;
1362.9000;0.6585;-5.4475;
1363.2000;0.6585;-5.4449;
1363.5000;0.6577;-5.4396;
1363.8000;0.6561;-5.4317;
1364.1000;0.6585;-5.4343;
1364.4000;0.6577;-5.4449;
1364.7000;0.6593;-5.4396;
1365.0000;0.6577;-5.4449;
1365.3000;0.6577;-5.4370;
1365.6000;0.6585;-5.4396;
1365.9000;0.6569;-5.4422;
1366.2000;0.6585;-5.4370;
1366.5000;0.6585;-5.4396;
1366.8000;0.6569;-5.4422;
1367.1000;0.6569;-5.4396;
1367.4000;0.6553;-5.4449;
1367.7000;0.6585;-5.4475;
1368.0000;0.6593;-5.4422;
1368.3000;0.6561;-5.4422;
1368.6000;0.6561;-5.4449;
1368.9000;0.6577;-5.4370;
1369.2000;0.6585;-5.4343;
1369.5000;0.6577;-5.4422;
1369.8000;0.6585;-5.4343;
1370.1000;0.6585;-5.4317;
1370.4000;0.6602;-5.4396;
1370.7000;0.6585;-5.4370;
1371.0000;0.6577;-5.4238;
1371.3000;0.6577;-5.4238;
1371.6000;0.6585;-5.4290;
1371.9000;0.6593;-5.4343;
1372.2000;0.6577;-5.4422;
1372.5000;0.6593;-5.4343;
1372.8000;0.6585;-5.4238;
1373.1000;0.6593;-5.4264;
1373.4000;0.6577;-5.4290;
1373.7000;0.6545;-5.4370;
1374.0000;0.6593;-5.4185;
1374.3000;0.6577;-5.4185;
1374.6000;0.6602;-5.4106;
1374.9000;0.6569;-5.4158;
1375.2000;0.6577;-5.4079;
1375.5000;0.6585;-5.4106;
1375.8000;0.6577;-5.4211;
1376.1000;0.6553;-5.4317;
1376.4000;0.6569;-5.4238;
1376.7000;0.6593;-5.4238;
1377.0000;0.6569;-5.4264;
1377.3000;0.6577;-5.4238;
1377.6000;0.6569;-5.4211;
1377.9000;0.6569;-5.4211;
1378.2000;0.6602;-5.4132;
1378.5000;0.6585;-5.4290;
1378.8000;0.6553;-5.4502;
1379.1000;0.6536;-5.4554;
1379.4000;0.6585;-5.4396;
1379.7000;0.6569;-5.4422;
1380.0000;0.6577;-5.4370;
1380.3000;0.6577;-5.4422;
1380.6000;0.6602;-5.4396;
1380.9000;0.6610;-5.4449;
1381.2000;0.6561;-5.4554;
1381.5000;0.6577;-5.4475;
1381.8000;0.6610;-5.4317;
1382.1000;0.6602;-5.4264;
1382.4000;0.6610;-5.4211;
1382.7000;0.6577;-5.4211;
1383.0000;0.6577;-5.4290;
1383.3000;0.6593;-5.4343;
1383.6000;0.6585;-5.4502;
1383.9000;0.6569;-5.4502;
1384.2000;0.6577;-5.4396;
1384.5000;0.6593;-5.4370;
1384.8000;0.6577;-5.4422;
1385.1000;0.6577;-5.4475;
1385.4000;0.6577;-5.4449;
1385.7000;0.6593;-5.4396;
1386.0000;0.6585;-5.4317;
1386.3000;0.6585;-5.4317;
1386.6000;0.6577;-5.4396;
1386.9000;0.6602;-5.4317;
1387.2000;0.6593;-5.4396;
1387.5000;0.6569;-5.4528;
1387.8000;0.6602;-5.4449;
1388.1000;0.6585;-5.4554;
1388.4000;0.6585;-5.4528;
1388.7000;0.6618;-5.4422;
1389.0000;0.6650;-5.4317;
1389.3000;0.6593;-5.4528;
1389.6000;0.6585;-5.4502;
1389.9000;0.6577;-5.4528;
1390.2000;0.6626;-5.4449;
1390.5000;0.6577;-5.4581;
1390.8000;0.6593;-5.4634;
1391.1000;0.6577;-5.4660;
1391.4000;0.6585;-5.4686;
1391.7000;0.6577;-5.4792;
1392.0000;0.6553;-5.4766;
1392.3000;0.6593;-5.4739;
1392.6000;0.6593;-5.4660;
1392.9000;0.6602;-5.4634;
1393.2000;0.6577;-5.4634;
1393.5000;0.6585;-5.4449;
1393.8000;0.6569;-5.4449;
1394.1000;0.6577;-5.4449;
1394.4000;0.6569;-5.4422;
1394.7000;0.6569;-5.4422;
1395.0000;0.6659;-5.4264;
1395.3000;0.6569;-5.4475;
1395.6000;0.6585;-5.4475;
1395.9000;0.6569;-5.4475;
1396.2000;0.6545;-5.4528;
1396.5000;0.6593;-5.4449;
1396.8000;0.6593;-5.4422;
1397.1000;0.6585;-5.4370;
1397.4000;0.6593;-5.4317;
1397.7000;0.6593;-5.4264;
1398.0000;0.6569;-5.4317;
1398.3000;0.6585;-5.4343;
1398.6000;0.6593;-5.4343;
1398.9000;0.6602;-5.4264;
1399.2000;0.6577;-5.4370;
1399.5000;0.6585;-5.4396;
1399.8000;0.6602;-5.4422;
