time/ms;Fluo/V;P700 deltaI/I x10³;
-199.8000;0.7310;-5.4021;
-199.5000;0.7285;-5.4151;
-199.2000;0.7293;-5.4203;
-198.9000;0.7285;-5.4254;
-198.6000;0.7302;-5.4177;
-198.3000;0.7277;-5.4177;
-198.0000;0.7293;-5.4125;
-197.7000;0.7302;-5.4073;
-197.4000;0.7293;-5.3969;
-197.1000;0.7236;-5.4203;
-196.8000;0.7302;-5.4073;
-196.5000;0.7318;-5.4047;
-196.2000;0.7310;-5.4125;
-195.9000;0.7310;-5.4203;
-195.6000;0.7285;-5.4280;
-195.3000;0.7277;-5.4332;
-195.0000;0.7261;-5.4358;
-194.7000;0.7302;-5.4228;
-194.4000;0.7293;-5.4280;
-194.1000;0.7285;-5.4332;
-193.8000;0.7310;-5.4306;
-193.5000;0.7302;-5.4306;
-193.2000;0.7253;-5.4410;
-192.9000;0.7375;-5.4099;
-192.6000;0.7293;-5.4306;
-192.3000;0.7310;-5.4254;
-192.0000;0.7277;-5.4332;
-191.7000;0.7310;-5.4177;
-191.4000;0.7302;-5.4203;
-191.1000;0.7302;-5.4151;
-190.8000;0.7310;-5.4177;
-190.5000;0.7359;-5.4047;
-190.2000;0.7285;-5.4228;
-189.9000;0.7375;-5.4073;
-189.6000;0.7310;-5.4228;
-189.3000;0.7302;-5.4306;
-189.0000;0.7302;-5.4306;
-188.7000;0.7302;-5.4203;
-188.4000;0.7310;-5.4151;
-188.1000;0.7285;-5.4125;
-187.8000;0.7302;-5.4099;
-187.5000;0.7302;-5.4073;
-187.2000;0.7293;-5.4073;
-186.9000;0.7285;-5.4099;
-186.6000;0.7293;-5.4073;
-186.3000;0.7285;-5.4099;
-186.0000;0.7293;-5.4177;
-185.7000;0.7293;-5.4177;
-185.4000;0.7285;-5.4254;
-185.1000;0.7285;-5.4228;
-184.8000;0.7285;-5.4228;
-184.5000;0.7285;-5.4306;
-184.2000;0.7293;-5.4332;
-183.9000;0.7269;-5.4410;
-183.6000;0.7277;-5.4410;
-183.3000;0.7302;-5.4436;
-183.0000;0.7310;-5.4358;
-182.7000;0.7293;-5.4384;
-182.4000;0.7302;-5.4358;
-182.1000;0.7334;-5.4306;
-181.8000;0.7285;-5.4332;
-181.5000;0.7293;-5.4332;
-181.2000;0.7285;-5.4358;
-180.9000;0.7285;-5.4358;
-180.6000;0.7310;-5.4280;
-180.3000;0.7277;-5.4280;
-180.0000;0.7277;-5.4306;
-179.7000;0.7293;-5.4203;
-179.4000;0.7269;-5.4203;
-179.1000;0.7293;-5.4177;
-178.8000;0.7285;-5.4254;
-178.5000;0.7269;-5.4254;
-178.2000;0.7302;-5.4151;
-177.9000;0.7285;-5.4177;
-177.6000;0.7293;-5.4228;
-177.3000;0.7277;-5.4254;
-177.0000;0.7342;-5.4073;
-176.7000;0.7302;-5.4151;
-176.4000;0.7293;-5.4151;
-176.1000;0.7310;-5.4099;
-175.8000;0.7310;-5.4151;
-175.5000;0.7293;-5.4047;
-175.2000;0.7293;-5.4021;
-174.9000;0.7277;-5.4099;
-174.6000;0.7302;-5.4177;
-174.3000;0.7277;-5.4254;
-174.0000;0.7277;-5.4254;
-173.7000;0.7285;-5.4177;
-173.4000;0.7285;-5.4203;
-173.1000;0.7350;-5.4099;
-172.8000;0.7293;-5.4280;
-172.5000;0.7302;-5.4254;
-172.2000;0.7293;-5.4254;
-171.9000;0.7277;-5.4306;
-171.6000;0.7302;-5.4280;
-171.3000;0.7302;-5.4332;
-171.0000;0.7285;-5.4332;
-170.7000;0.7269;-5.4384;
-170.4000;0.7318;-5.4254;
-170.1000;0.7310;-5.4280;
-169.8000;0.7302;-5.4384;
-169.5000;0.7285;-5.4410;
-169.2000;0.7285;-5.4436;
-168.9000;0.7293;-5.4410;
-168.6000;0.7318;-5.4332;
-168.3000;0.7302;-5.4410;
-168.0000;0.7359;-5.4151;
-167.7000;0.7302;-5.4358;
-167.4000;0.7285;-5.4332;
-167.1000;0.7302;-5.4280;
-166.8000;0.7285;-5.4203;
-166.5000;0.7293;-5.4151;
-166.2000;0.7302;-5.4177;
-165.9000;0.7285;-5.4151;
-165.6000;0.7302;-5.4151;
-165.3000;0.7302;-5.4073;
-165.0000;0.7277;-5.4177;
-164.7000;0.7285;-5.4177;
-164.4000;0.7342;-5.4073;
-164.1000;0.7302;-5.4306;
-163.8000;0.7293;-5.4306;
-163.5000;0.7236;-5.4410;
-163.2000;0.7310;-5.4280;
-162.9000;0.7302;-5.4280;
-162.6000;0.7293;-5.4332;
-162.3000;0.7302;-5.4280;
-162.0000;0.7277;-5.4332;
-161.7000;0.7310;-5.4228;
-161.4000;0.7318;-5.4177;
-161.1000;0.7318;-5.4125;
-160.8000;0.7293;-5.4228;
-160.5000;0.7269;-5.4254;
-160.2000;0.7285;-5.4254;
-159.9000;0.7285;-5.4228;
-159.6000;0.7285;-5.4203;
-159.3000;0.7285;-5.4203;
-159.0000;0.7285;-5.4151;
-158.7000;0.7261;-5.4203;
-158.4000;0.7302;-5.4099;
-158.1000;0.7285;-5.4125;
-157.8000;0.7293;-5.4125;
-157.5000;0.7302;-5.4177;
-157.2000;0.7342;-5.4125;
-156.9000;0.7285;-5.4177;
-156.6000;0.7302;-5.4151;
-156.3000;0.7334;-5.4073;
-156.0000;0.7310;-5.4047;
-155.7000;0.7310;-5.3995;
-155.4000;0.7302;-5.4047;
-155.1000;0.7302;-5.4073;
-154.8000;0.7269;-5.4228;
-154.5000;0.7220;-5.4306;
-154.2000;0.7334;-5.4151;
-153.9000;0.7293;-5.4280;
-153.6000;0.7310;-5.4254;
-153.3000;0.7302;-5.4306;
-153.0000;0.7326;-5.4332;
-152.7000;0.7310;-5.4306;
-152.4000;0.7302;-5.4332;
-152.1000;0.7285;-5.4280;
-151.8000;0.7261;-5.4280;
-151.5000;0.7310;-5.4203;
-151.2000;0.7302;-5.4203;
-150.9000;0.7302;-5.4228;
-150.6000;0.7302;-5.4280;
-150.3000;0.7318;-5.4203;
-150.0000;0.7310;-5.4203;
-149.7000;0.7293;-5.4177;
-149.4000;0.7293;-5.4203;
-149.1000;0.7277;-5.4228;
-148.8000;0.7302;-5.4203;
-148.5000;0.7285;-5.4254;
-148.2000;0.7310;-5.4228;
-147.9000;0.7293;-5.4254;
-147.6000;0.7367;-5.4151;
-147.3000;0.7310;-5.4203;
-147.0000;0.7269;-5.4228;
-146.7000;0.7277;-5.4203;
-146.4000;0.7269;-5.4358;
-146.1000;0.7310;-5.4358;
-145.8000;0.7188;-5.4592;
-145.5000;0.7285;-5.4410;
-145.2000;0.7302;-5.4332;
-144.9000;0.7334;-5.4306;
-144.6000;0.7293;-5.4358;
-144.3000;0.7302;-5.4306;
-144.0000;0.7285;-5.4254;
-143.7000;0.7293;-5.4358;
-143.4000;0.7285;-5.4384;
-143.1000;0.7293;-5.4436;
-142.8000;0.7277;-5.4410;
-142.5000;0.7293;-5.4358;
-142.2000;0.7302;-5.4254;
-141.9000;0.7293;-5.4332;
-141.6000;0.7228;-5.4462;
-141.3000;0.7293;-5.4306;
-141.0000;0.7302;-5.4280;
-140.7000;0.7285;-5.4306;
-140.4000;0.7277;-5.4254;
-140.1000;0.7326;-5.4177;
-139.8000;0.7285;-5.4254;
-139.5000;0.7302;-5.4151;
-139.2000;0.7293;-5.4254;
-138.9000;0.7285;-5.4306;
-138.6000;0.7318;-5.4254;
-138.3000;0.7302;-5.4254;
-138.0000;0.7302;-5.4306;
-137.7000;0.7293;-5.4280;
-137.4000;0.7285;-5.4280;
-137.1000;0.7277;-5.4280;
-136.8000;0.7302;-5.4151;
-136.5000;0.7277;-5.4203;
-136.2000;0.7277;-5.4177;
-135.9000;0.7302;-5.4125;
-135.6000;0.7293;-5.4177;
-135.3000;0.7310;-5.4203;
-135.0000;0.7285;-5.4125;
-134.7000;0.7302;-5.4073;
-134.4000;0.7261;-5.4151;
-134.1000;0.7277;-5.4099;
-133.8000;0.7310;-5.4099;
-133.5000;0.7310;-5.4047;
-133.2000;0.7310;-5.4047;
-132.9000;0.7293;-5.4203;
-132.6000;0.7310;-5.4228;
-132.3000;0.7293;-5.4332;
-132.0000;0.7293;-5.4332;
-131.7000;0.7302;-5.4254;
-131.4000;0.7293;-5.4358;
-131.1000;0.7334;-5.4280;
-130.8000;0.7302;-5.4332;
-130.5000;0.7350;-5.4125;
-130.2000;0.7269;-5.4306;
-129.9000;0.7302;-5.4151;
-129.6000;0.7326;-5.4125;
-129.3000;0.7285;-5.4203;
-129.0000;0.7293;-5.4177;
-128.7000;0.7285;-5.4177;
-128.4000;0.7293;-5.4151;
-128.1000;0.7293;-5.4073;
-127.8000;0.7334;-5.3891;
-127.5000;0.7269;-5.4021;
-127.2000;0.7310;-5.3917;
-126.9000;0.7293;-5.4047;
-126.6000;0.7302;-5.3917;
-126.3000;0.7293;-5.3995;
-126.0000;0.7302;-5.4047;
-125.7000;0.7318;-5.3995;
-125.4000;0.7293;-5.4125;
-125.1000;0.7293;-5.4151;
-124.8000;0.7326;-5.3995;
-124.5000;0.7310;-5.4047;
-124.2000;0.7285;-5.4099;
-123.9000;0.7302;-5.4073;
-123.6000;0.7302;-5.4047;
-123.3000;0.7302;-5.3969;
-123.0000;0.7383;-5.3788;
-122.7000;0.7293;-5.4151;
-122.4000;0.7277;-5.4228;
-122.1000;0.7293;-5.4177;
-121.8000;0.7310;-5.4203;
-121.5000;0.7302;-5.4280;
-121.2000;0.7293;-5.4254;
-120.9000;0.7302;-5.4228;
-120.6000;0.7310;-5.4151;
-120.3000;0.7310;-5.4073;
-120.0000;0.7285;-5.4125;
-119.7000;0.7334;-5.4021;
-119.4000;0.7302;-5.4099;
-119.1000;0.7310;-5.4125;
-118.8000;0.7285;-5.4203;
-118.5000;0.7293;-5.4228;
-118.2000;0.7285;-5.4280;
-117.9000;0.7334;-5.4099;
-117.6000;0.7293;-5.4228;
-117.3000;0.7277;-5.4280;
-117.0000;0.7293;-5.4228;
-116.7000;0.7285;-5.4228;
-116.4000;0.7293;-5.4254;
-116.1000;0.7277;-5.4177;
-115.8000;0.7285;-5.4228;
-115.5000;0.7302;-5.4177;
-115.2000;0.7269;-5.4177;
-114.9000;0.7293;-5.4125;
-114.6000;0.7310;-5.4099;
-114.3000;0.7285;-5.4151;
-114.0000;0.7310;-5.4203;
-113.7000;0.7302;-5.4254;
-113.4000;0.7302;-5.4203;
-113.1000;0.7293;-5.4151;
-112.8000;0.7350;-5.4047;
-112.5000;0.7277;-5.4203;
-112.2000;0.7342;-5.4099;
-111.9000;0.7285;-5.4280;
-111.6000;0.7302;-5.4151;
-111.3000;0.7302;-5.4073;
-111.0000;0.7285;-5.4203;
-110.7000;0.7302;-5.4203;
-110.4000;0.7302;-5.4177;
-110.1000;0.7302;-5.4228;
-109.8000;0.7285;-5.4254;
-109.5000;0.7302;-5.4228;
-109.2000;0.7285;-5.4203;
-108.9000;0.7293;-5.4228;
-108.6000;0.7302;-5.4177;
-108.3000;0.7293;-5.4203;
-108.0000;0.7261;-5.4410;
-107.7000;0.7302;-5.4280;
-107.4000;0.7302;-5.4254;
-107.1000;0.7269;-5.4228;
-106.8000;0.7310;-5.4177;
-106.5000;0.7302;-5.4125;
-106.2000;0.7293;-5.4047;
-105.9000;0.7285;-5.4047;
-105.6000;0.7302;-5.3969;
-105.3000;0.7277;-5.3943;
-105.0000;0.7277;-5.3891;
-104.7000;0.7293;-5.3865;
-104.4000;0.7342;-5.3814;
-104.1000;0.7302;-5.3969;
-103.8000;0.7293;-5.4177;
-103.5000;0.7302;-5.4177;
-103.2000;0.7318;-5.4073;
-102.9000;0.7285;-5.4099;
-102.6000;0.7318;-5.4047;
-102.3000;0.7293;-5.4125;
-102.0000;0.7302;-5.4021;
-101.7000;0.7277;-5.3943;
-101.4000;0.7285;-5.3995;
-101.1000;0.7269;-5.4125;
-100.8000;0.7302;-5.3969;
-100.5000;0.7310;-5.3995;
-100.2000;0.7285;-5.4021;
-99.9000;0.7293;-5.4073;
-99.6000;0.7293;-5.4151;
-99.3000;0.7285;-5.4177;
-99.0000;0.7302;-5.4125;
-98.7000;0.7318;-5.4099;
-98.4000;0.7285;-5.4151;
-98.1000;0.7261;-5.4203;
-97.8000;0.7302;-5.4099;
-97.5000;0.7302;-5.4125;
-97.2000;0.7285;-5.4203;
-96.9000;0.7269;-5.4254;
-96.6000;0.7261;-5.4254;
-96.3000;0.7293;-5.4280;
-96.0000;0.7318;-5.4254;
-95.7000;0.7261;-5.4358;
-95.4000;0.7318;-5.4177;
-95.1000;0.7318;-5.4073;
-94.8000;0.7302;-5.4021;
-94.5000;0.7293;-5.4125;
-94.2000;0.7302;-5.4047;
-93.9000;0.7269;-5.4151;
-93.6000;0.7277;-5.4151;
-93.3000;0.7293;-5.4125;
-93.0000;0.7293;-5.4203;
-92.7000;0.7310;-5.4125;
-92.4000;0.7302;-5.4203;
-92.1000;0.7285;-5.4228;
-91.8000;0.7302;-5.4254;
-91.5000;0.7285;-5.4254;
-91.2000;0.7293;-5.4203;
-90.9000;0.7293;-5.4280;
-90.6000;0.7277;-5.4280;
-90.3000;0.7302;-5.4151;
-90.0000;0.7302;-5.4177;
-89.7000;0.7334;-5.4073;
-89.4000;0.7302;-5.4099;
-89.1000;0.7293;-5.4203;
-88.8000;0.7277;-5.4228;
-88.5000;0.7293;-5.4280;
-88.2000;0.7285;-5.4306;
-87.9000;0.7318;-5.4228;
-87.6000;0.7302;-5.4203;
-87.3000;0.7318;-5.4254;
-87.0000;0.7302;-5.4306;
-86.7000;0.7277;-5.4332;
-86.4000;0.7318;-5.4151;
-86.1000;0.7310;-5.4125;
-85.8000;0.7285;-5.4125;
-85.5000;0.7285;-5.4125;
-85.2000;0.7285;-5.4280;
-84.9000;0.7302;-5.4358;
-84.6000;0.7302;-5.4384;
-84.3000;0.7302;-5.4332;
-84.0000;0.7334;-5.4306;
-83.7000;0.7285;-5.4384;
-83.4000;0.7293;-5.4358;
-83.1000;0.7293;-5.4332;
-82.8000;0.7285;-5.4254;
-82.5000;0.7293;-5.4280;
-82.2000;0.7342;-5.4228;
-81.9000;0.7302;-5.4306;
-81.6000;0.7285;-5.4203;
-81.3000;0.7245;-5.4254;
-81.0000;0.7253;-5.4254;
-80.7000;0.7293;-5.4099;
-80.4000;0.7293;-5.4073;
-80.1000;0.7293;-5.4021;
-79.8000;0.7285;-5.3969;
-79.5000;0.7310;-5.3865;
-79.2000;0.7285;-5.3891;
-78.9000;0.7310;-5.3891;
-78.6000;0.7310;-5.3917;
-78.3000;0.7310;-5.3943;
-78.0000;0.7269;-5.4099;
-77.7000;0.7302;-5.4099;
-77.4000;0.7302;-5.4073;
-77.1000;0.7293;-5.4073;
-76.8000;0.7293;-5.4099;
-76.5000;0.7293;-5.4047;
-76.2000;0.7293;-5.4021;
-75.9000;0.7326;-5.3969;
-75.6000;0.7310;-5.4047;
-75.3000;0.7310;-5.4073;
-75.0000;0.7285;-5.4125;
-74.7000;0.7293;-5.4125;
-74.4000;0.7285;-5.4125;
-74.1000;0.7245;-5.4228;
-73.8000;0.7277;-5.4125;
-73.5000;0.7310;-5.4099;
-73.2000;0.7310;-5.4125;
-72.9000;0.7326;-5.4047;
-72.6000;0.7293;-5.4125;
-72.3000;0.7285;-5.4125;
-72.0000;0.7293;-5.4177;
-71.7000;0.7310;-5.4177;
-71.4000;0.7334;-5.4099;
-71.1000;0.7285;-5.4203;
-70.8000;0.7318;-5.4177;
-70.5000;0.7310;-5.4177;
-70.2000;0.7293;-5.4125;
-69.9000;0.7293;-5.4073;
-69.6000;0.7302;-5.4073;
-69.3000;0.7326;-5.4047;
-69.0000;0.7302;-5.4099;
-68.7000;0.7302;-5.4073;
-68.4000;0.7293;-5.4125;
-68.1000;0.7310;-5.4073;
-67.8000;0.7293;-5.4021;
-67.5000;0.7302;-5.3917;
-67.2000;0.7302;-5.3969;
-66.9000;0.7318;-5.3943;
-66.6000;0.7285;-5.3969;
-66.3000;0.7285;-5.3943;
-66.0000;0.7310;-5.3891;
-65.7000;0.7293;-5.3969;
-65.4000;0.7302;-5.3917;
-65.1000;0.7261;-5.4125;
-64.8000;0.7293;-5.4151;
-64.5000;0.7277;-5.4228;
-64.2000;0.7302;-5.4228;
-63.9000;0.7302;-5.4203;
-63.6000;0.7285;-5.4203;
-63.3000;0.7269;-5.4125;
-63.0000;0.7302;-5.4073;
-62.7000;0.7302;-5.4073;
-62.4000;0.7334;-5.4021;
-62.1000;0.7285;-5.4151;
-61.8000;0.7302;-5.3917;
-61.5000;0.7285;-5.4099;
-61.2000;0.7269;-5.4099;
-60.9000;0.7310;-5.4073;
-60.6000;0.7293;-5.4177;
-60.3000;0.7269;-5.4228;
-60.0000;0.7293;-5.4177;
-59.7000;0.7293;-5.4177;
-59.4000;0.7302;-5.4203;
-59.1000;0.7310;-5.4228;
-58.8000;0.7293;-5.4280;
-58.5000;0.7293;-5.4280;
-58.2000;0.7269;-5.4436;
-57.9000;0.7302;-5.4332;
-57.6000;0.7302;-5.4358;
-57.3000;0.7293;-5.4384;
-57.0000;0.7277;-5.4410;
-56.7000;0.7293;-5.4203;
-56.4000;0.7293;-5.4203;
-56.1000;0.7334;-5.4151;
-55.8000;0.7302;-5.4254;
-55.5000;0.7293;-5.4254;
-55.2000;0.7285;-5.4203;
-54.9000;0.7302;-5.4073;
-54.6000;0.7285;-5.4073;
-54.3000;0.7310;-5.4125;
-54.0000;0.7277;-5.4177;
-53.7000;0.7310;-5.4151;
-53.4000;0.7285;-5.4125;
-53.1000;0.7334;-5.3943;
-52.8000;0.7302;-5.4073;
-52.5000;0.7285;-5.4151;
-52.2000;0.7285;-5.4125;
-51.9000;0.7302;-5.4177;
-51.6000;0.7302;-5.4203;
-51.3000;0.7302;-5.4177;
-51.0000;0.7302;-5.4125;
-50.7000;0.7293;-5.4099;
-50.4000;0.7302;-5.4125;
-50.1000;0.7285;-5.4203;
-49.8000;0.7302;-5.4177;
-49.5000;0.7261;-5.4306;
-49.2000;0.7277;-5.4306;
-48.9000;0.7293;-5.4254;
-48.6000;0.7261;-5.4280;
-48.3000;0.7277;-5.4177;
-48.0000;0.7277;-5.4177;
-47.7000;0.7293;-5.4099;
-47.4000;0.7310;-5.4099;
-47.1000;0.7302;-5.4151;
-46.8000;0.7285;-5.4280;
-46.5000;0.7310;-5.4203;
-46.2000;0.7310;-5.4203;
-45.9000;0.7285;-5.4332;
-45.6000;0.7310;-5.4358;
-45.3000;0.7253;-5.4436;
-45.0000;0.7310;-5.4280;
-44.7000;0.7302;-5.4280;
-44.4000;0.7293;-5.4280;
-44.1000;0.7293;-5.4280;
-43.8000;0.7293;-5.4254;
-43.5000;0.7293;-5.4280;
-43.2000;0.7245;-5.4384;
-42.9000;0.7293;-5.4306;
-42.6000;0.7269;-5.4306;
-42.3000;0.7383;-5.3995;
-42.0000;0.7293;-5.4151;
-41.7000;0.7293;-5.4177;
-41.4000;0.7293;-5.4177;
-41.1000;0.7285;-5.4203;
-40.8000;0.7285;-5.4151;
-40.5000;0.7285;-5.4254;
-40.2000;0.7302;-5.4203;
-39.9000;0.7293;-5.4254;
-39.6000;0.7285;-5.4306;
-39.3000;0.7261;-5.4332;
-39.0000;0.7293;-5.4177;
-38.7000;0.7285;-5.4151;
-38.4000;0.7293;-5.4203;
-38.1000;0.7285;-5.4254;
-37.8000;0.7293;-5.4254;
-37.5000;0.7302;-5.4228;
-37.2000;0.7285;-5.4177;
-36.9000;0.7302;-5.4177;
-36.6000;0.7285;-5.4228;
-36.3000;0.7302;-5.4125;
-36.0000;0.7293;-5.4099;
-35.7000;0.7293;-5.4099;
-35.4000;0.7285;-5.4073;
-35.1000;0.7245;-5.4203;
-34.8000;0.7245;-5.4177;
-34.5000;0.7285;-5.4125;
-34.2000;0.7277;-5.4203;
-33.9000;0.7293;-5.4280;
-33.6000;0.7310;-5.4332;
-33.3000;0.7334;-5.4228;
-33.0000;0.7269;-5.4384;
-32.7000;0.7302;-5.4410;
-32.4000;0.7302;-5.4384;
-32.1000;0.7302;-5.4358;
-31.8000;0.7302;-5.4332;
-31.5000;0.7302;-5.4332;
-31.2000;0.7302;-5.4228;
-30.9000;0.7285;-5.4203;
-30.6000;0.7285;-5.4280;
-30.3000;0.7277;-5.4332;
-30.0000;0.7293;-5.4280;
-29.7000;0.7302;-5.4228;
-29.4000;0.7302;-5.4280;
-29.1000;0.7302;-5.4306;
-28.8000;0.7285;-5.4254;
-28.5000;0.7293;-5.4203;
-28.2000;0.7293;-5.4254;
-27.9000;0.7269;-5.4332;
-27.6000;0.7326;-5.4228;
-27.3000;0.7302;-5.4203;
-27.0000;0.7293;-5.4280;
-26.7000;0.7293;-5.4306;
-26.4000;0.7228;-5.4410;
-26.1000;0.7310;-5.4228;
-25.8000;0.7318;-5.4177;
-25.5000;0.7383;-5.4099;
-25.2000;0.7285;-5.4306;
-24.9000;0.7302;-5.4332;
-24.6000;0.7326;-5.4306;
-24.3000;0.7302;-5.4384;
-24.0000;0.7302;-5.4280;
-23.7000;0.7302;-5.4228;
-23.4000;0.7302;-5.4203;
-23.1000;0.7310;-5.4151;
-22.8000;0.7302;-5.4203;
-22.5000;0.7293;-5.4228;
-22.2000;0.7293;-5.4203;
-21.9000;0.7367;-5.4021;
-21.6000;0.7302;-5.4177;
-21.3000;0.7326;-5.4047;
-21.0000;0.7302;-5.4203;
-20.7000;0.7310;-5.4203;
-20.4000;0.7293;-5.4332;
-20.1000;0.7293;-5.4280;
-19.8000;0.7375;-5.4047;
-19.5000;0.7302;-5.4125;
-19.2000;0.7302;-5.4099;
-18.9000;0.7293;-5.4125;
-18.6000;0.7285;-5.4125;
-18.3000;0.7302;-5.4021;
-18.0000;0.7302;-5.4047;
-17.7000;0.7310;-5.4125;
-17.4000;0.7293;-5.4099;
-17.1000;0.7285;-5.4177;
-16.8000;0.7277;-5.4203;
-16.5000;0.7293;-5.4151;
-16.2000;0.7302;-5.4177;
-15.9000;0.7310;-5.4203;
-15.6000;0.7285;-5.4228;
-15.3000;0.7269;-5.4332;
-15.0000;0.7293;-5.4203;
-14.7000;0.7302;-5.4228;
-14.4000;0.7302;-5.4177;
-14.1000;0.7342;-5.3969;
-13.8000;0.7285;-5.4177;
-13.5000;0.7277;-5.4228;
-13.2000;0.7261;-5.4280;
-12.9000;0.7334;-5.4151;
-12.6000;0.7269;-5.4228;
-12.3000;0.7269;-5.4151;
-12.0000;0.7350;-5.3943;
-11.7000;0.7293;-5.4099;
-11.4000;0.7302;-5.4021;
-11.1000;0.7277;-5.4151;
-10.8000;0.7342;-5.3943;
-10.5000;0.7285;-5.4099;
-10.2000;0.7285;-5.4177;
-9.9000;0.7285;-5.4177;
-9.6000;0.7302;-5.4151;
-9.3000;0.7293;-5.4177;
-9.0000;0.7293;-5.4099;
-8.7000;0.7302;-5.4047;
-8.4000;0.7293;-5.4073;
-8.1000;0.7285;-5.4047;
-7.8000;0.7285;-5.4099;
-7.5000;0.7293;-5.4151;
-7.2000;0.7302;-5.4151;
-6.9000;0.7277;-5.4177;
-6.6000;0.7310;-5.4099;
-6.3000;0.7318;-5.4021;
-6.0000;0.7293;-5.4073;
-5.7000;0.7302;-5.4073;
-5.4000;0.7350;-5.3891;
-5.1000;0.7277;-5.4021;
-4.8000;0.7310;-5.3995;
-4.5000;0.7334;-5.3969;
-4.2000;0.7302;-5.4047;
-3.9000;0.7310;-5.3943;
-3.6000;0.7302;-5.3995;
-3.3000;0.7277;-5.4073;
-3.0000;0.7302;-5.3995;
-2.7000;0.7302;-5.3995;
-2.4000;0.7245;-5.4177;
-2.1000;0.7350;-5.3891;
-1.8000;0.7318;-5.3969;
-1.5000;0.7310;-5.4073;
-1.2000;0.7302;-5.4073;
-0.9000;0.7293;-5.4125;
-0.6000;0.7342;-5.3917;
-0.3000;0.7277;-5.4073;
0.0000;0.7277;-5.4073;
0.3000;0.7546;-5.3528;
0.6000;0.8124;-5.2854;
0.9000;0.8498;-5.2361;
1.2000;0.8783;-5.1843;
1.5000;0.9044;-5.1376;
1.8000;0.9271;-5.1013;
2.1000;0.9442;-5.0676;
2.4000;0.9548;-5.0494;
2.7000;0.9597;-5.0494;
3.0000;0.9711;-5.0183;
3.3000;0.9809;-5.0053;
3.6000;0.9890;-4.9846;
3.9000;0.9890;-4.9768;
4.2000;1.0020;-4.9457;
4.5000;1.0053;-4.9508;
4.8000;1.0110;-4.9405;
5.1000;1.0142;-4.9353;
5.4000;1.0183;-4.9353;
5.7000;1.0240;-4.9327;
6.0000;1.0265;-4.9249;
6.3000;1.0346;-4.9068;
6.6000;1.0379;-4.9094;
6.9000;1.0395;-4.9275;
7.2000;1.0419;-4.9379;
7.5000;1.0435;-4.9431;
7.8000;1.0501;-4.9431;
8.1000;1.0533;-4.9431;
8.4000;1.0582;-4.9327;
8.7000;1.0606;-4.9405;
9.0000;1.0582;-4.9508;
9.3000;1.0672;-4.9327;
9.6000;1.0688;-4.9379;
9.9000;1.0769;-4.9249;
10.2000;1.0761;-4.9327;
10.5000;1.0794;-4.9275;
10.8000;1.0769;-4.9301;
11.1000;1.0842;-4.9249;
11.4000;1.0867;-4.9275;
11.7000;1.0867;-4.9353;
12.0000;1.0908;-4.9327;
12.3000;1.0965;-4.9327;
12.6000;1.1038;-4.9145;
12.9000;1.0989;-4.9327;
13.2000;1.1013;-4.9301;
13.5000;1.1030;-4.9353;
13.8000;1.1070;-4.9301;
14.1000;1.1079;-4.9379;
14.4000;1.1103;-4.9353;
14.7000;1.1103;-4.9353;
15.0000;1.1144;-4.9301;
15.3000;1.1160;-4.9275;
15.6000;1.1209;-4.9197;
15.9000;1.1193;-4.9327;
16.2000;1.1225;-4.9379;
16.5000;1.1258;-4.9353;
16.8000;1.1249;-4.9457;
17.1000;1.1258;-4.9560;
17.4000;1.1274;-4.9560;
17.7000;1.1306;-4.9457;
18.0000;1.1306;-4.9560;
18.3000;1.1306;-4.9534;
18.6000;1.1331;-4.9457;
18.9000;1.1363;-4.9353;
19.2000;1.1347;-4.9327;
19.5000;1.1388;-4.9301;
19.8000;1.1404;-4.9353;
20.1000;1.1404;-4.9379;
20.4000;1.1363;-4.9379;
20.7000;1.1453;-4.9275;
21.0000;1.1453;-4.9327;
21.3000;1.1437;-4.9405;
21.6000;1.1469;-4.9327;
21.9000;1.1477;-4.9379;
22.2000;1.1502;-4.9301;
22.5000;1.1526;-4.9249;
22.8000;1.1526;-4.9327;
23.1000;1.1534;-4.9379;
23.4000;1.1502;-4.9431;
23.7000;1.1543;-4.9327;
24.0000;1.1551;-4.9275;
24.3000;1.1583;-4.9275;
24.6000;1.1567;-4.9379;
24.9000;1.1567;-4.9353;
25.2000;1.1608;-4.9275;
25.5000;1.1608;-4.9301;
25.8000;1.1624;-4.9249;
26.1000;1.1608;-4.9327;
26.4000;1.1624;-4.9327;
26.7000;1.1600;-4.9431;
27.0000;1.1689;-4.9353;
27.3000;1.1632;-4.9483;
27.6000;1.1656;-4.9483;
27.9000;1.1640;-4.9534;
28.2000;1.1665;-4.9483;
28.5000;1.1656;-4.9483;
28.8000;1.1656;-4.9405;
29.1000;1.1681;-4.9483;
29.4000;1.1673;-4.9560;
29.7000;1.1705;-4.9534;
30.0000;1.1681;-4.9638;
30.3000;1.1713;-4.9560;
30.6000;1.1665;-4.9638;
30.9000;1.1689;-4.9534;
31.2000;1.1705;-4.9508;
31.5000;1.1705;-4.9508;
31.8000;1.1681;-4.9508;
32.1000;1.1722;-4.9431;
32.4000;1.1722;-4.9483;
32.7000;1.1738;-4.9457;
33.0000;1.1738;-4.9405;
33.3000;1.1730;-4.9405;
33.6000;1.1762;-4.9301;
33.9000;1.1754;-4.9379;
34.2000;1.1738;-4.9483;
34.5000;1.1754;-4.9483;
34.8000;1.1681;-4.9586;
35.1000;1.1738;-4.9508;
35.4000;1.1795;-4.9457;
35.7000;1.1754;-4.9560;
36.0000;1.1795;-4.9483;
36.3000;1.1779;-4.9508;
36.6000;1.1803;-4.9457;
36.9000;1.1803;-4.9405;
37.2000;1.1836;-4.9275;
37.5000;1.1787;-4.9405;
37.8000;1.1795;-4.9508;
38.1000;1.1811;-4.9483;
38.4000;1.1795;-4.9483;
38.7000;1.1787;-4.9483;
39.0000;1.1803;-4.9457;
39.3000;1.1811;-4.9379;
39.6000;1.1827;-4.9379;
39.9000;1.1803;-4.9405;
40.2000;1.1819;-4.9379;
40.5000;1.1836;-4.9275;
40.8000;1.1827;-4.9327;
41.1000;1.1836;-4.9431;
41.4000;1.1827;-4.9483;
41.7000;1.1844;-4.9483;
42.0000;1.1819;-4.9508;
42.3000;1.1836;-4.9534;
42.6000;1.1811;-4.9586;
42.9000;1.1836;-4.9534;
43.2000;1.1852;-4.9431;
43.5000;1.1836;-4.9534;
43.8000;1.1852;-4.9483;
44.1000;1.1860;-4.9457;
44.4000;1.1852;-4.9457;
44.7000;1.1852;-4.9457;
45.0000;1.1852;-4.9457;
45.3000;1.1852;-4.9483;
45.6000;1.1860;-4.9379;
45.9000;1.1852;-4.9431;
46.2000;1.1852;-4.9457;
46.5000;1.1860;-4.9483;
46.8000;1.1868;-4.9508;
47.1000;1.1868;-4.9508;
47.4000;1.1868;-4.9508;
47.7000;1.1868;-4.9483;
48.0000;1.1876;-4.9483;
48.3000;1.1876;-4.9431;
48.6000;1.1876;-4.9457;
48.9000;1.1917;-4.9379;
49.2000;1.1917;-4.9379;
49.5000;1.1884;-4.9560;
49.8000;1.1941;-4.9405;
50.1000;1.1958;-4.9223;
50.4000;1.1876;-4.9431;
50.7000;1.1884;-4.9483;
51.0000;1.1876;-4.9638;
51.3000;1.1893;-4.9664;
51.6000;1.1884;-4.9612;
51.9000;1.1925;-4.9586;
52.2000;1.1884;-4.9742;
52.5000;1.1901;-4.9742;
52.8000;1.1884;-4.9664;
53.1000;1.1893;-4.9664;
53.4000;1.1893;-4.9664;
53.7000;1.1909;-4.9586;
54.0000;1.1876;-4.9716;
54.3000;1.1901;-4.9690;
54.6000;1.1868;-4.9794;
54.9000;1.1876;-4.9794;
55.2000;1.1884;-4.9820;
55.5000;1.1917;-4.9716;
55.8000;1.1901;-4.9638;
56.1000;1.1917;-4.9664;
56.4000;1.1909;-4.9716;
56.7000;1.1917;-4.9794;
57.0000;1.1917;-4.9794;
57.3000;1.1917;-4.9768;
57.6000;1.1917;-4.9742;
57.9000;1.1909;-4.9742;
58.2000;1.1909;-4.9794;
58.5000;1.1917;-4.9664;
58.8000;1.1925;-4.9534;
59.1000;1.1917;-4.9405;
59.4000;1.1925;-4.9431;
59.7000;1.1933;-4.9353;
60.0000;1.1917;-4.9431;
60.3000;1.1917;-4.9483;
60.6000;1.1901;-4.9379;
60.9000;1.1925;-4.9353;
61.2000;1.1933;-4.9431;
61.5000;1.1933;-4.9457;
61.8000;1.1941;-4.9457;
62.1000;1.1950;-4.9457;
62.4000;1.1933;-4.9483;
62.7000;1.1941;-4.9508;
63.0000;1.1941;-4.9560;
63.3000;1.1933;-4.9638;
63.6000;1.1933;-4.9638;
63.9000;1.1933;-4.9586;
64.2000;1.1925;-4.9638;
64.5000;1.1933;-4.9586;
64.8000;1.1950;-4.9560;
65.1000;1.1933;-4.9534;
65.4000;1.1933;-4.9534;
65.7000;1.1925;-4.9690;
66.0000;1.1950;-4.9690;
66.3000;1.1941;-4.9560;
66.6000;1.1958;-4.9560;
66.9000;1.1933;-4.9638;
67.2000;1.1966;-4.9560;
67.5000;1.1966;-4.9638;
67.8000;1.1966;-4.9638;
68.1000;1.1933;-4.9664;
68.4000;1.1941;-4.9690;
68.7000;1.1958;-4.9612;
69.0000;1.1950;-4.9664;
69.3000;1.1950;-4.9742;
69.6000;1.1950;-4.9716;
69.9000;1.1950;-4.9742;
70.2000;1.1950;-4.9768;
70.5000;1.1950;-4.9820;
70.8000;1.1950;-4.9768;
71.1000;1.1950;-4.9768;
71.4000;1.1958;-4.9690;
71.7000;1.1990;-4.9690;
72.0000;1.1966;-4.9742;
72.3000;1.1966;-4.9716;
72.6000;1.1982;-4.9716;
72.9000;1.1950;-4.9794;
73.2000;1.1958;-4.9716;
73.5000;1.1950;-4.9768;
73.8000;1.1876;-4.9923;
74.1000;1.1966;-4.9690;
74.4000;1.1966;-4.9716;
74.7000;1.2023;-4.9612;
75.0000;1.1958;-4.9716;
75.3000;1.1966;-4.9690;
75.6000;1.1958;-4.9690;
75.9000;1.1958;-4.9742;
76.2000;1.1966;-4.9872;
76.5000;1.2007;-4.9690;
76.8000;1.1982;-4.9742;
77.1000;1.1974;-4.9690;
77.4000;1.2007;-4.9560;
77.7000;1.1974;-4.9716;
78.0000;1.1974;-4.9612;
78.3000;1.1966;-4.9612;
78.6000;1.1958;-4.9690;
78.9000;1.1941;-4.9664;
79.2000;1.1941;-4.9716;
79.5000;1.1941;-4.9716;
79.8000;1.2015;-4.9560;
80.1000;1.1958;-4.9768;
80.4000;1.1974;-4.9846;
80.7000;1.1966;-4.9794;
81.0000;1.1966;-4.9820;
81.3000;1.1909;-4.9975;
81.6000;1.1966;-4.9768;
81.9000;1.1974;-4.9768;
82.2000;1.1966;-4.9794;
82.5000;1.1966;-4.9794;
82.8000;1.1982;-4.9716;
83.1000;1.1982;-4.9664;
83.4000;1.1941;-4.9742;
83.7000;1.1958;-4.9664;
84.0000;1.1982;-4.9586;
84.3000;1.1982;-4.9742;
84.6000;1.1966;-4.9794;
84.9000;1.1974;-4.9742;
85.2000;1.1958;-4.9742;
85.5000;1.1966;-4.9742;
85.8000;1.1966;-4.9716;
86.1000;1.1966;-4.9716;
86.4000;1.1941;-4.9690;
86.7000;1.1982;-4.9612;
87.0000;1.2031;-4.9534;
87.3000;1.1982;-4.9742;
87.6000;1.1998;-4.9742;
87.9000;1.2007;-4.9820;
88.2000;1.2007;-4.9742;
88.5000;1.1990;-4.9768;
88.8000;1.1982;-4.9794;
89.1000;1.1990;-4.9768;
89.4000;1.1950;-4.9923;
89.7000;1.1966;-4.9897;
90.0000;1.1950;-4.9923;
90.3000;1.1990;-4.9794;
90.6000;1.1933;-4.9897;
90.9000;1.2023;-4.9664;
91.2000;1.1998;-4.9716;
91.5000;1.1990;-4.9768;
91.8000;1.2015;-4.9768;
92.1000;1.1990;-4.9742;
92.4000;1.1982;-4.9716;
92.7000;1.2007;-4.9690;
93.0000;1.2015;-4.9612;
93.3000;1.1998;-4.9664;
93.6000;1.1990;-4.9768;
93.9000;1.1982;-4.9794;
94.2000;1.1990;-4.9742;
94.5000;1.1990;-4.9794;
94.8000;1.1990;-4.9768;
95.1000;1.1974;-4.9768;
95.4000;1.1990;-4.9794;
95.7000;1.1982;-4.9820;
96.0000;1.1990;-4.9923;
96.3000;1.1982;-5.0001;
96.6000;1.1966;-5.0053;
96.9000;1.2023;-4.9949;
97.2000;1.1982;-5.0001;
97.5000;1.1990;-4.9949;
97.8000;1.1982;-4.9923;
98.1000;1.1998;-4.9923;
98.4000;1.1998;-4.9949;
98.7000;1.1990;-4.9923;
99.0000;1.1982;-5.0027;
99.3000;1.1998;-4.9975;
99.6000;1.1982;-5.0001;
99.9000;1.1982;-5.0105;
100.2000;1.1982;-5.0105;
100.5000;1.1966;-5.0131;
100.8000;1.1982;-4.9897;
101.1000;1.2007;-4.9794;
101.4000;1.1982;-4.9923;
101.7000;1.1950;-5.0001;
102.0000;1.1998;-4.9872;
102.3000;1.1990;-4.9897;
102.6000;1.1982;-4.9897;
102.9000;1.2015;-4.9794;
103.2000;1.2023;-4.9846;
103.5000;1.2007;-4.9949;
103.8000;1.1982;-5.0027;
104.1000;1.1990;-5.0001;
104.4000;1.1982;-4.9897;
104.7000;1.1998;-4.9897;
105.0000;1.1982;-5.0001;
105.3000;1.1990;-5.0053;
105.6000;1.1998;-5.0105;
105.9000;1.1982;-5.0105;
106.2000;1.1998;-5.0053;
106.5000;1.1982;-5.0079;
106.8000;1.2023;-5.0001;
107.1000;1.1974;-5.0131;
107.4000;1.1990;-5.0053;
107.7000;1.2007;-5.0053;
108.0000;1.2015;-5.0079;
108.3000;1.1998;-5.0027;
108.6000;1.2007;-5.0027;
108.9000;1.1990;-5.0079;
109.2000;1.1998;-5.0027;
109.5000;1.2015;-5.0027;
109.8000;1.1990;-5.0001;
110.1000;1.2015;-4.9923;
110.4000;1.1966;-4.9975;
110.7000;1.1998;-5.0001;
111.0000;1.1982;-5.0053;
111.3000;1.1982;-5.0027;
111.6000;1.2072;-4.9846;
111.9000;1.1974;-5.0053;
112.2000;1.2088;-4.9820;
112.5000;1.1998;-5.0001;
112.8000;1.1998;-5.0027;
113.1000;1.2039;-5.0053;
113.4000;1.2007;-5.0235;
113.7000;1.1998;-5.0261;
114.0000;1.2023;-5.0157;
114.3000;1.1998;-5.0157;
114.6000;1.1998;-5.0183;
114.9000;1.2007;-5.0157;
115.2000;1.1990;-5.0157;
115.5000;1.1982;-5.0131;
115.8000;1.1974;-5.0053;
116.1000;1.1998;-4.9975;
116.4000;1.1990;-5.0027;
116.7000;1.1982;-4.9949;
117.0000;1.1974;-4.9949;
117.3000;1.1982;-4.9897;
117.6000;1.1990;-4.9897;
117.9000;1.1966;-4.9975;
118.2000;1.1998;-4.9820;
118.5000;1.1998;-4.9923;
118.8000;1.2015;-5.0053;
119.1000;1.1982;-5.0131;
119.4000;1.1998;-5.0131;
119.7000;1.2007;-5.0157;
120.0000;1.2007;-5.0183;
120.3000;1.1990;-5.0183;
120.6000;1.1958;-5.0286;
120.9000;1.1990;-5.0261;
121.2000;1.2023;-5.0183;
121.5000;1.1990;-5.0390;
121.8000;1.1998;-5.0312;
122.1000;1.2072;-5.0157;
122.4000;1.2007;-5.0286;
122.7000;1.1998;-5.0209;
123.0000;1.1998;-5.0286;
123.3000;1.1998;-5.0261;
123.6000;1.2015;-5.0157;
123.9000;1.2007;-5.0053;
124.2000;1.2015;-5.0079;
124.5000;1.2015;-5.0157;
124.8000;1.2007;-5.0183;
125.1000;1.2015;-5.0131;
125.4000;1.2015;-5.0131;
125.7000;1.2047;-5.0131;
126.0000;1.1982;-5.0390;
126.3000;1.2007;-5.0390;
126.6000;1.1982;-5.0416;
126.9000;1.2023;-5.0338;
127.2000;1.2007;-5.0312;
127.5000;1.1998;-5.0312;
127.8000;1.2007;-5.0286;
128.1000;1.1990;-5.0209;
128.4000;1.2007;-5.0183;
128.7000;1.1998;-5.0131;
129.0000;1.1990;-5.0183;
129.3000;1.1998;-5.0183;
129.6000;1.1998;-5.0261;
129.9000;1.2007;-5.0209;
130.2000;1.2015;-5.0131;
130.5000;1.2007;-5.0209;
130.8000;1.2015;-5.0209;
131.1000;1.2015;-5.0209;
131.4000;1.2015;-5.0209;
131.7000;1.2023;-5.0209;
132.0000;1.2015;-5.0312;
132.3000;1.1990;-5.0364;
132.6000;1.2007;-5.0364;
132.9000;1.2015;-5.0364;
133.2000;1.2007;-5.0338;
133.5000;1.2023;-5.0235;
133.8000;1.2015;-5.0286;
134.1000;1.1982;-5.0338;
134.4000;1.1998;-5.0286;
134.7000;1.2007;-5.0235;
135.0000;1.2015;-5.0183;
135.3000;1.1998;-5.0131;
135.6000;1.1998;-5.0183;
135.9000;1.2007;-5.0183;
136.2000;1.2015;-5.0157;
136.5000;1.1998;-5.0157;
136.8000;1.2007;-5.0157;
137.1000;1.2007;-5.0235;
137.4000;1.1998;-5.0364;
137.7000;1.2015;-5.0286;
138.0000;1.2007;-5.0416;
138.3000;1.1998;-5.0416;
138.6000;1.2007;-5.0416;
138.9000;1.2023;-5.0312;
139.2000;1.2007;-5.0286;
139.5000;1.2007;-5.0364;
139.8000;1.2015;-5.0338;
140.1000;1.2015;-5.0338;
140.4000;1.2039;-5.0338;
140.7000;1.2007;-5.0416;
141.0000;1.2015;-5.0364;
141.3000;1.2007;-5.0416;
141.6000;1.1958;-5.0494;
141.9000;1.1998;-5.0338;
142.2000;1.1990;-5.0364;
142.5000;1.2015;-5.0261;
142.8000;1.2039;-5.0131;
143.1000;1.2007;-5.0209;
143.4000;1.1933;-5.0390;
143.7000;1.2031;-5.0105;
144.0000;1.1998;-5.0131;
144.3000;1.1925;-5.0261;
144.6000;1.2007;-5.0027;
144.9000;1.1982;-5.0105;
145.2000;1.2015;-5.0027;
145.5000;1.2023;-5.0027;
145.8000;1.2007;-5.0105;
146.1000;1.2007;-5.0027;
146.4000;1.2023;-5.0079;
146.7000;1.2023;-5.0079;
147.0000;1.2007;-5.0105;
147.3000;1.2015;-5.0157;
147.6000;1.1974;-5.0312;
147.9000;1.2039;-5.0261;
148.2000;1.2023;-5.0312;
148.5000;1.2023;-5.0312;
148.8000;1.2015;-5.0261;
149.1000;1.2031;-5.0209;
149.4000;1.2031;-5.0338;
149.7000;1.2023;-5.0390;
150.0000;1.1990;-5.0416;
150.3000;1.2007;-5.0338;
150.6000;1.2031;-5.0286;
150.9000;1.2031;-5.0286;
151.2000;1.1990;-5.0442;
151.5000;1.2015;-5.0416;
151.8000;1.2015;-5.0416;
152.1000;1.2031;-5.0286;
152.4000;1.2031;-5.0286;
152.7000;1.2007;-5.0312;
153.0000;1.2007;-5.0312;
153.3000;1.2031;-5.0338;
153.6000;1.2007;-5.0520;
153.9000;1.1990;-5.0494;
154.2000;1.2023;-5.0416;
154.5000;1.2023;-5.0390;
154.8000;1.1998;-5.0468;
155.1000;1.1982;-5.0494;
155.4000;1.1982;-5.0442;
155.7000;1.2007;-5.0338;
156.0000;1.2023;-5.0338;
156.3000;1.2015;-5.0416;
156.6000;1.2039;-5.0312;
156.9000;1.2007;-5.0390;
157.2000;1.2007;-5.0390;
157.5000;1.2007;-5.0338;
157.8000;1.2007;-5.0286;
158.1000;1.2015;-5.0312;
158.4000;1.2015;-5.0235;
158.7000;1.1998;-5.0261;
159.0000;1.2007;-5.0286;
159.3000;1.2023;-5.0209;
159.6000;1.1966;-5.0364;
159.9000;1.2007;-5.0131;
160.2000;1.2007;-5.0157;
160.5000;1.2015;-5.0235;
160.8000;1.2015;-5.0286;
161.1000;1.2015;-5.0235;
161.4000;1.2007;-5.0312;
161.7000;1.2031;-5.0286;
162.0000;1.2023;-5.0338;
162.3000;1.2015;-5.0261;
162.6000;1.2015;-5.0209;
162.9000;1.1990;-5.0286;
163.2000;1.2007;-5.0261;
163.5000;1.2007;-5.0286;
163.8000;1.1966;-5.0494;
164.1000;1.2015;-5.0442;
164.4000;1.2039;-5.0442;
164.7000;1.2031;-5.0494;
165.0000;1.2023;-5.0442;
165.3000;1.2055;-5.0261;
165.6000;1.2080;-5.0286;
165.9000;1.1990;-5.0494;
166.2000;1.2096;-5.0235;
166.5000;1.2015;-5.0416;
166.8000;1.1982;-5.0520;
167.1000;1.2015;-5.0442;
167.4000;1.1950;-5.0572;
167.7000;1.2007;-5.0468;
168.0000;1.2072;-5.0261;
168.3000;1.2015;-5.0416;
168.6000;1.2023;-5.0286;
168.9000;1.2039;-5.0157;
169.2000;1.1990;-5.0286;
169.5000;1.1990;-5.0338;
169.8000;1.2015;-5.0416;
170.1000;1.2023;-5.0468;
170.4000;1.2015;-5.0494;
170.7000;1.2023;-5.0416;
171.0000;1.2023;-5.0364;
171.3000;1.2031;-5.0364;
171.6000;1.2031;-5.0416;
171.9000;1.2023;-5.0468;
172.2000;1.2031;-5.0364;
172.5000;1.2031;-5.0338;
172.8000;1.2023;-5.0364;
173.1000;1.2015;-5.0494;
173.4000;1.2015;-5.0572;
173.7000;1.2023;-5.0624;
174.0000;1.2015;-5.0701;
174.3000;1.2015;-5.0701;
174.6000;1.2023;-5.0676;
174.9000;1.2015;-5.0650;
175.2000;1.2015;-5.0598;
175.5000;1.2007;-5.0598;
175.8000;1.2031;-5.0494;
176.1000;1.2031;-5.0442;
176.4000;1.2031;-5.0416;
176.7000;1.2031;-5.0520;
177.0000;1.2007;-5.0572;
177.3000;1.2015;-5.0572;
177.6000;1.2007;-5.0494;
177.9000;1.2015;-5.0546;
178.2000;1.1998;-5.0546;
178.5000;1.2007;-5.0442;
178.8000;1.2023;-5.0468;
179.1000;1.2015;-5.0572;
179.4000;1.1990;-5.0572;
179.7000;1.2007;-5.0468;
180.0000;1.2023;-5.0468;
180.3000;1.1982;-5.0546;
180.6000;1.2007;-5.0546;
180.9000;1.2015;-5.0572;
181.2000;1.2047;-5.0494;
181.5000;1.2080;-5.0338;
181.8000;1.2015;-5.0416;
182.1000;1.2023;-5.0494;
182.4000;1.2031;-5.0442;
182.7000;1.2023;-5.0494;
183.0000;1.1990;-5.0494;
183.3000;1.2007;-5.0494;
183.6000;1.2023;-5.0546;
183.9000;1.2015;-5.0520;
184.2000;1.2015;-5.0546;
184.5000;1.2007;-5.0572;
184.8000;1.1925;-5.0701;
185.1000;1.2023;-5.0520;
185.4000;1.2007;-5.0650;
185.7000;1.2015;-5.0598;
186.0000;1.2015;-5.0572;
186.3000;1.1990;-5.0572;
186.6000;1.1933;-5.0727;
186.9000;1.1998;-5.0624;
187.2000;1.2007;-5.0572;
187.5000;1.2007;-5.0520;
187.8000;1.2047;-5.0416;
188.1000;1.2072;-5.0338;
188.4000;1.2015;-5.0442;
188.7000;1.2015;-5.0390;
189.0000;1.2015;-5.0338;
189.3000;1.1998;-5.0416;
189.6000;1.2007;-5.0520;
189.9000;1.1958;-5.0624;
190.2000;1.2031;-5.0494;
190.5000;1.2023;-5.0598;
190.8000;1.1950;-5.0727;
191.1000;1.2007;-5.0650;
191.4000;1.2007;-5.0572;
191.7000;1.2015;-5.0624;
192.0000;1.1998;-5.0701;
192.3000;1.1990;-5.0753;
192.6000;1.2007;-5.0650;
192.9000;1.2007;-5.0624;
193.2000;1.1998;-5.0676;
193.5000;1.1998;-5.0676;
193.8000;1.1990;-5.0676;
194.1000;1.2031;-5.0572;
194.4000;1.1998;-5.0546;
194.7000;1.2007;-5.0572;
195.0000;1.2007;-5.0520;
195.3000;1.2007;-5.0520;
195.6000;1.2015;-5.0494;
195.9000;1.1998;-5.0468;
196.2000;1.2007;-5.0468;
196.5000;1.2007;-5.0416;
196.8000;1.1917;-5.0598;
197.1000;1.2007;-5.0468;
197.4000;1.2023;-5.0520;
197.7000;1.2015;-5.0546;
198.0000;1.1966;-5.0624;
198.3000;1.2015;-5.0468;
198.6000;1.1990;-5.0572;
198.9000;1.2007;-5.0546;
199.2000;1.2023;-5.0546;
199.5000;1.2015;-5.0572;
199.8000;1.2007;-5.0546;
200.1000;1.2055;-5.0416;
200.4000;1.2023;-5.0468;
200.7000;1.2015;-5.0494;
201.0000;1.2007;-5.0520;
201.3000;1.2015;-5.0442;
201.6000;1.2023;-5.0390;
201.9000;1.2023;-5.0364;
202.2000;1.2023;-5.0312;
202.5000;1.2015;-5.0468;
202.8000;1.2031;-5.0468;
203.1000;1.1990;-5.0520;
203.4000;1.2023;-5.0468;
203.7000;1.2023;-5.0546;
204.0000;1.2015;-5.0546;
204.3000;1.2007;-5.0468;
204.6000;1.1998;-5.0494;
204.9000;1.2047;-5.0312;
205.2000;1.1998;-5.0468;
205.5000;1.2039;-5.0338;
205.8000;1.2023;-5.0416;
206.1000;1.2023;-5.0494;
206.4000;1.2023;-5.0520;
206.7000;1.2039;-5.0546;
207.0000;1.2031;-5.0572;
207.3000;1.2007;-5.0494;
207.6000;1.2023;-5.0442;
207.9000;1.2007;-5.0442;
208.2000;1.2023;-5.0338;
208.5000;1.2031;-5.0209;
208.8000;1.1966;-5.0286;
209.1000;1.2015;-5.0235;
209.4000;1.2015;-5.0209;
209.7000;1.1998;-5.0338;
210.0000;1.1998;-5.0209;
210.3000;1.1966;-5.0235;
210.6000;1.2007;-5.0183;
210.9000;1.2023;-5.0286;
211.2000;1.2023;-5.0286;
211.5000;1.2007;-5.0286;
211.8000;1.2007;-5.0183;
212.1000;1.2007;-5.0157;
212.4000;1.2015;-5.0131;
212.7000;1.1990;-5.0157;
213.0000;1.2007;-5.0286;
213.3000;1.2007;-5.0364;
213.6000;1.1998;-5.0442;
213.9000;1.1982;-5.0416;
214.2000;1.1998;-5.0338;
214.5000;1.2015;-5.0312;
214.8000;1.2023;-5.0338;
215.1000;1.2015;-5.0312;
215.4000;1.2015;-5.0312;
215.7000;1.2039;-5.0235;
216.0000;1.2015;-5.0209;
216.3000;1.2023;-5.0131;
216.6000;1.1966;-5.0209;
216.9000;1.2007;-5.0079;
217.2000;1.2023;-5.0105;
217.5000;1.2023;-5.0131;
217.8000;1.2023;-5.0183;
218.1000;1.2015;-5.0157;
218.4000;1.2023;-5.0105;
218.7000;1.2007;-5.0209;
219.0000;1.2039;-5.0209;
219.3000;1.2015;-5.0261;
219.6000;1.1998;-5.0209;
219.9000;1.2015;-5.0157;
220.2000;1.1958;-5.0261;
220.5000;1.1998;-5.0312;
220.8000;1.2007;-5.0390;
221.1000;1.2007;-5.0416;
221.4000;1.1998;-5.0442;
221.7000;1.2015;-5.0364;
222.0000;1.1998;-5.0416;
222.3000;1.2007;-5.0364;
222.6000;1.2007;-5.0338;
222.9000;1.2031;-5.0235;
223.2000;1.1982;-5.0364;
223.5000;1.2015;-5.0209;
223.8000;1.2007;-5.0209;
224.1000;1.1998;-5.0183;
224.4000;1.2015;-5.0183;
224.7000;1.2031;-5.0235;
225.0000;1.2023;-5.0312;
225.3000;1.1998;-5.0390;
225.6000;1.1998;-5.0364;
225.9000;1.1998;-5.0338;
226.2000;1.2007;-5.0286;
226.5000;1.2031;-5.0209;
226.8000;1.1998;-5.0338;
227.1000;1.1982;-5.0312;
227.4000;1.2023;-5.0183;
227.7000;1.2007;-5.0235;
228.0000;1.2031;-5.0286;
228.3000;1.2007;-5.0364;
228.6000;1.2007;-5.0390;
228.9000;1.2015;-5.0338;
229.2000;1.2007;-5.0364;
229.5000;1.1982;-5.0468;
229.8000;1.2007;-5.0468;
230.1000;1.2031;-5.0442;
230.4000;1.2007;-5.0416;
230.7000;1.2007;-5.0390;
231.0000;1.2015;-5.0390;
231.3000;1.2007;-5.0416;
231.6000;1.2007;-5.0364;
231.9000;1.2015;-5.0364;
232.2000;1.2015;-5.0261;
232.5000;1.2023;-5.0364;
232.8000;1.2007;-5.0416;
233.1000;1.2007;-5.0416;
233.4000;1.2007;-5.0416;
233.7000;1.1917;-5.0676;
234.0000;1.2023;-5.0390;
234.3000;1.1998;-5.0494;
234.6000;1.2007;-5.0520;
234.9000;1.2023;-5.0468;
235.2000;1.2063;-5.0468;
235.5000;1.1998;-5.0572;
235.8000;1.1998;-5.0468;
236.1000;1.2031;-5.0364;
236.4000;1.1966;-5.0468;
236.7000;1.1998;-5.0364;
237.0000;1.1982;-5.0338;
237.3000;1.2007;-5.0261;
237.6000;1.2015;-5.0235;
237.9000;1.2015;-5.0338;
238.2000;1.1998;-5.0442;
238.5000;1.1982;-5.0546;
238.8000;1.2015;-5.0494;
239.1000;1.2023;-5.0442;
239.4000;1.1998;-5.0442;
239.7000;1.2007;-5.0442;
240.0000;1.2023;-5.0416;
240.3000;1.2015;-5.0416;
240.6000;1.2015;-5.0364;
240.9000;1.2007;-5.0338;
241.2000;1.1966;-5.0442;
241.5000;1.1998;-5.0364;
241.8000;1.1998;-5.0390;
242.1000;1.1990;-5.0364;
242.4000;1.2007;-5.0416;
242.7000;1.2007;-5.0390;
243.0000;1.2007;-5.0338;
243.3000;1.2015;-5.0286;
243.6000;1.1998;-5.0261;
243.9000;1.2015;-5.0209;
244.2000;1.2007;-5.0209;
244.5000;1.1990;-5.0235;
244.8000;1.1998;-5.0157;
245.1000;1.1950;-5.0286;
245.4000;1.2015;-5.0209;
245.7000;1.1998;-5.0286;
246.0000;1.1998;-5.0261;
246.3000;1.2015;-5.0209;
246.6000;1.2023;-5.0209;
246.9000;1.1998;-5.0312;
247.2000;1.2015;-5.0183;
247.5000;1.2007;-5.0235;
247.8000;1.2023;-5.0157;
248.1000;1.2015;-5.0157;
248.4000;1.1998;-5.0157;
248.7000;1.1998;-5.0286;
249.0000;1.1998;-5.0286;
249.3000;1.2039;-5.0183;
249.6000;1.1998;-5.0183;
249.9000;1.1998;-5.0209;
250.2000;1.1982;-5.0235;
250.5000;1.2039;-5.0209;
250.8000;1.2007;-5.0209;
251.1000;1.1990;-5.0235;
251.4000;1.2007;-5.0183;
251.7000;1.2007;-5.0209;
252.0000;1.1982;-5.0338;
252.3000;1.2007;-5.0235;
252.6000;1.2007;-5.0235;
252.9000;1.2015;-5.0261;
253.2000;1.2023;-5.0157;
253.5000;1.2023;-5.0183;
253.8000;1.2015;-5.0209;
254.1000;1.2031;-5.0183;
254.4000;1.2072;-5.0105;
254.7000;1.2015;-5.0183;
255.0000;1.2015;-5.0183;
255.3000;1.2031;-5.0157;
255.6000;1.2023;-5.0105;
255.9000;1.1998;-5.0235;
256.2000;1.1982;-5.0235;
256.5000;1.2007;-5.0338;
256.8000;1.2023;-5.0416;
257.1000;1.1998;-5.0468;
257.4000;1.2007;-5.0468;
257.7000;1.1998;-5.0494;
258.0000;1.2015;-5.0546;
258.3000;1.2023;-5.0520;
258.6000;1.2015;-5.0494;
258.9000;1.2007;-5.0546;
259.2000;1.2007;-5.0546;
259.5000;1.2039;-5.0546;
259.8000;1.2015;-5.0572;
260.1000;1.2015;-5.0390;
260.4000;1.2015;-5.0364;
260.7000;1.2015;-5.0286;
261.0000;1.2015;-5.0261;
261.3000;1.1982;-5.0338;
261.6000;1.1998;-5.0364;
261.9000;1.2015;-5.0416;
262.2000;1.2015;-5.0390;
262.5000;1.1998;-5.0416;
262.8000;1.2015;-5.0364;
263.1000;1.2080;-5.0235;
263.4000;1.2015;-5.0338;
263.7000;1.2031;-5.0312;
264.0000;1.2015;-5.0416;
264.3000;1.2015;-5.0364;
264.6000;1.2007;-5.0312;
264.9000;1.2015;-5.0261;
265.2000;1.2015;-5.0286;
265.5000;1.1974;-5.0416;
265.8000;1.2023;-5.0338;
266.1000;1.1998;-5.0364;
266.4000;1.2007;-5.0286;
266.7000;1.1998;-5.0312;
267.0000;1.2007;-5.0338;
267.3000;1.2015;-5.0261;
267.6000;1.2007;-5.0235;
267.9000;1.1998;-5.0286;
268.2000;1.2007;-5.0261;
268.5000;1.2007;-5.0312;
268.8000;1.2015;-5.0261;
269.1000;1.2015;-5.0235;
269.4000;1.2023;-5.0286;
269.7000;1.2015;-5.0312;
270.0000;1.2015;-5.0235;
270.3000;1.2015;-5.0209;
270.6000;1.2007;-5.0235;
270.9000;1.2023;-5.0183;
271.2000;1.2039;-5.0157;
271.5000;1.2007;-5.0183;
271.8000;1.2015;-5.0209;
272.1000;1.2015;-5.0286;
272.4000;1.2015;-5.0338;
272.7000;1.2015;-5.0312;
273.0000;1.1998;-5.0312;
273.3000;1.1990;-5.0338;
273.6000;1.2015;-5.0416;
273.9000;1.2015;-5.0390;
274.2000;1.2015;-5.0390;
274.5000;1.2007;-5.0390;
274.8000;1.2007;-5.0312;
275.1000;1.1990;-5.0390;
275.4000;1.1982;-5.0338;
275.7000;1.1990;-5.0364;
276.0000;1.1990;-5.0390;
276.3000;1.1998;-5.0364;
276.6000;1.1974;-5.0546;
276.9000;1.1998;-5.0520;
277.2000;1.1998;-5.0312;
277.5000;1.1974;-5.0390;
277.8000;1.2007;-5.0390;
278.1000;1.1982;-5.0390;
278.4000;1.2007;-5.0416;
278.7000;1.1990;-5.0338;
279.0000;1.2023;-5.0338;
279.3000;1.1982;-5.0442;
279.6000;1.2007;-5.0286;
279.9000;1.2007;-5.0312;
280.2000;1.2023;-5.0338;
280.5000;1.2015;-5.0312;
280.8000;1.2015;-5.0312;
281.1000;1.2007;-5.0338;
281.4000;1.2031;-5.0312;
281.7000;1.2031;-5.0209;
282.0000;1.1998;-5.0235;
282.3000;1.2007;-5.0183;
282.6000;1.2015;-5.0235;
282.9000;1.2015;-5.0209;
283.2000;1.1990;-5.0183;
283.5000;1.1998;-5.0183;
283.8000;1.1901;-5.0364;
284.1000;1.1998;-5.0157;
284.4000;1.2007;-5.0131;
284.7000;1.1998;-5.0286;
285.0000;1.2007;-5.0286;
285.3000;1.2031;-5.0312;
285.6000;1.2007;-5.0286;
285.9000;1.2015;-5.0183;
286.2000;1.1990;-5.0131;
286.5000;1.2007;-5.0053;
286.8000;1.2007;-5.0157;
287.1000;1.1998;-5.0209;
287.4000;1.1998;-5.0157;
287.7000;1.1990;-5.0131;
288.0000;1.1998;-5.0157;
288.3000;1.1958;-5.0338;
288.6000;1.1998;-5.0312;
288.9000;1.2007;-5.0286;
289.2000;1.1982;-5.0364;
289.5000;1.1998;-5.0338;
289.8000;1.1974;-5.0312;
290.1000;1.1998;-5.0338;
290.4000;1.1998;-5.0364;
290.7000;1.1990;-5.0390;
291.0000;1.1982;-5.0468;
291.3000;1.2007;-5.0442;
291.6000;1.2007;-5.0338;
291.9000;1.2007;-5.0338;
292.2000;1.1998;-5.0338;
292.5000;1.1990;-5.0312;
292.8000;1.1982;-5.0338;
293.1000;1.1974;-5.0338;
293.4000;1.1990;-5.0261;
293.7000;1.1990;-5.0209;
294.0000;1.1998;-5.0209;
294.3000;1.1990;-5.0312;
294.6000;1.1998;-5.0312;
294.9000;1.1982;-5.0286;
295.2000;1.2015;-5.0312;
295.5000;1.1998;-5.0338;
295.8000;1.2023;-5.0235;
296.1000;1.2007;-5.0286;
296.4000;1.2015;-5.0261;
296.7000;1.1990;-5.0338;
297.0000;1.2007;-5.0261;
297.3000;1.2007;-5.0364;
297.6000;1.1998;-5.0312;
297.9000;1.2015;-5.0261;
298.2000;1.2015;-5.0235;
298.5000;1.1950;-5.0312;
298.8000;1.1990;-5.0157;
299.1000;1.2007;-5.0157;
299.4000;1.2023;-5.0183;
299.7000;1.2007;-5.0286;
300.0000;1.2007;-5.0235;
300.3000;1.2015;-5.0235;
300.6000;1.1974;-5.0364;
300.9000;1.2015;-5.0261;
301.2000;1.1974;-5.0416;
301.5000;1.2007;-5.0312;
301.8000;1.1998;-5.0312;
302.1000;1.1998;-5.0364;
302.4000;1.1998;-5.0338;
302.7000;1.1998;-5.0364;
303.0000;1.1998;-5.0209;
303.3000;1.2063;-5.0053;
303.6000;1.1950;-5.0312;
303.9000;1.1974;-5.0235;
304.2000;1.2007;-5.0209;
304.5000;1.1974;-5.0364;
304.8000;1.1990;-5.0390;
305.1000;1.2007;-5.0338;
305.4000;1.1998;-5.0364;
305.7000;1.2096;-5.0235;
306.0000;1.1998;-5.0442;
306.3000;1.1998;-5.0442;
306.6000;1.2015;-5.0442;
306.9000;1.1974;-5.0520;
307.2000;1.1982;-5.0416;
307.5000;1.1998;-5.0390;
307.8000;1.2015;-5.0312;
308.1000;1.2007;-5.0338;
308.4000;1.1998;-5.0338;
308.7000;1.2015;-5.0338;
309.0000;1.1998;-5.0364;
309.3000;1.1998;-5.0286;
309.6000;1.2015;-5.0286;
309.9000;1.1998;-5.0416;
310.2000;1.1990;-5.0468;
310.5000;1.2007;-5.0364;
310.8000;1.1998;-5.0364;
311.1000;1.1998;-5.0390;
311.4000;1.1990;-5.0390;
311.7000;1.2015;-5.0442;
312.0000;1.2007;-5.0416;
312.3000;1.1998;-5.0442;
312.6000;1.1998;-5.0468;
312.9000;1.2055;-5.0286;
313.2000;1.2015;-5.0390;
313.5000;1.1998;-5.0442;
313.8000;1.1990;-5.0546;
314.1000;1.2007;-5.0442;
314.4000;1.2007;-5.0390;
314.7000;1.1998;-5.0442;
315.0000;1.1998;-5.0546;
315.3000;1.1998;-5.0520;
315.6000;1.2015;-5.0546;
315.9000;1.2031;-5.0572;
316.2000;1.2007;-5.0572;
316.5000;1.1990;-5.0546;
316.8000;1.2015;-5.0442;
317.1000;1.2007;-5.0468;
317.4000;1.1982;-5.0572;
317.7000;1.1998;-5.0494;
318.0000;1.1998;-5.0364;
318.3000;1.2015;-5.0261;
318.6000;1.1998;-5.0235;
318.9000;1.2015;-5.0183;
319.2000;1.2007;-5.0183;
319.5000;1.2015;-5.0157;
319.8000;1.2015;-5.0157;
320.1000;1.1990;-5.0235;
320.4000;1.2047;-5.0105;
320.7000;1.2015;-5.0261;
321.0000;1.2015;-5.0312;
321.3000;1.1998;-5.0338;
321.6000;1.2023;-5.0261;
321.9000;1.1998;-5.0312;
322.2000;1.1998;-5.0312;
322.5000;1.2023;-5.0364;
322.8000;1.1998;-5.0416;
323.1000;1.1998;-5.0364;
323.4000;1.2007;-5.0364;
323.7000;1.1990;-5.0416;
324.0000;1.1990;-5.0364;
324.3000;1.1958;-5.0416;
324.6000;1.2007;-5.0286;
324.9000;1.1998;-5.0235;
325.2000;1.1990;-5.0183;
325.5000;1.1990;-5.0235;
325.8000;1.1990;-5.0312;
326.1000;1.1998;-5.0286;
326.4000;1.1990;-5.0312;
326.7000;1.1998;-5.0312;
327.0000;1.1998;-5.0416;
327.3000;1.2063;-5.0261;
327.6000;1.2007;-5.0494;
327.9000;1.1933;-5.0676;
328.2000;1.2015;-5.0442;
328.5000;1.2031;-5.0364;
328.8000;1.1966;-5.0468;
329.1000;1.2007;-5.0286;
329.4000;1.2055;-5.0131;
329.7000;1.1998;-5.0235;
330.0000;1.2015;-5.0286;
330.3000;1.1998;-5.0338;
330.6000;1.1990;-5.0312;
330.9000;1.1998;-5.0286;
331.2000;1.1982;-5.0416;
331.5000;1.1966;-5.0416;
331.8000;1.1982;-5.0312;
332.1000;1.1998;-5.0312;
332.4000;1.1990;-5.0286;
332.7000;1.1917;-5.0494;
333.0000;1.1982;-5.0416;
333.3000;1.1998;-5.0390;
333.6000;1.1974;-5.0442;
333.9000;1.1998;-5.0416;
334.2000;1.1990;-5.0494;
334.5000;1.1990;-5.0520;
334.8000;1.2007;-5.0494;
335.1000;1.2007;-5.0520;
335.4000;1.1990;-5.0494;
335.7000;1.1958;-5.0598;
336.0000;1.1998;-5.0572;
336.3000;1.2007;-5.0520;
336.6000;1.2007;-5.0546;
336.9000;1.1982;-5.0598;
337.2000;1.1990;-5.0572;
337.5000;1.1990;-5.0468;
337.8000;1.1982;-5.0520;
338.1000;1.1990;-5.0494;
338.4000;1.1998;-5.0442;
338.7000;1.1990;-5.0364;
339.0000;1.1982;-5.0468;
339.3000;1.1990;-5.0468;
339.6000;1.1974;-5.0468;
339.9000;1.1998;-5.0312;
340.2000;1.2007;-5.0364;
340.5000;1.1990;-5.0442;
340.8000;1.1982;-5.0494;
341.1000;1.2015;-5.0390;
341.4000;1.2007;-5.0364;
341.7000;1.2007;-5.0338;
342.0000;1.2007;-5.0286;
342.3000;1.1974;-5.0390;
342.6000;1.1998;-5.0338;
342.9000;1.1990;-5.0390;
343.2000;1.1998;-5.0312;
343.5000;1.2007;-5.0261;
343.8000;1.1998;-5.0312;
344.1000;1.1998;-5.0312;
344.4000;1.2031;-5.0209;
344.7000;1.1990;-5.0442;
345.0000;1.1998;-5.0468;
345.3000;1.2007;-5.0364;
345.6000;1.2007;-5.0286;
345.9000;1.1990;-5.0209;
346.2000;1.1982;-5.0261;
346.5000;1.1998;-5.0157;
346.8000;1.1998;-5.0105;
347.1000;1.1990;-5.0183;
347.4000;1.1998;-5.0183;
347.7000;1.2015;-5.0105;
348.0000;1.2055;-5.0027;
348.3000;1.1974;-5.0235;
348.6000;1.2007;-5.0235;
348.9000;1.1998;-5.0261;
349.2000;1.1990;-5.0312;
349.5000;1.2015;-5.0261;
349.8000;1.1990;-5.0261;
350.1000;1.2015;-5.0209;
350.4000;1.1990;-5.0131;
350.7000;1.2023;-5.0105;
351.0000;1.2007;-5.0131;
351.3000;1.2031;-5.0079;
351.6000;1.1982;-5.0209;
351.9000;1.1966;-5.0183;
352.2000;1.2023;-5.0027;
352.5000;1.1998;-5.0079;
352.8000;1.2015;-5.0131;
353.1000;1.2072;-4.9923;
353.4000;1.2007;-5.0105;
353.7000;1.2015;-5.0027;
354.0000;1.2047;-4.9949;
354.3000;1.1998;-5.0027;
354.6000;1.1990;-5.0105;
354.9000;1.1998;-5.0027;
355.2000;1.1998;-5.0001;
355.5000;1.1958;-5.0235;
355.8000;1.1998;-5.0157;
356.1000;1.1998;-5.0157;
356.4000;1.1990;-5.0235;
356.7000;1.1990;-5.0235;
357.0000;1.2007;-5.0261;
357.3000;1.1990;-5.0261;
357.6000;1.2031;-5.0209;
357.9000;1.2015;-5.0235;
358.2000;1.2007;-5.0364;
358.5000;1.1998;-5.0416;
358.8000;1.1998;-5.0364;
359.1000;1.2023;-5.0131;
359.4000;1.2015;-5.0105;
359.7000;1.2015;-5.0105;
360.0000;1.1998;-5.0053;
360.3000;1.1998;-4.9975;
360.6000;1.1998;-5.0079;
360.9000;1.1998;-5.0079;
361.2000;1.2007;-4.9949;
361.5000;1.1982;-4.9949;
361.8000;1.1990;-4.9975;
362.1000;1.2023;-5.0053;
362.4000;1.1998;-5.0079;
362.7000;1.2007;-5.0027;
363.0000;1.2015;-5.0027;
363.3000;1.1998;-5.0053;
363.6000;1.1990;-5.0131;
363.9000;1.2015;-5.0157;
364.2000;1.2015;-5.0079;
364.5000;1.1990;-5.0079;
364.8000;1.1990;-5.0209;
365.1000;1.1998;-5.0235;
365.4000;1.2007;-5.0235;
365.7000;1.2007;-5.0183;
366.0000;1.2015;-5.0053;
366.3000;1.1990;-5.0079;
366.6000;1.1990;-5.0105;
366.9000;1.2007;-5.0079;
367.2000;1.1998;-5.0105;
367.5000;1.1990;-5.0157;
367.8000;1.1990;-5.0157;
368.1000;1.1958;-5.0183;
368.4000;1.2007;-5.0079;
368.7000;1.2007;-5.0053;
369.0000;1.1990;-5.0079;
369.3000;1.2023;-5.0053;
369.6000;1.1974;-5.0131;
369.9000;1.1974;-5.0157;
370.2000;1.1990;-5.0079;
370.5000;1.1958;-5.0235;
370.8000;1.1982;-5.0157;
371.1000;1.1998;-5.0079;
371.4000;1.1990;-5.0131;
371.7000;1.1998;-5.0157;
372.0000;1.2023;-5.0105;
372.3000;1.1998;-5.0183;
372.6000;1.1998;-5.0183;
372.9000;1.1974;-5.0261;
373.2000;1.1990;-5.0235;
373.5000;1.2007;-5.0183;
373.8000;1.2015;-5.0235;
374.1000;1.1974;-5.0416;
374.4000;1.2047;-5.0235;
374.7000;1.2129;-4.9897;
375.0000;1.1990;-5.0261;
375.3000;1.1990;-5.0261;
375.6000;1.1990;-5.0261;
375.9000;1.1998;-5.0183;
376.2000;1.2015;-5.0131;
376.5000;1.1998;-5.0131;
376.8000;1.2015;-5.0027;
377.1000;1.1990;-5.0131;
377.4000;1.1990;-5.0131;
377.7000;1.1974;-5.0001;
378.0000;1.1966;-5.0079;
378.3000;1.1982;-5.0053;
378.6000;1.1998;-5.0105;
378.9000;1.2063;-5.0027;
379.2000;1.1966;-5.0235;
379.5000;1.2007;-5.0209;
379.8000;1.1998;-5.0209;
380.1000;1.1998;-5.0235;
380.4000;1.2031;-5.0209;
380.7000;1.1990;-5.0261;
381.0000;1.1998;-5.0131;
381.3000;1.1982;-5.0079;
381.6000;1.1990;-5.0235;
381.9000;1.1990;-5.0261;
382.2000;1.1982;-5.0261;
382.5000;1.1998;-5.0183;
382.8000;1.2015;-5.0157;
383.1000;1.1990;-5.0261;
383.4000;1.1990;-5.0312;
383.7000;1.1982;-5.0312;
384.0000;1.1998;-5.0261;
384.3000;1.1998;-5.0286;
384.6000;1.2007;-5.0235;
384.9000;1.2023;-5.0286;
385.2000;1.2007;-5.0235;
385.5000;1.2007;-5.0131;
385.8000;1.2007;-5.0157;
386.1000;1.1998;-5.0131;
386.4000;1.2007;-5.0131;
386.7000;1.1990;-5.0261;
387.0000;1.1990;-5.0209;
387.3000;1.1990;-5.0131;
387.6000;1.1990;-5.0105;
387.9000;1.1990;-5.0079;
388.2000;1.1998;-5.0027;
388.5000;1.2007;-5.0131;
388.8000;1.1998;-5.0157;
389.1000;1.1990;-5.0157;
389.4000;1.1982;-5.0157;
389.7000;1.2007;-5.0183;
390.0000;1.1998;-5.0157;
390.3000;1.2007;-5.0131;
390.6000;1.1958;-5.0286;
390.9000;1.2007;-5.0261;
391.2000;1.2015;-5.0209;
391.5000;1.2023;-5.0183;
391.8000;1.1990;-5.0235;
392.1000;1.2047;-5.0157;
392.4000;1.1998;-5.0286;
392.7000;1.2023;-5.0183;
393.0000;1.2007;-5.0209;
393.3000;1.1950;-5.0390;
393.6000;1.2047;-5.0209;
393.9000;1.1998;-5.0261;
394.2000;1.2063;-5.0183;
394.5000;1.1950;-5.0520;
394.8000;1.2031;-5.0312;
395.1000;1.2007;-5.0390;
395.4000;1.1933;-5.0650;
395.7000;1.2015;-5.0390;
396.0000;1.1990;-5.0442;
396.3000;1.2080;-5.0209;
396.6000;1.2023;-5.0312;
396.9000;1.1974;-5.0442;
397.2000;1.2015;-5.0312;
397.5000;1.1990;-5.0286;
397.8000;1.1998;-5.0261;
398.1000;1.1998;-5.0364;
398.4000;1.2063;-5.0079;
398.7000;1.1990;-5.0312;
399.0000;1.1990;-5.0286;
399.3000;1.1982;-5.0364;
399.6000;1.1990;-5.0338;
399.9000;1.1998;-5.0390;
400.2000;1.1990;-5.0312;
400.5000;1.1990;-5.0235;
400.8000;1.1998;-5.0183;
401.1000;1.1998;-5.0105;
401.4000;1.1982;-5.0001;
401.7000;1.1990;-4.9897;
402.0000;1.1990;-5.0001;
402.3000;1.1998;-4.9949;
402.6000;1.1998;-4.9897;
402.9000;1.1990;-4.9975;
403.2000;1.1982;-5.0105;
403.5000;1.1982;-5.0157;
403.8000;1.1998;-5.0105;
404.1000;1.2015;-5.0131;
404.4000;1.1982;-5.0131;
404.7000;1.1990;-5.0157;
405.0000;1.2015;-5.0079;
405.3000;1.1998;-5.0131;
405.6000;1.2007;-5.0053;
405.9000;1.1998;-5.0001;
406.2000;1.1990;-5.0001;
406.5000;1.1974;-5.0105;
406.8000;1.1990;-5.0105;
407.1000;1.1982;-5.0105;
407.4000;1.1990;-5.0079;
407.7000;1.1982;-5.0131;
408.0000;1.1974;-5.0105;
408.3000;1.1990;-5.0105;
408.6000;1.1982;-5.0157;
408.9000;1.1990;-5.0312;
409.2000;1.1998;-5.0312;
409.5000;1.1990;-5.0235;
409.8000;1.1982;-5.0261;
410.1000;1.1982;-5.0286;
410.4000;1.1990;-5.0261;
410.7000;1.1998;-5.0261;
411.0000;1.1982;-5.0235;
411.3000;1.2007;-5.0286;
411.6000;1.1998;-5.0183;
411.9000;1.2007;-5.0131;
412.2000;1.1982;-5.0105;
412.5000;1.1941;-5.0131;
412.8000;1.1998;-4.9975;
413.1000;1.2007;-5.0027;
413.4000;1.1998;-5.0079;
413.7000;1.1990;-5.0157;
414.0000;1.1990;-5.0286;
414.3000;1.1966;-5.0364;
414.6000;1.2007;-5.0209;
414.9000;1.1982;-5.0183;
415.2000;1.2047;-5.0001;
415.5000;1.2015;-5.0053;
415.8000;1.2007;-5.0157;
416.1000;1.1990;-5.0261;
416.4000;1.1966;-5.0312;
416.7000;1.1998;-5.0183;
417.0000;1.1998;-5.0183;
417.3000;1.1990;-5.0183;
417.6000;1.1982;-5.0183;
417.9000;1.1998;-5.0183;
418.2000;1.1982;-5.0157;
418.5000;1.1982;-5.0183;
418.8000;1.1966;-5.0261;
419.1000;1.1998;-5.0209;
419.4000;1.1966;-5.0338;
419.7000;1.2007;-5.0261;
420.0000;1.1990;-5.0131;
420.3000;1.1982;-5.0183;
420.6000;1.1966;-5.0261;
420.9000;1.1990;-5.0235;
421.2000;1.1974;-5.0286;
421.5000;1.1990;-5.0235;
421.8000;1.2055;-5.0079;
422.1000;1.1990;-5.0261;
422.4000;1.2039;-5.0209;
422.7000;1.2015;-5.0261;
423.0000;1.1990;-5.0235;
423.3000;1.1974;-5.0261;
423.6000;1.1990;-5.0183;
423.9000;1.1990;-5.0209;
424.2000;1.1998;-5.0235;
424.5000;1.2007;-5.0235;
424.8000;1.1974;-5.0338;
425.1000;1.1990;-5.0312;
425.4000;1.2072;-5.0001;
425.7000;1.1990;-5.0261;
426.0000;1.1990;-5.0209;
426.3000;1.1974;-5.0183;
426.6000;1.1982;-5.0105;
426.9000;1.1990;-5.0027;
427.2000;1.1990;-5.0157;
427.5000;1.1982;-5.0105;
427.8000;1.1966;-5.0131;
428.1000;1.1982;-5.0183;
428.4000;1.1990;-5.0312;
428.7000;1.1982;-5.0416;
429.0000;1.1974;-5.0468;
429.3000;1.1998;-5.0442;
429.6000;1.1998;-5.0468;
429.9000;1.1990;-5.0364;
430.2000;1.1990;-5.0338;
430.5000;1.1998;-5.0286;
430.8000;1.1990;-5.0286;
431.1000;1.1998;-5.0261;
431.4000;1.1990;-5.0209;
431.7000;1.1998;-5.0235;
432.0000;1.2047;-5.0157;
432.3000;1.1998;-5.0209;
432.6000;1.1990;-5.0183;
432.9000;1.1982;-5.0183;
433.2000;1.1990;-5.0183;
433.5000;1.1998;-5.0209;
433.8000;1.1990;-5.0183;
434.1000;1.1982;-5.0235;
434.4000;1.1990;-5.0183;
434.7000;1.1998;-5.0183;
435.0000;1.1990;-5.0235;
435.3000;1.2007;-5.0261;
435.6000;1.1998;-5.0235;
435.9000;1.1998;-5.0183;
436.2000;1.1974;-5.0235;
436.5000;1.1990;-5.0235;
436.8000;1.1990;-5.0286;
437.1000;1.1990;-5.0312;
437.4000;1.1982;-5.0338;
437.7000;1.1990;-5.0286;
438.0000;1.1998;-5.0364;
438.3000;1.1974;-5.0494;
438.6000;1.1998;-5.0416;
438.9000;1.1990;-5.0364;
439.2000;1.1966;-5.0416;
439.5000;1.1982;-5.0390;
439.8000;1.1966;-5.0312;
440.1000;1.1998;-5.0261;
440.4000;1.1998;-5.0209;
440.7000;1.2023;-5.0131;
441.0000;1.1990;-5.0235;
441.3000;1.1998;-5.0157;
441.6000;1.1990;-5.0157;
441.9000;1.1974;-5.0157;
442.2000;1.1990;-5.0157;
442.5000;1.1990;-5.0183;
442.8000;1.1998;-5.0131;
443.1000;1.1990;-5.0131;
443.4000;1.1982;-5.0235;
443.7000;1.1901;-5.0468;
444.0000;1.1933;-5.0338;
444.3000;1.1990;-5.0235;
444.6000;1.1990;-5.0312;
444.9000;1.1966;-5.0338;
445.2000;1.1941;-5.0312;
445.5000;1.1990;-5.0131;
445.8000;1.1950;-5.0261;
446.1000;1.1990;-5.0157;
446.4000;1.1990;-5.0235;
446.7000;1.1998;-5.0105;
447.0000;1.1974;-5.0105;
447.3000;1.1998;-5.0079;
447.6000;1.1998;-5.0079;
447.9000;1.1966;-5.0157;
448.2000;1.1982;-5.0105;
448.5000;1.1982;-5.0183;
448.8000;1.1974;-5.0183;
449.1000;1.1982;-5.0235;
449.4000;1.1966;-5.0261;
449.7000;1.1982;-5.0183;
450.0000;1.2007;-5.0053;
450.3000;1.1990;-5.0157;
450.6000;1.1990;-5.0209;
450.9000;1.1974;-5.0364;
451.2000;1.1998;-5.0261;
451.5000;1.1998;-5.0261;
451.8000;1.1998;-5.0286;
452.1000;1.1933;-5.0364;
452.4000;1.2072;-5.0027;
452.7000;1.2007;-5.0209;
453.0000;1.1998;-5.0183;
453.3000;1.1982;-5.0209;
453.6000;1.1966;-5.0286;
453.9000;1.1998;-5.0209;
454.2000;1.1990;-5.0209;
454.5000;1.1982;-5.0209;
454.8000;1.1990;-5.0286;
455.1000;1.2007;-5.0286;
455.4000;1.1990;-5.0261;
455.7000;1.1982;-5.0286;
456.0000;1.1974;-5.0312;
456.3000;1.1990;-5.0209;
456.6000;1.1990;-5.0209;
456.9000;1.1982;-5.0364;
457.2000;1.1974;-5.0364;
457.5000;1.2007;-5.0235;
457.8000;1.2015;-5.0209;
458.1000;1.1974;-5.0312;
458.4000;1.1990;-5.0338;
458.7000;1.1982;-5.0364;
459.0000;1.1990;-5.0338;
459.3000;1.1966;-5.0416;
459.6000;1.1982;-5.0416;
459.9000;1.2023;-5.0312;
460.2000;1.2007;-5.0364;
460.5000;1.1990;-5.0390;
460.8000;1.1998;-5.0235;
461.1000;1.1982;-5.0312;
461.4000;1.1998;-5.0235;
461.7000;1.1982;-5.0261;
462.0000;1.1982;-5.0338;
462.3000;1.1990;-5.0261;
462.6000;1.1982;-5.0312;
462.9000;1.1998;-5.0235;
463.2000;1.1982;-5.0105;
463.5000;1.1941;-5.0157;
463.8000;1.1990;-5.0157;
464.1000;1.1966;-5.0235;
464.4000;1.1974;-5.0157;
464.7000;1.1941;-5.0261;
465.0000;1.1982;-5.0157;
465.3000;1.1982;-5.0131;
465.6000;1.1998;-5.0105;
465.9000;1.1974;-5.0157;
466.2000;1.1958;-5.0312;
466.5000;1.1990;-5.0312;
466.8000;1.1966;-5.0364;
467.1000;1.1982;-5.0338;
467.4000;1.1982;-5.0286;
467.7000;1.1974;-5.0183;
468.0000;1.1990;-5.0105;
468.3000;1.1990;-5.0131;
468.6000;1.1974;-5.0131;
468.9000;1.1974;-5.0183;
469.2000;1.1982;-5.0209;
469.5000;1.1966;-5.0183;
469.8000;1.1974;-5.0235;
470.1000;1.1958;-5.0261;
470.4000;1.1974;-5.0261;
470.7000;1.1990;-5.0209;
471.0000;1.1982;-5.0209;
471.3000;1.1990;-5.0209;
471.6000;1.1982;-5.0183;
471.9000;1.1990;-5.0131;
472.2000;1.2007;-5.0079;
472.5000;1.1966;-5.0079;
472.8000;1.1966;-5.0053;
473.1000;1.1990;-4.9975;
473.4000;1.2023;-4.9923;
473.7000;1.1982;-5.0027;
474.0000;1.1990;-5.0105;
474.3000;1.1982;-5.0157;
474.6000;1.1966;-5.0209;
474.9000;1.2031;-5.0157;
475.2000;1.1982;-5.0286;
475.5000;1.1990;-5.0235;
475.8000;1.1982;-5.0235;
476.1000;1.1974;-5.0235;
476.4000;1.1982;-5.0183;
476.7000;1.1982;-5.0053;
477.0000;1.1941;-5.0079;
477.3000;1.1990;-5.0105;
477.6000;1.1974;-5.0157;
477.9000;1.1982;-5.0209;
478.2000;1.1990;-5.0235;
478.5000;1.1990;-5.0235;
478.8000;1.1990;-5.0235;
479.1000;1.1982;-5.0261;
479.4000;1.1974;-5.0338;
479.7000;1.2007;-5.0235;
480.0000;1.2039;-5.0235;
480.3000;1.1958;-5.0468;
480.6000;1.1974;-5.0520;
480.9000;1.1990;-5.0494;
481.2000;1.1950;-5.0494;
481.5000;1.1990;-5.0390;
481.8000;1.2023;-5.0286;
482.1000;1.1901;-5.0624;
482.4000;1.1990;-5.0416;
482.7000;1.1982;-5.0442;
483.0000;1.1966;-5.0442;
483.3000;1.2031;-5.0235;
483.6000;1.1982;-5.0312;
483.9000;1.1990;-5.0390;
484.2000;1.1990;-5.0286;
484.5000;1.1982;-5.0261;
484.8000;1.1990;-5.0235;
485.1000;1.1974;-5.0338;
485.4000;1.1925;-5.0546;
485.7000;1.2007;-5.0416;
486.0000;1.1982;-5.0442;
486.3000;1.1950;-5.0572;
486.6000;1.1950;-5.0598;
486.9000;1.1998;-5.0468;
487.2000;1.2015;-5.0312;
487.5000;1.2039;-5.0261;
487.8000;1.1974;-5.0364;
488.1000;1.1933;-5.0442;
488.4000;1.1990;-5.0157;
488.7000;1.1998;-5.0183;
489.0000;1.1990;-5.0131;
489.3000;1.2063;-4.9846;
489.6000;1.1933;-5.0105;
489.9000;1.1982;-4.9975;
490.2000;1.1998;-5.0053;
490.5000;1.1974;-5.0157;
490.8000;1.2023;-5.0027;
491.1000;1.1974;-5.0079;
491.4000;1.1966;-5.0079;
491.7000;1.1966;-5.0001;
492.0000;1.1958;-4.9975;
492.3000;1.1966;-4.9975;
492.6000;1.1974;-5.0027;
492.9000;1.1974;-5.0157;
493.2000;1.1958;-5.0183;
493.5000;1.1966;-5.0209;
493.8000;1.1990;-5.0157;
494.1000;1.1998;-5.0105;
494.4000;1.1998;-5.0079;
494.7000;1.1998;-5.0079;
495.0000;1.2007;-5.0053;
495.3000;1.1982;-5.0053;
495.6000;1.1990;-5.0131;
495.9000;1.1941;-5.0261;
496.2000;1.1990;-5.0157;
496.5000;1.1982;-5.0235;
496.8000;1.1958;-5.0261;
497.1000;1.1974;-5.0183;
497.4000;1.1998;-5.0131;
497.7000;1.1998;-5.0157;
498.0000;1.1966;-5.0286;
498.3000;1.1982;-5.0312;
498.6000;1.1990;-5.0312;
498.9000;1.2007;-5.0235;
499.2000;1.1974;-5.0338;
499.5000;1.1950;-5.0494;
499.8000;1.1990;-5.0364;
500.1000;1.1982;-5.0338;
500.4000;1.1982;-5.0338;
500.7000;1.1974;-5.0338;
501.0000;1.1950;-5.0312;
501.3000;1.1966;-5.0235;
501.6000;1.1941;-5.0261;
501.9000;1.1974;-5.0183;
502.2000;1.1982;-5.0131;
502.5000;1.1917;-5.0131;
502.8000;1.1998;-5.0027;
503.1000;1.1982;-5.0053;
503.4000;1.1990;-4.9949;
503.7000;1.2031;-4.9820;
504.0000;1.1982;-5.0001;
504.3000;1.1998;-5.0001;
504.6000;1.1966;-4.9975;
504.9000;1.1974;-4.9949;
505.2000;1.1990;-4.9949;
505.5000;1.1982;-4.9923;
505.8000;1.1974;-4.9949;
506.1000;1.1982;-4.9923;
506.4000;1.1966;-5.0027;
506.7000;1.1958;-5.0105;
507.0000;1.1966;-5.0105;
507.3000;1.1990;-5.0001;
507.6000;1.1998;-5.0027;
507.9000;1.1990;-5.0053;
508.2000;1.2039;-4.9846;
508.5000;1.1974;-5.0053;
508.8000;1.1974;-5.0001;
509.1000;1.2007;-4.9872;
509.4000;1.2063;-4.9690;
509.7000;1.1974;-4.9923;
510.0000;1.1974;-4.9872;
510.3000;1.1966;-4.9897;
510.6000;1.1966;-4.9923;
510.9000;1.1958;-4.9949;
511.2000;1.1958;-4.9975;
511.5000;1.2023;-4.9846;
511.8000;1.1958;-4.9949;
512.1000;1.1958;-4.9897;
512.4000;1.1966;-4.9872;
512.7000;1.1958;-4.9897;
513.0000;1.1974;-4.9949;
513.3000;1.1966;-4.9949;
513.6000;1.1925;-5.0027;
513.9000;1.1974;-4.9923;
514.2000;1.1974;-4.9949;
514.5000;1.1974;-4.9949;
514.8000;1.1982;-4.9923;
515.1000;1.1990;-4.9897;
515.4000;1.1966;-5.0001;
515.7000;1.1974;-4.9975;
516.0000;1.1982;-5.0001;
516.3000;1.1958;-5.0053;
516.6000;1.1982;-4.9975;
516.9000;1.1966;-5.0001;
517.2000;1.1982;-4.9949;
517.5000;1.1990;-5.0027;
517.8000;1.1982;-5.0053;
518.1000;1.1974;-5.0105;
518.4000;1.1990;-5.0053;
518.7000;1.1990;-5.0105;
519.0000;1.1990;-5.0079;
519.3000;1.1990;-5.0001;
519.6000;1.1990;-4.9923;
519.9000;1.1941;-5.0027;
520.2000;1.1998;-4.9872;
520.5000;1.1998;-4.9846;
520.8000;1.2007;-4.9872;
521.1000;1.1974;-4.9949;
521.4000;1.1966;-5.0027;
521.7000;1.1974;-5.0027;
522.0000;1.1982;-5.0053;
522.3000;1.1966;-5.0053;
522.6000;1.1974;-5.0027;
522.9000;1.1974;-4.9949;
523.2000;1.1982;-4.9872;
523.5000;1.1974;-4.9897;
523.8000;1.1998;-4.9794;
524.1000;1.1917;-5.0027;
524.4000;1.1998;-4.9846;
524.7000;1.1966;-5.0027;
525.0000;1.1974;-4.9975;
525.3000;1.1974;-4.9923;
525.6000;1.1950;-4.9949;
525.9000;1.1974;-4.9923;
526.2000;1.1974;-5.0053;
526.5000;1.1950;-5.0183;
526.8000;1.1966;-5.0105;
527.1000;1.1974;-4.9897;
527.4000;1.1966;-4.9846;
527.7000;1.1958;-4.9949;
528.0000;1.1990;-4.9949;
528.3000;1.1990;-4.9846;
528.6000;1.1958;-4.9949;
528.9000;1.1958;-5.0027;
529.2000;1.1950;-5.0053;
529.5000;1.1990;-4.9975;
529.8000;1.1974;-5.0079;
530.1000;1.1974;-5.0079;
530.4000;1.1982;-5.0131;
530.7000;1.1982;-5.0183;
531.0000;1.1998;-5.0105;
531.3000;1.1990;-5.0079;
531.6000;1.1982;-5.0157;
531.9000;1.1998;-5.0183;
532.2000;1.1933;-5.0364;
532.5000;1.1933;-5.0312;
532.8000;1.1966;-5.0183;
533.1000;1.1966;-5.0105;
533.4000;1.1917;-5.0364;
533.7000;1.2007;-5.0079;
534.0000;1.1990;-5.0183;
534.3000;1.1933;-5.0312;
534.6000;1.1982;-5.0261;
534.9000;1.1982;-5.0312;
535.2000;1.1901;-5.0520;
535.5000;1.2055;-5.0157;
535.8000;1.1982;-5.0338;
536.1000;1.1982;-5.0312;
536.4000;1.1990;-5.0286;
536.7000;1.1966;-5.0286;
537.0000;1.1966;-5.0157;
537.3000;1.1958;-5.0131;
537.6000;1.1958;-5.0105;
537.9000;1.1958;-4.9975;
538.2000;1.1982;-4.9897;
538.5000;1.1950;-5.0027;
538.8000;1.1974;-5.0079;
539.1000;1.1974;-5.0053;
539.4000;1.1958;-5.0131;
539.7000;1.1966;-5.0053;
540.0000;1.1958;-5.0053;
540.3000;1.1982;-5.0001;
540.6000;1.1974;-5.0053;
540.9000;1.1990;-5.0079;
541.2000;1.1933;-5.0235;
541.5000;1.1990;-5.0079;
541.8000;1.1958;-5.0105;
542.1000;1.1974;-5.0079;
542.4000;1.1966;-5.0053;
542.7000;1.1966;-4.9949;
543.0000;1.1958;-4.9975;
543.3000;1.1990;-4.9975;
543.6000;1.1966;-4.9975;
543.9000;1.1990;-4.9897;
544.2000;1.1974;-4.9872;
544.5000;1.1958;-4.9949;
544.8000;1.1958;-4.9975;
545.1000;1.1966;-4.9897;
545.4000;1.1933;-5.0001;
545.7000;1.1974;-5.0001;
546.0000;1.1925;-5.0157;
546.3000;1.1974;-5.0105;
546.6000;1.1958;-5.0157;
546.9000;1.1958;-5.0157;
547.2000;1.1950;-5.0235;
547.5000;1.1958;-5.0131;
547.8000;1.2047;-4.9846;
548.1000;1.1974;-5.0053;
548.4000;1.1974;-5.0079;
548.7000;1.1990;-5.0027;
549.0000;1.2063;-4.9794;
549.3000;1.1958;-4.9897;
549.6000;1.1982;-4.9820;
549.9000;1.1950;-4.9949;
550.2000;1.1990;-4.9846;
550.5000;1.1933;-5.0001;
550.8000;1.1974;-4.9949;
551.1000;1.1990;-4.9975;
551.4000;1.1982;-5.0027;
551.7000;1.1982;-5.0027;
552.0000;1.1950;-5.0053;
552.3000;1.1941;-5.0105;
552.6000;1.1974;-5.0027;
552.9000;1.1958;-5.0001;
553.2000;1.1974;-4.9923;
553.5000;1.1966;-5.0079;
553.8000;1.1974;-5.0027;
554.1000;1.1966;-5.0131;
554.4000;1.1974;-5.0157;
554.7000;1.1958;-5.0131;
555.0000;1.1966;-5.0131;
555.3000;1.1950;-5.0209;
555.6000;1.1974;-5.0235;
555.9000;1.1950;-5.0235;
556.2000;1.1966;-5.0157;
556.5000;1.1958;-5.0183;
556.8000;1.1950;-5.0261;
557.1000;1.1860;-5.0494;
557.4000;1.1941;-5.0261;
557.7000;1.1933;-5.0209;
558.0000;1.1974;-5.0131;
558.3000;1.1966;-5.0079;
558.6000;1.1966;-5.0079;
558.9000;1.1966;-5.0105;
559.2000;1.1901;-5.0079;
559.5000;1.1974;-4.9923;
559.8000;1.1974;-4.9949;
560.1000;1.1974;-5.0027;
560.4000;1.1966;-4.9923;
560.7000;1.1974;-4.9846;
561.0000;1.1941;-5.0001;
561.3000;1.1958;-4.9897;
561.6000;1.1982;-4.9846;
561.9000;1.1974;-4.9794;
562.2000;1.1933;-4.9872;
562.5000;1.1966;-4.9846;
562.8000;1.1966;-4.9846;
563.1000;1.1966;-4.9897;
563.4000;1.1966;-4.9923;
563.7000;1.1974;-4.9846;
564.0000;1.1966;-4.9794;
564.3000;1.1958;-4.9742;
564.6000;1.1974;-4.9768;
564.9000;1.1958;-4.9794;
565.2000;1.1966;-4.9923;
565.5000;1.1974;-4.9923;
565.8000;1.1966;-4.9872;
566.1000;1.1958;-4.9846;
566.4000;1.1941;-4.9846;
566.7000;1.1966;-4.9897;
567.0000;1.2031;-4.9716;
567.3000;1.1966;-4.9820;
567.6000;1.1982;-4.9846;
567.9000;1.1950;-4.9897;
568.2000;1.1950;-4.9949;
568.5000;1.1958;-4.9949;
568.8000;1.1958;-5.0027;
569.1000;1.1958;-4.9975;
569.4000;1.1982;-4.9923;
569.7000;1.1958;-4.9949;
570.0000;1.1958;-5.0001;
570.3000;1.1982;-4.9872;
570.6000;1.1982;-4.9846;
570.9000;1.1925;-4.9846;
571.2000;1.1950;-4.9768;
571.5000;1.1982;-4.9768;
571.8000;1.1974;-4.9716;
572.1000;1.1966;-4.9820;
572.4000;1.1990;-4.9820;
572.7000;1.1966;-4.9872;
573.0000;1.1966;-4.9872;
573.3000;1.2055;-4.9664;
573.6000;1.1958;-4.9897;
573.9000;1.1958;-4.9846;
574.2000;1.1974;-4.9794;
574.5000;1.1974;-4.9794;
574.8000;1.1950;-4.9949;
575.1000;1.1958;-4.9949;
575.4000;1.1974;-5.0001;
575.7000;1.1950;-5.0001;
576.0000;1.1958;-5.0027;
576.3000;1.1941;-5.0079;
576.6000;1.1974;-4.9846;
576.9000;1.1941;-4.9949;
577.2000;1.1950;-4.9975;
577.5000;1.1950;-5.0105;
577.8000;1.1958;-5.0001;
578.1000;1.1966;-5.0079;
578.4000;1.1958;-5.0131;
578.7000;1.1958;-5.0131;
579.0000;1.1941;-5.0157;
579.3000;1.1909;-5.0286;
579.6000;1.1941;-5.0131;
579.9000;1.1966;-5.0157;
580.2000;1.1966;-5.0209;
580.5000;1.1966;-5.0183;
580.8000;1.1974;-5.0131;
581.1000;1.1982;-5.0053;
581.4000;1.1958;-5.0131;
581.7000;1.2023;-5.0027;
582.0000;1.2023;-5.0001;
582.3000;1.1966;-5.0157;
582.6000;1.2015;-5.0053;
582.9000;1.1974;-5.0157;
583.2000;1.1966;-5.0157;
583.5000;1.1974;-5.0235;
583.8000;1.2007;-5.0105;
584.1000;1.1950;-5.0131;
584.4000;1.1950;-5.0053;
584.7000;1.1941;-5.0053;
585.0000;1.1958;-4.9975;
585.3000;1.1941;-4.9975;
585.6000;1.1941;-5.0079;
585.9000;1.1941;-5.0027;
586.2000;1.1925;-5.0001;
586.5000;1.1958;-4.9872;
586.8000;1.1950;-4.9872;
587.1000;1.1901;-5.0001;
587.4000;1.1982;-4.9820;
587.7000;1.1990;-4.9768;
588.0000;1.1950;-4.9794;
588.3000;1.1966;-4.9768;
588.6000;1.1950;-4.9768;
588.9000;1.1941;-4.9975;
589.2000;1.1958;-4.9975;
589.5000;1.1950;-4.9949;
589.8000;1.1958;-4.9949;
590.1000;1.1933;-4.9949;
590.4000;1.1950;-4.9872;
590.7000;1.1958;-4.9794;
591.0000;1.2055;-4.9534;
591.3000;1.1950;-4.9768;
591.6000;1.1958;-4.9794;
591.9000;1.1966;-4.9716;
592.2000;1.1950;-4.9716;
592.5000;1.1966;-4.9690;
592.8000;1.1966;-4.9820;
593.1000;1.1909;-5.0027;
593.4000;1.1958;-4.9897;
593.7000;1.1974;-4.9846;
594.0000;1.1966;-4.9846;
594.3000;1.1950;-4.9820;
594.6000;1.1966;-4.9820;
594.9000;1.1974;-4.9820;
595.2000;1.1974;-4.9820;
595.5000;1.1966;-4.9846;
595.8000;1.1950;-4.9872;
596.1000;1.1966;-4.9923;
596.4000;1.1958;-5.0001;
596.7000;1.1958;-4.9923;
597.0000;1.1941;-4.9923;
597.3000;1.1966;-4.9846;
597.6000;1.2015;-4.9768;
597.9000;1.1974;-4.9872;
598.2000;1.1958;-5.0001;
598.5000;1.1998;-4.9897;
598.8000;1.1966;-4.9872;
599.1000;1.1933;-5.0105;
599.4000;1.1925;-5.0157;
599.7000;1.1966;-5.0079;
600.0000;1.1958;-5.0079;
600.3000;1.1941;-5.0157;
600.6000;1.1933;-5.0364;
600.9000;1.1884;-5.0546;
601.2000;1.1836;-5.0624;
601.5000;1.1656;-5.1090;
601.8000;1.1608;-5.1246;
602.1000;1.1486;-5.1454;
602.4000;1.1510;-5.1324;
602.7000;1.1339;-5.1687;
603.0000;1.1241;-5.1894;
603.3000;1.1160;-5.2128;
603.6000;1.1070;-5.2309;
603.9000;1.1013;-5.2413;
604.2000;1.0842;-5.2802;
604.5000;1.0818;-5.2828;
604.8000;1.0737;-5.3036;
605.1000;1.0696;-5.3243;
605.4000;1.0631;-5.3269;
605.7000;1.0574;-5.3450;
606.0000;1.0525;-5.3554;
606.3000;1.0468;-5.3580;
606.6000;1.0354;-5.3710;
606.9000;1.0362;-5.3684;
607.2000;1.0305;-5.3710;
607.5000;1.0265;-5.3684;
607.8000;1.0191;-5.3658;
608.1000;1.0142;-5.3710;
608.4000;1.0126;-5.3710;
608.7000;1.0037;-5.3839;
609.0000;0.9988;-5.3969;
609.3000;0.9947;-5.3943;
609.6000;0.9898;-5.3969;
609.9000;0.9890;-5.4073;
610.2000;0.9833;-5.4228;
610.5000;0.9768;-5.4254;
610.8000;0.9744;-5.4228;
611.1000;0.9695;-5.4203;
611.4000;0.9687;-5.4151;
611.7000;0.9646;-5.4228;
612.0000;0.9605;-5.4306;
612.3000;0.9556;-5.4280;
612.6000;0.9516;-5.4384;
612.9000;0.9491;-5.4384;
613.2000;0.9467;-5.4332;
613.5000;0.9442;-5.4280;
613.8000;0.9402;-5.4332;
614.1000;0.9353;-5.4358;
614.4000;0.9328;-5.4436;
614.7000;0.9288;-5.4410;
615.0000;0.9247;-5.4514;
615.3000;0.9223;-5.4540;
615.6000;0.9190;-5.4540;
615.9000;0.9149;-5.4540;
616.2000;0.9141;-5.4436;
616.5000;0.9092;-5.4514;
616.8000;0.9076;-5.4540;
617.1000;0.9044;-5.4592;
617.4000;0.9035;-5.4592;
617.7000;0.9003;-5.4643;
618.0000;0.8938;-5.4747;
618.3000;0.8962;-5.4695;
618.6000;0.8921;-5.4695;
618.9000;0.8905;-5.4669;
619.2000;0.8881;-5.4566;
619.5000;0.8840;-5.4669;
619.8000;0.8799;-5.4747;
620.1000;0.8791;-5.4747;
620.4000;0.8767;-5.4721;
620.7000;0.8742;-5.4721;
621.0000;0.8710;-5.4851;
621.3000;0.8694;-5.4695;
621.6000;0.8694;-5.4618;
621.9000;0.8653;-5.4669;
622.2000;0.8620;-5.4799;
622.5000;0.8653;-5.4747;
622.8000;0.8596;-5.4851;
623.1000;0.8628;-5.4747;
623.4000;0.8563;-5.4903;
623.7000;0.8547;-5.4825;
624.0000;0.8571;-5.4747;
624.3000;0.8514;-5.4851;
624.6000;0.8571;-5.4695;
624.9000;0.8466;-5.4929;
625.2000;0.8457;-5.4877;
625.5000;0.8425;-5.4955;
625.8000;0.8417;-5.5007;
626.1000;0.8417;-5.5032;
626.4000;0.8327;-5.5214;
626.7000;0.8368;-5.4955;
627.0000;0.8368;-5.4903;
627.3000;0.8278;-5.5110;
627.6000;0.8311;-5.5084;
627.9000;0.8295;-5.4981;
628.2000;0.8270;-5.5032;
628.5000;0.8230;-5.5188;
628.8000;0.8238;-5.5188;
629.1000;0.8230;-5.5084;
629.4000;0.8205;-5.5136;
629.7000;0.8189;-5.5162;
630.0000;0.8197;-5.5188;
630.3000;0.8238;-5.5058;
630.6000;0.8173;-5.5162;
630.9000;0.8140;-5.5058;
631.2000;0.8124;-5.5084;
631.5000;0.8116;-5.5058;
631.8000;0.8091;-5.5110;
632.1000;0.8067;-5.5162;
632.4000;0.8026;-5.5266;
632.7000;0.8075;-5.5162;
633.0000;0.8067;-5.5110;
633.3000;0.8059;-5.5110;
633.6000;0.8034;-5.5110;
633.9000;0.8034;-5.5032;
634.2000;0.7993;-5.5110;
634.5000;0.8010;-5.5058;
634.8000;0.8002;-5.5188;
635.1000;0.7977;-5.5292;
635.4000;0.7961;-5.5318;
635.7000;0.7977;-5.5240;
636.0000;0.7937;-5.5266;
636.3000;0.7937;-5.5214;
636.6000;0.7920;-5.5240;
636.9000;0.7904;-5.5292;
637.2000;0.7904;-5.5266;
637.5000;0.7888;-5.5292;
637.8000;0.7888;-5.5214;
638.1000;0.7888;-5.5162;
638.4000;0.7871;-5.5240;
638.7000;0.7896;-5.5188;
639.0000;0.7863;-5.5344;
639.3000;0.7847;-5.5292;
639.6000;0.7806;-5.5344;
639.9000;0.7831;-5.5188;
640.2000;0.7798;-5.5318;
640.5000;0.7823;-5.5318;
640.8000;0.7806;-5.5266;
641.1000;0.7814;-5.5266;
641.4000;0.7766;-5.5370;
641.7000;0.7855;-5.5032;
642.0000;0.7757;-5.5084;
642.3000;0.7757;-5.5084;
642.6000;0.7725;-5.5162;
642.9000;0.7741;-5.5058;
643.2000;0.7709;-5.5136;
643.5000;0.7700;-5.5188;
643.8000;0.7692;-5.5162;
644.1000;0.7668;-5.5266;
644.4000;0.7684;-5.5240;
644.7000;0.7684;-5.5318;
645.0000;0.7660;-5.5370;
645.3000;0.7660;-5.5396;
645.6000;0.7652;-5.5370;
645.9000;0.7611;-5.5473;
646.2000;0.7603;-5.5447;
646.5000;0.7619;-5.5396;
646.8000;0.7611;-5.5396;
647.1000;0.7554;-5.5499;
647.4000;0.7586;-5.5421;
647.7000;0.7570;-5.5396;
648.0000;0.7578;-5.5396;
648.3000;0.7586;-5.5344;
648.6000;0.7570;-5.5318;
648.9000;0.7562;-5.5370;
649.2000;0.7546;-5.5551;
649.5000;0.7546;-5.5525;
649.8000;0.7562;-5.5473;
650.1000;0.7538;-5.5499;
650.4000;0.7554;-5.5421;
650.7000;0.7530;-5.5499;
651.0000;0.7530;-5.5525;
651.3000;0.7497;-5.5577;
651.6000;0.7481;-5.5551;
651.9000;0.7489;-5.5499;
652.2000;0.7481;-5.5473;
652.5000;0.7464;-5.5421;
652.8000;0.7473;-5.5318;
653.1000;0.7456;-5.5292;
653.4000;0.7448;-5.5266;
653.7000;0.7497;-5.5136;
654.0000;0.7440;-5.5292;
654.3000;0.7391;-5.5396;
654.6000;0.7464;-5.5240;
654.9000;0.7448;-5.5396;
655.2000;0.7464;-5.5370;
655.5000;0.7416;-5.5473;
655.8000;0.7407;-5.5447;
656.1000;0.7416;-5.5370;
656.4000;0.7326;-5.5551;
656.7000;0.7399;-5.5447;
657.0000;0.7383;-5.5499;
657.3000;0.7367;-5.5421;
657.6000;0.7375;-5.5447;
657.9000;0.7359;-5.5421;
658.2000;0.7375;-5.5370;
658.5000;0.7367;-5.5499;
658.8000;0.7359;-5.5447;
659.1000;0.7350;-5.5396;
659.4000;0.7326;-5.5499;
659.7000;0.7359;-5.5499;
660.0000;0.7342;-5.5473;
660.3000;0.7367;-5.5447;
660.6000;0.7326;-5.5499;
660.9000;0.7318;-5.5551;
661.2000;0.7326;-5.5499;
661.5000;0.7293;-5.5577;
661.8000;0.7236;-5.5655;
662.1000;0.7253;-5.5629;
662.4000;0.7285;-5.5525;
662.7000;0.7293;-5.5473;
663.0000;0.7277;-5.5473;
663.3000;0.7285;-5.5447;
663.6000;0.7261;-5.5447;
663.9000;0.7269;-5.5473;
664.2000;0.7277;-5.5370;
664.5000;0.7253;-5.5318;
664.8000;0.7253;-5.5266;
665.1000;0.7236;-5.5292;
665.4000;0.7228;-5.5292;
665.7000;0.7220;-5.5240;
666.0000;0.7236;-5.5084;
666.3000;0.7228;-5.5136;
666.6000;0.7236;-5.5136;
666.9000;0.7204;-5.5266;
667.2000;0.7204;-5.5396;
667.5000;0.7204;-5.5499;
667.8000;0.7204;-5.5525;
668.1000;0.7188;-5.5551;
668.4000;0.7188;-5.5473;
668.7000;0.7196;-5.5473;
669.0000;0.7204;-5.5499;
669.3000;0.7196;-5.5525;
669.6000;0.7188;-5.5525;
669.9000;0.7196;-5.5396;
670.2000;0.7179;-5.5396;
670.5000;0.7179;-5.5499;
670.8000;0.7163;-5.5577;
671.1000;0.7163;-5.5629;
671.4000;0.7155;-5.5629;
671.7000;0.7155;-5.5629;
672.0000;0.7163;-5.5551;
672.3000;0.7139;-5.5525;
672.6000;0.7155;-5.5421;
672.9000;0.7147;-5.5370;
673.2000;0.7147;-5.5318;
673.5000;0.7131;-5.5318;
673.8000;0.7139;-5.5214;
674.1000;0.7147;-5.5240;
674.4000;0.7123;-5.5292;
674.7000;0.7188;-5.5188;
675.0000;0.7090;-5.5344;
675.3000;0.7033;-5.5525;
675.6000;0.7123;-5.5292;
675.9000;0.7106;-5.5447;
676.2000;0.7074;-5.5499;
676.5000;0.7090;-5.5396;
676.8000;0.7066;-5.5396;
677.1000;0.7090;-5.5318;
677.4000;0.7066;-5.5292;
677.7000;0.7057;-5.5447;
678.0000;0.6992;-5.5603;
678.3000;0.7017;-5.5603;
678.6000;0.7066;-5.5551;
678.9000;0.7009;-5.5681;
679.2000;0.7049;-5.5577;
679.5000;0.7049;-5.5577;
679.8000;0.6992;-5.5681;
680.1000;0.7025;-5.5603;
680.4000;0.7017;-5.5629;
680.7000;0.7041;-5.5551;
681.0000;0.7041;-5.5525;
681.3000;0.7025;-5.5525;
681.6000;0.7025;-5.5551;
681.9000;0.7025;-5.5525;
682.2000;0.7017;-5.5551;
682.5000;0.7009;-5.5499;
682.8000;0.7017;-5.5447;
683.1000;0.7009;-5.5447;
683.4000;0.6984;-5.5499;
683.7000;0.6992;-5.5499;
684.0000;0.7000;-5.5499;
684.3000;0.7009;-5.5447;
684.6000;0.6992;-5.5525;
684.9000;0.6992;-5.5396;
685.2000;0.6984;-5.5447;
685.5000;0.6992;-5.5421;
685.8000;0.6984;-5.5525;
686.1000;0.6976;-5.5473;
686.4000;0.6984;-5.5396;
686.7000;0.6952;-5.5447;
687.0000;0.6960;-5.5499;
687.3000;0.6968;-5.5473;
687.6000;0.6968;-5.5473;
687.9000;0.6960;-5.5473;
688.2000;0.6960;-5.5499;
688.5000;0.6960;-5.5525;
688.8000;0.6927;-5.5603;
689.1000;0.6960;-5.5473;
689.4000;0.6960;-5.5421;
689.7000;0.6935;-5.5447;
690.0000;0.6952;-5.5473;
690.3000;0.6927;-5.5473;
690.6000;0.6992;-5.5292;
690.9000;0.6952;-5.5447;
691.2000;0.6927;-5.5603;
691.5000;0.6919;-5.5681;
691.8000;0.6976;-5.5551;
692.1000;0.6919;-5.5655;
692.4000;0.6919;-5.5733;
692.7000;0.6927;-5.5681;
693.0000;0.6919;-5.5577;
693.3000;0.6919;-5.5525;
693.6000;0.6911;-5.5499;
693.9000;0.6952;-5.5447;
694.2000;0.6870;-5.5681;
694.5000;0.6870;-5.5629;
694.8000;0.6862;-5.5655;
695.1000;0.6870;-5.5629;
695.4000;0.6870;-5.5707;
695.7000;0.6903;-5.5629;
696.0000;0.6870;-5.5681;
696.3000;0.6829;-5.5733;
696.6000;0.6886;-5.5603;
696.9000;0.6911;-5.5577;
697.2000;0.6878;-5.5603;
697.5000;0.6821;-5.5655;
697.8000;0.6821;-5.5577;
698.1000;0.6886;-5.5525;
698.4000;0.6764;-5.5603;
698.7000;0.6862;-5.5421;
699.0000;0.6838;-5.5499;
699.3000;0.6846;-5.5370;
699.6000;0.6878;-5.5240;
699.9000;0.6870;-5.5292;
700.2000;0.6846;-5.5421;
700.5000;0.6838;-5.5396;
700.8000;0.6838;-5.5396;
701.1000;0.6838;-5.5396;
701.4000;0.6829;-5.5499;
701.7000;0.6813;-5.5629;
702.0000;0.6846;-5.5629;
702.3000;0.6838;-5.5577;
702.6000;0.6821;-5.5681;
702.9000;0.6813;-5.5681;
703.2000;0.6821;-5.5681;
703.5000;0.6838;-5.5681;
703.8000;0.6821;-5.5759;
704.1000;0.6821;-5.5759;
704.4000;0.6813;-5.5681;
704.7000;0.6821;-5.5577;
705.0000;0.6805;-5.5681;
705.3000;0.6813;-5.5733;
705.6000;0.6829;-5.5629;
705.9000;0.6813;-5.5655;
706.2000;0.6805;-5.5733;
706.5000;0.6797;-5.5733;
706.8000;0.6781;-5.5836;
707.1000;0.6805;-5.5785;
707.4000;0.6789;-5.5888;
707.7000;0.6789;-5.5733;
708.0000;0.6756;-5.5707;
708.3000;0.6789;-5.5551;
708.6000;0.6781;-5.5577;
708.9000;0.6732;-5.5681;
709.2000;0.6764;-5.5473;
709.5000;0.6797;-5.5396;
709.8000;0.6772;-5.5499;
710.1000;0.6756;-5.5447;
710.4000;0.6764;-5.5396;
710.7000;0.6716;-5.5551;
711.0000;0.6764;-5.5525;
711.3000;0.6772;-5.5473;
711.6000;0.6756;-5.5473;
711.9000;0.6748;-5.5473;
712.2000;0.6748;-5.5370;
712.5000;0.6772;-5.5370;
712.8000;0.6691;-5.5577;
713.1000;0.6797;-5.5266;
713.4000;0.6740;-5.5318;
713.7000;0.6740;-5.5318;
714.0000;0.6756;-5.5214;
714.3000;0.6732;-5.5370;
714.6000;0.6724;-5.5318;
714.9000;0.6748;-5.5240;
715.2000;0.6748;-5.5266;
715.5000;0.6740;-5.5370;
715.8000;0.6716;-5.5525;
716.1000;0.6699;-5.5551;
716.4000;0.6732;-5.5447;
716.7000;0.6691;-5.5499;
717.0000;0.6748;-5.5421;
717.3000;0.6716;-5.5525;
717.6000;0.6724;-5.5655;
717.9000;0.6748;-5.5603;
718.2000;0.6716;-5.5655;
718.5000;0.6683;-5.5603;
718.8000;0.6707;-5.5447;
719.1000;0.6691;-5.5525;
719.4000;0.6691;-5.5525;
719.7000;0.6691;-5.5551;
720.0000;0.6699;-5.5577;
720.3000;0.6707;-5.5577;
720.6000;0.6724;-5.5577;
720.9000;0.6764;-5.5396;
721.2000;0.6707;-5.5473;
721.5000;0.6748;-5.5396;
721.8000;0.6707;-5.5499;
722.1000;0.6707;-5.5499;
722.4000;0.6748;-5.5396;
722.7000;0.6716;-5.5447;
723.0000;0.6699;-5.5473;
723.3000;0.6732;-5.5525;
723.6000;0.6748;-5.5473;
723.9000;0.6691;-5.5681;
724.2000;0.6691;-5.5577;
724.5000;0.6667;-5.5655;
724.8000;0.6667;-5.5707;
725.1000;0.6683;-5.5629;
725.4000;0.6683;-5.5577;
725.7000;0.6683;-5.5370;
726.0000;0.6667;-5.5396;
726.3000;0.6675;-5.5292;
726.6000;0.6732;-5.5084;
726.9000;0.6650;-5.5292;
727.2000;0.6650;-5.5344;
727.5000;0.6659;-5.5266;
727.8000;0.6675;-5.5370;
728.1000;0.6659;-5.5396;
728.4000;0.6659;-5.5396;
728.7000;0.6650;-5.5473;
729.0000;0.6626;-5.5525;
729.3000;0.6642;-5.5447;
729.6000;0.6634;-5.5499;
729.9000;0.6634;-5.5551;
730.2000;0.6642;-5.5551;
730.5000;0.6650;-5.5447;
730.8000;0.6634;-5.5396;
731.1000;0.6618;-5.5421;
731.4000;0.6626;-5.5473;
731.7000;0.6634;-5.5525;
732.0000;0.6626;-5.5499;
732.3000;0.6626;-5.5396;
732.6000;0.6626;-5.5318;
732.9000;0.6618;-5.5344;
733.2000;0.6618;-5.5344;
733.5000;0.6659;-5.5214;
733.8000;0.6602;-5.5344;
734.1000;0.6618;-5.5318;
734.4000;0.6610;-5.5344;
734.7000;0.6593;-5.5318;
735.0000;0.6610;-5.5240;
735.3000;0.6610;-5.5292;
735.6000;0.6618;-5.5240;
735.9000;0.6602;-5.5396;
736.2000;0.6585;-5.5421;
736.5000;0.6602;-5.5421;
736.8000;0.6602;-5.5473;
737.1000;0.6577;-5.5525;
737.4000;0.6593;-5.5473;
737.7000;0.6593;-5.5525;
738.0000;0.6610;-5.5421;
738.3000;0.6577;-5.5396;
738.6000;0.6593;-5.5396;
738.9000;0.6602;-5.5447;
739.2000;0.6593;-5.5421;
739.5000;0.6593;-5.5473;
739.8000;0.6577;-5.5473;
740.1000;0.6585;-5.5447;
740.4000;0.6577;-5.5447;
740.7000;0.6650;-5.5240;
741.0000;0.6585;-5.5344;
741.3000;0.6553;-5.5421;
741.6000;0.6585;-5.5447;
741.9000;0.6593;-5.5525;
742.2000;0.6569;-5.5499;
742.5000;0.6585;-5.5370;
742.8000;0.6577;-5.5344;
743.1000;0.6569;-5.5396;
743.4000;0.6618;-5.5292;
743.7000;0.6593;-5.5292;
744.0000;0.6577;-5.5214;
744.3000;0.6528;-5.5344;
744.6000;0.6553;-5.5318;
744.9000;0.6561;-5.5370;
745.2000;0.6577;-5.5344;
745.5000;0.6602;-5.5396;
745.8000;0.6569;-5.5577;
746.1000;0.6561;-5.5629;
746.4000;0.6553;-5.5681;
746.7000;0.6553;-5.5629;
747.0000;0.6569;-5.5603;
747.3000;0.6545;-5.5577;
747.6000;0.6536;-5.5551;
747.9000;0.6553;-5.5473;
748.2000;0.6553;-5.5447;
748.5000;0.6585;-5.5421;
748.8000;0.6488;-5.5577;
749.1000;0.6553;-5.5447;
749.4000;0.6512;-5.5577;
749.7000;0.6561;-5.5551;
750.0000;0.6545;-5.5629;
750.3000;0.6536;-5.5707;
750.6000;0.6536;-5.5759;
750.9000;0.6553;-5.5707;
751.2000;0.6545;-5.5551;
751.5000;0.6545;-5.5603;
751.8000;0.6536;-5.5603;
752.1000;0.6545;-5.5577;
752.4000;0.6545;-5.5603;
752.7000;0.6545;-5.5629;
753.0000;0.6545;-5.5655;
753.3000;0.6536;-5.5707;
753.6000;0.6553;-5.5629;
753.9000;0.6520;-5.5655;
754.2000;0.6536;-5.5577;
754.5000;0.6520;-5.5525;
754.8000;0.6536;-5.5447;
755.1000;0.6577;-5.5318;
755.4000;0.6520;-5.5473;
755.7000;0.6520;-5.5396;
756.0000;0.6561;-5.5292;
756.3000;0.6536;-5.5344;
756.6000;0.6528;-5.5370;
756.9000;0.6520;-5.5447;
757.2000;0.6504;-5.5447;
757.5000;0.6496;-5.5473;
757.8000;0.6528;-5.5344;
758.1000;0.6512;-5.5396;
758.4000;0.6504;-5.5370;
758.7000;0.6504;-5.5396;
759.0000;0.6496;-5.5292;
759.3000;0.6512;-5.5162;
759.6000;0.6545;-5.5058;
759.9000;0.6512;-5.5266;
760.2000;0.6536;-5.5266;
760.5000;0.6504;-5.5421;
760.8000;0.6496;-5.5421;
761.1000;0.6471;-5.5525;
761.4000;0.6504;-5.5396;
761.7000;0.6488;-5.5421;
762.0000;0.6479;-5.5421;
762.3000;0.6488;-5.5421;
762.6000;0.6496;-5.5447;
762.9000;0.6496;-5.5396;
763.2000;0.6504;-5.5396;
763.5000;0.6479;-5.5396;
763.8000;0.6496;-5.5370;
764.1000;0.6520;-5.5266;
764.4000;0.6504;-5.5318;
764.7000;0.6471;-5.5344;
765.0000;0.6504;-5.5396;
765.3000;0.6512;-5.5396;
765.6000;0.6479;-5.5447;
765.9000;0.6479;-5.5421;
766.2000;0.6479;-5.5370;
766.5000;0.6471;-5.5318;
766.8000;0.6471;-5.5240;
767.1000;0.6479;-5.5214;
767.4000;0.6471;-5.5292;
767.7000;0.6479;-5.5344;
768.0000;0.6471;-5.5421;
768.3000;0.6479;-5.5421;
768.6000;0.6496;-5.5421;
768.9000;0.6479;-5.5421;
769.2000;0.6390;-5.5603;
769.5000;0.6479;-5.5344;
769.8000;0.6463;-5.5396;
770.1000;0.6479;-5.5473;
770.4000;0.6455;-5.5396;
770.7000;0.6455;-5.5421;
771.0000;0.6455;-5.5396;
771.3000;0.6439;-5.5344;
771.6000;0.6471;-5.5292;
771.9000;0.6463;-5.5240;
772.2000;0.6488;-5.5084;
772.5000;0.6471;-5.5188;
772.8000;0.6455;-5.5266;
773.1000;0.6463;-5.5292;
773.4000;0.6455;-5.5266;
773.7000;0.6422;-5.5266;
774.0000;0.6463;-5.5162;
774.3000;0.6447;-5.5240;
774.6000;0.6414;-5.5344;
774.9000;0.6447;-5.5318;
775.2000;0.6455;-5.5370;
775.5000;0.6447;-5.5344;
775.8000;0.6447;-5.5370;
776.1000;0.6439;-5.5344;
776.4000;0.6447;-5.5240;
776.7000;0.6447;-5.5292;
777.0000;0.6447;-5.5318;
777.3000;0.6447;-5.5292;
777.6000;0.6447;-5.5318;
777.9000;0.6455;-5.5214;
778.2000;0.6447;-5.5240;
778.5000;0.6406;-5.5318;
778.8000;0.6431;-5.5318;
779.1000;0.6439;-5.5214;
779.4000;0.6447;-5.5214;
779.7000;0.6414;-5.5344;
780.0000;0.6431;-5.5318;
780.3000;0.6447;-5.5292;
780.6000;0.6422;-5.5318;
780.9000;0.6414;-5.5318;
781.2000;0.6439;-5.5292;
781.5000;0.6365;-5.5396;
781.8000;0.6406;-5.5292;
782.1000;0.6422;-5.5266;
782.4000;0.6422;-5.5292;
782.7000;0.6406;-5.5344;
783.0000;0.6414;-5.5396;
783.3000;0.6422;-5.5370;
783.6000;0.6422;-5.5421;
783.9000;0.6414;-5.5447;
784.2000;0.6447;-5.5344;
784.5000;0.6439;-5.5396;
784.8000;0.6406;-5.5447;
785.1000;0.6414;-5.5344;
785.4000;0.6447;-5.5292;
785.7000;0.6414;-5.5344;
786.0000;0.6414;-5.5447;
786.3000;0.6422;-5.5447;
786.6000;0.6431;-5.5473;
786.9000;0.6414;-5.5473;
787.2000;0.6439;-5.5370;
787.5000;0.6398;-5.5551;
787.8000;0.6422;-5.5421;
788.1000;0.6382;-5.5473;
788.4000;0.6422;-5.5370;
788.7000;0.6431;-5.5370;
789.0000;0.6422;-5.5292;
789.3000;0.6463;-5.5162;
789.6000;0.6414;-5.5188;
789.9000;0.6414;-5.5214;
790.2000;0.6398;-5.5292;
790.5000;0.6398;-5.5318;
790.8000;0.6406;-5.5396;
791.1000;0.6406;-5.5447;
791.4000;0.6406;-5.5421;
791.7000;0.6422;-5.5344;
792.0000;0.6422;-5.5318;
792.3000;0.6390;-5.5370;
792.6000;0.6406;-5.5344;
792.9000;0.6398;-5.5396;
793.2000;0.6390;-5.5473;
793.5000;0.6398;-5.5396;
793.8000;0.6365;-5.5473;
794.1000;0.6390;-5.5370;
794.4000;0.6406;-5.5318;
794.7000;0.6398;-5.5292;
795.0000;0.6471;-5.5084;
795.3000;0.6398;-5.5292;
795.6000;0.6382;-5.5344;
795.9000;0.6455;-5.5214;
796.2000;0.6374;-5.5473;
796.5000;0.6382;-5.5473;
796.8000;0.6398;-5.5421;
797.1000;0.6390;-5.5421;
797.4000;0.6390;-5.5318;
797.7000;0.6374;-5.5292;
798.0000;0.6382;-5.5214;
798.3000;0.6382;-5.5240;
798.6000;0.6390;-5.5292;
798.9000;0.6390;-5.5266;
799.2000;0.6365;-5.5292;
799.5000;0.6406;-5.5188;
799.8000;0.6390;-5.5214;
800.1000;0.6398;-5.5240;
800.4000;0.6374;-5.5292;
800.7000;0.6414;-5.5292;
801.0000;0.6390;-5.5318;
801.3000;0.6398;-5.5240;
801.6000;0.6374;-5.5266;
801.9000;0.6398;-5.5162;
802.2000;0.6382;-5.5188;
802.5000;0.6382;-5.5136;
802.8000;0.6349;-5.5266;
803.1000;0.6357;-5.5240;
803.4000;0.6382;-5.5136;
803.7000;0.6382;-5.5188;
804.0000;0.6333;-5.5421;
804.3000;0.6365;-5.5344;
804.6000;0.6390;-5.5292;
804.9000;0.6382;-5.5240;
805.2000;0.6357;-5.5292;
805.5000;0.6398;-5.5136;
805.8000;0.6365;-5.5084;
806.1000;0.6382;-5.5084;
806.4000;0.6365;-5.5084;
806.7000;0.6349;-5.5110;
807.0000;0.6374;-5.5084;
807.3000;0.6382;-5.5032;
807.6000;0.6357;-5.5084;
807.9000;0.6357;-5.5084;
808.2000;0.6365;-5.5110;
808.5000;0.6374;-5.5084;
808.8000;0.6365;-5.5110;
809.1000;0.6349;-5.5188;
809.4000;0.6365;-5.5188;
809.7000;0.6349;-5.5214;
810.0000;0.6357;-5.5136;
810.3000;0.6341;-5.5214;
810.6000;0.6349;-5.5162;
810.9000;0.6365;-5.5110;
811.2000;0.6374;-5.5110;
811.5000;0.6333;-5.5266;
811.8000;0.6365;-5.5136;
812.1000;0.6349;-5.5110;
812.4000;0.6357;-5.5162;
812.7000;0.6382;-5.5110;
813.0000;0.6341;-5.5136;
813.3000;0.6439;-5.4851;
813.6000;0.6365;-5.5058;
813.9000;0.6365;-5.4981;
814.2000;0.6365;-5.4981;
814.5000;0.6374;-5.4981;
814.8000;0.6325;-5.5188;
815.1000;0.6357;-5.5110;
815.4000;0.6357;-5.5058;
815.7000;0.6365;-5.5110;
816.0000;0.6382;-5.5084;
816.3000;0.6365;-5.5136;
816.6000;0.6341;-5.5136;
816.9000;0.6349;-5.5084;
817.2000;0.6341;-5.5084;
817.5000;0.6341;-5.5084;
817.8000;0.6341;-5.5136;
818.1000;0.6349;-5.5162;
818.4000;0.6349;-5.5136;
818.7000;0.6349;-5.5136;
819.0000;0.6349;-5.5084;
819.3000;0.6309;-5.5188;
819.6000;0.6349;-5.5084;
819.9000;0.6333;-5.5136;
820.2000;0.6292;-5.5214;
820.5000;0.6300;-5.5162;
820.8000;0.6333;-5.5032;
821.1000;0.6341;-5.5007;
821.4000;0.6333;-5.5058;
821.7000;0.6333;-5.5058;
822.0000;0.6300;-5.5110;
822.3000;0.6333;-5.5110;
822.6000;0.6357;-5.5110;
822.9000;0.6300;-5.5162;
823.2000;0.6317;-5.5110;
823.5000;0.6317;-5.5110;
823.8000;0.6333;-5.5007;
824.1000;0.6325;-5.5032;
824.4000;0.6317;-5.5007;
824.7000;0.6349;-5.4981;
825.0000;0.6325;-5.5110;
825.3000;0.6309;-5.5084;
825.6000;0.6341;-5.5058;
825.9000;0.6333;-5.5058;
826.2000;0.6333;-5.5110;
826.5000;0.6349;-5.5084;
826.8000;0.6317;-5.5007;
827.1000;0.6252;-5.5136;
827.4000;0.6341;-5.4825;
827.7000;0.6333;-5.4825;
828.0000;0.6284;-5.4955;
828.3000;0.6309;-5.4955;
828.6000;0.6325;-5.4981;
828.9000;0.6325;-5.4929;
829.2000;0.6333;-5.4903;
829.5000;0.6317;-5.4955;
829.8000;0.6325;-5.4903;
830.1000;0.6309;-5.4903;
830.4000;0.6333;-5.4877;
830.7000;0.6292;-5.4981;
831.0000;0.6300;-5.4955;
831.3000;0.6309;-5.4903;
831.6000;0.6309;-5.4903;
831.9000;0.6317;-5.4929;
832.2000;0.6292;-5.4981;
832.5000;0.6300;-5.4981;
832.8000;0.6284;-5.5084;
833.1000;0.6300;-5.5032;
833.4000;0.6309;-5.5058;
833.7000;0.6309;-5.5188;
834.0000;0.6325;-5.5240;
834.3000;0.6325;-5.5292;
834.6000;0.6309;-5.5240;
834.9000;0.6300;-5.5240;
835.2000;0.6309;-5.5136;
835.5000;0.6276;-5.5136;
835.8000;0.6309;-5.5007;
836.1000;0.6317;-5.4929;
836.4000;0.6292;-5.5007;
836.7000;0.6300;-5.5007;
837.0000;0.6317;-5.4981;
837.3000;0.6252;-5.5136;
837.6000;0.6284;-5.5058;
837.9000;0.6300;-5.5032;
838.2000;0.6309;-5.5007;
838.5000;0.6292;-5.5007;
838.8000;0.6292;-5.5007;
839.1000;0.6284;-5.4929;
839.4000;0.6333;-5.4773;
839.7000;0.6292;-5.4877;
840.0000;0.6300;-5.4955;
840.3000;0.6292;-5.4929;
840.6000;0.6300;-5.4929;
840.9000;0.6276;-5.4877;
841.2000;0.6292;-5.4825;
841.5000;0.6284;-5.4903;
841.8000;0.6300;-5.4903;
842.1000;0.6284;-5.4955;
842.4000;0.6325;-5.4903;
842.7000;0.6284;-5.4903;
843.0000;0.6276;-5.4929;
843.3000;0.6300;-5.4929;
843.6000;0.6276;-5.4981;
843.9000;0.6276;-5.4955;
844.2000;0.6268;-5.4929;
844.5000;0.6276;-5.4929;
844.8000;0.6268;-5.4955;
845.1000;0.6268;-5.4955;
845.4000;0.6284;-5.4877;
845.7000;0.6284;-5.4851;
846.0000;0.6268;-5.4929;
846.3000;0.6276;-5.4955;
846.6000;0.6284;-5.4851;
846.9000;0.6300;-5.4799;
847.2000;0.6284;-5.4877;
847.5000;0.6300;-5.4799;
847.8000;0.6292;-5.4851;
848.1000;0.6317;-5.4799;
848.4000;0.6292;-5.4825;
848.7000;0.6268;-5.4825;
849.0000;0.6268;-5.4851;
849.3000;0.6300;-5.4877;
849.6000;0.6268;-5.4903;
849.9000;0.6276;-5.4851;
850.2000;0.6252;-5.4851;
850.5000;0.6325;-5.4695;
850.8000;0.6292;-5.4695;
851.1000;0.6284;-5.4695;
851.4000;0.6284;-5.4669;
851.7000;0.6276;-5.4747;
852.0000;0.6284;-5.4773;
852.3000;0.6284;-5.4747;
852.6000;0.6260;-5.4851;
852.9000;0.6276;-5.4825;
853.2000;0.6195;-5.5032;
853.5000;0.6252;-5.4955;
853.8000;0.6252;-5.5058;
854.1000;0.6260;-5.5007;
854.4000;0.6276;-5.4981;
854.7000;0.6276;-5.4903;
855.0000;0.6276;-5.4877;
855.3000;0.6268;-5.4903;
855.6000;0.6284;-5.4877;
855.9000;0.6252;-5.4877;
856.2000;0.6268;-5.4851;
856.5000;0.6235;-5.4929;
856.8000;0.6252;-5.4955;
857.1000;0.6292;-5.4851;
857.4000;0.6268;-5.4851;
857.7000;0.6268;-5.4929;
858.0000;0.6268;-5.4955;
858.3000;0.6284;-5.4929;
858.6000;0.6252;-5.4955;
858.9000;0.6260;-5.4877;
859.2000;0.6276;-5.4825;
859.5000;0.6309;-5.4825;
859.8000;0.6276;-5.4851;
860.1000;0.6276;-5.4877;
860.4000;0.6252;-5.4929;
860.7000;0.6268;-5.5007;
861.0000;0.6276;-5.4955;
861.3000;0.6260;-5.4981;
861.6000;0.6260;-5.5007;
861.9000;0.6260;-5.4903;
862.2000;0.6268;-5.4877;
862.5000;0.6276;-5.4825;
862.8000;0.6260;-5.4877;
863.1000;0.6252;-5.4903;
863.4000;0.6252;-5.4981;
863.7000;0.6252;-5.4929;
864.0000;0.6252;-5.4929;
864.3000;0.6227;-5.4851;
864.6000;0.6235;-5.4825;
864.9000;0.6252;-5.4825;
865.2000;0.6235;-5.4929;
865.5000;0.6243;-5.4903;
865.8000;0.6252;-5.4877;
866.1000;0.6243;-5.4851;
866.4000;0.6243;-5.4851;
866.7000;0.6268;-5.4851;
867.0000;0.6243;-5.5007;
867.3000;0.6268;-5.5007;
867.6000;0.6252;-5.5007;
867.9000;0.6252;-5.5084;
868.2000;0.6243;-5.5032;
868.5000;0.6309;-5.4851;
868.8000;0.6235;-5.5007;
869.1000;0.6317;-5.4799;
869.4000;0.6227;-5.4981;
869.7000;0.6243;-5.4955;
870.0000;0.6235;-5.4955;
870.3000;0.6252;-5.4903;
870.6000;0.6235;-5.4981;
870.9000;0.6260;-5.4981;
871.2000;0.6243;-5.4955;
871.5000;0.6243;-5.4851;
871.8000;0.6243;-5.4825;
872.1000;0.6243;-5.4929;
872.4000;0.6243;-5.4877;
872.7000;0.6203;-5.5058;
873.0000;0.6235;-5.4903;
873.3000;0.6243;-5.4981;
873.6000;0.6243;-5.5007;
873.9000;0.6235;-5.4981;
874.2000;0.6235;-5.4929;
874.5000;0.6195;-5.5032;
874.8000;0.6219;-5.4955;
875.1000;0.6235;-5.4929;
875.4000;0.6227;-5.4877;
875.7000;0.6219;-5.4825;
876.0000;0.6284;-5.4618;
876.3000;0.6235;-5.4747;
876.6000;0.6219;-5.4721;
876.9000;0.6219;-5.4799;
877.2000;0.6219;-5.4877;
877.5000;0.6227;-5.4851;
877.8000;0.6243;-5.4825;
878.1000;0.6252;-5.4851;
878.4000;0.6243;-5.4877;
878.7000;0.6268;-5.4877;
879.0000;0.6219;-5.5058;
879.3000;0.6219;-5.5084;
879.6000;0.6219;-5.5188;
879.9000;0.6219;-5.5136;
880.2000;0.6219;-5.5058;
880.5000;0.6235;-5.5032;
880.8000;0.6211;-5.4981;
881.1000;0.6227;-5.4955;
881.4000;0.6235;-5.4877;
881.7000;0.6219;-5.4903;
882.0000;0.6219;-5.4929;
882.3000;0.6219;-5.4955;
882.6000;0.6227;-5.4851;
882.9000;0.6219;-5.4825;
883.2000;0.6235;-5.4825;
883.5000;0.6227;-5.4877;
883.8000;0.6235;-5.4903;
884.1000;0.6219;-5.4929;
884.4000;0.6227;-5.4825;
884.7000;0.6203;-5.4903;
885.0000;0.6219;-5.4981;
885.3000;0.6243;-5.4929;
885.6000;0.6195;-5.5032;
885.9000;0.6170;-5.5110;
886.2000;0.6203;-5.5032;
886.5000;0.6219;-5.5084;
886.8000;0.6211;-5.5084;
887.1000;0.6219;-5.5058;
887.4000;0.6219;-5.5136;
887.7000;0.6219;-5.5084;
888.0000;0.6211;-5.5162;
888.3000;0.6211;-5.5162;
888.6000;0.6203;-5.5110;
888.9000;0.6203;-5.5007;
889.2000;0.6203;-5.4955;
889.5000;0.6203;-5.5032;
889.8000;0.6186;-5.5084;
890.1000;0.6178;-5.5084;
890.4000;0.6211;-5.4955;
890.7000;0.6170;-5.5084;
891.0000;0.6203;-5.5084;
891.3000;0.6203;-5.5084;
891.6000;0.6219;-5.4981;
891.9000;0.6186;-5.5058;
892.2000;0.6203;-5.5058;
892.5000;0.6195;-5.5032;
892.8000;0.6211;-5.4981;
893.1000;0.6227;-5.4955;
893.4000;0.6211;-5.5007;
893.7000;0.6178;-5.5084;
894.0000;0.6227;-5.4877;
894.3000;0.6219;-5.4877;
894.6000;0.6186;-5.4929;
894.9000;0.6219;-5.4903;
895.2000;0.6211;-5.4877;
895.5000;0.6211;-5.4825;
895.8000;0.6170;-5.4929;
896.1000;0.6211;-5.4851;
896.4000;0.6186;-5.4851;
896.7000;0.6178;-5.4981;
897.0000;0.6211;-5.4929;
897.3000;0.6211;-5.4955;
897.6000;0.6186;-5.5058;
897.9000;0.6235;-5.4929;
898.2000;0.6243;-5.4825;
898.5000;0.6203;-5.4825;
898.8000;0.6211;-5.4799;
899.1000;0.6178;-5.4903;
899.4000;0.6203;-5.4825;
899.7000;0.6203;-5.4903;
900.0000;0.6178;-5.5032;
900.3000;0.6195;-5.5058;
900.6000;0.6203;-5.5058;
900.9000;0.6203;-5.5007;
901.2000;0.6186;-5.5084;
901.5000;0.6186;-5.5058;
901.8000;0.6195;-5.4981;
902.1000;0.6195;-5.4955;
902.4000;0.6186;-5.5007;
902.7000;0.6195;-5.4981;
903.0000;0.6195;-5.4955;
903.3000;0.6195;-5.4903;
903.6000;0.6203;-5.4929;
903.9000;0.6203;-5.4903;
904.2000;0.6219;-5.4929;
904.5000;0.6219;-5.5007;
904.8000;0.6211;-5.5032;
905.1000;0.6186;-5.5110;
905.4000;0.6195;-5.5110;
905.7000;0.6186;-5.5136;
906.0000;0.6186;-5.5110;
906.3000;0.6195;-5.5110;
906.6000;0.6195;-5.5032;
906.9000;0.6219;-5.4903;
907.2000;0.6203;-5.4877;
907.5000;0.6186;-5.4903;
907.8000;0.6195;-5.4929;
908.1000;0.6211;-5.4929;
908.4000;0.6195;-5.5058;
908.7000;0.6186;-5.5007;
909.0000;0.6186;-5.4981;
909.3000;0.6252;-5.4799;
909.6000;0.6211;-5.4929;
909.9000;0.6195;-5.4851;
910.2000;0.6195;-5.4877;
910.5000;0.6186;-5.4877;
910.8000;0.6195;-5.4903;
911.1000;0.6178;-5.4955;
911.4000;0.6170;-5.4903;
911.7000;0.6178;-5.4877;
912.0000;0.6146;-5.5084;
912.3000;0.6170;-5.4981;
912.6000;0.6170;-5.5032;
912.9000;0.6170;-5.5162;
913.2000;0.6170;-5.5162;
913.5000;0.6178;-5.5162;
913.8000;0.6235;-5.5032;
914.1000;0.6186;-5.5136;
914.4000;0.6170;-5.5188;
914.7000;0.6186;-5.5136;
915.0000;0.6178;-5.5110;
915.3000;0.6146;-5.5110;
915.6000;0.6146;-5.5058;
915.9000;0.6186;-5.4877;
916.2000;0.6186;-5.5032;
916.5000;0.6170;-5.5084;
916.8000;0.6243;-5.4903;
917.1000;0.6186;-5.5058;
917.4000;0.6186;-5.5058;
917.7000;0.6186;-5.5007;
918.0000;0.6186;-5.5032;
918.3000;0.6186;-5.5007;
918.6000;0.6186;-5.4955;
918.9000;0.6235;-5.4851;
919.2000;0.6195;-5.4903;
919.5000;0.6186;-5.4981;
919.8000;0.6186;-5.4929;
920.1000;0.6162;-5.5084;
920.4000;0.6186;-5.5032;
920.7000;0.6186;-5.5007;
921.0000;0.6186;-5.5007;
921.3000;0.6186;-5.5084;
921.6000;0.6195;-5.5058;
921.9000;0.6162;-5.5084;
922.2000;0.6170;-5.4955;
922.5000;0.6178;-5.4955;
922.8000;0.6170;-5.4929;
923.1000;0.6162;-5.5007;
923.4000;0.6162;-5.5032;
923.7000;0.6186;-5.5032;
924.0000;0.6195;-5.4955;
924.3000;0.6178;-5.4903;
924.6000;0.6186;-5.4929;
924.9000;0.6186;-5.4929;
925.2000;0.6235;-5.4825;
925.5000;0.6170;-5.4929;
925.8000;0.6162;-5.4903;
926.1000;0.6178;-5.4877;
926.4000;0.6195;-5.4903;
926.7000;0.6146;-5.4981;
927.0000;0.6162;-5.4981;
927.3000;0.6170;-5.5032;
927.6000;0.6162;-5.5084;
927.9000;0.6178;-5.5110;
928.2000;0.6170;-5.5136;
928.5000;0.6186;-5.5007;
928.8000;0.6178;-5.5007;
929.1000;0.6186;-5.4955;
929.4000;0.6227;-5.4825;
929.7000;0.6219;-5.4851;
930.0000;0.6195;-5.4825;
930.3000;0.6186;-5.4825;
930.6000;0.6146;-5.4825;
930.9000;0.6178;-5.4669;
931.2000;0.6186;-5.4592;
931.5000;0.6097;-5.4825;
931.8000;0.6235;-5.4540;
932.1000;0.6162;-5.4825;
932.4000;0.6170;-5.4851;
932.7000;0.6186;-5.4825;
933.0000;0.6170;-5.4773;
933.3000;0.6113;-5.4799;
933.6000;0.6154;-5.4747;
933.9000;0.6162;-5.4851;
934.2000;0.6162;-5.4773;
934.5000;0.6178;-5.4799;
934.8000;0.6170;-5.4877;
935.1000;0.6170;-5.4799;
935.4000;0.6170;-5.4799;
935.7000;0.6178;-5.4773;
936.0000;0.6146;-5.4877;
936.3000;0.6186;-5.4799;
936.6000;0.6186;-5.4825;
936.9000;0.6162;-5.4929;
937.2000;0.6121;-5.4955;
937.5000;0.6170;-5.4773;
937.8000;0.6170;-5.4773;
938.1000;0.6154;-5.4773;
938.4000;0.6146;-5.4799;
938.7000;0.6162;-5.4799;
939.0000;0.6195;-5.4669;
939.3000;0.6170;-5.4695;
939.6000;0.6170;-5.4747;
939.9000;0.6154;-5.4851;
940.2000;0.6170;-5.4825;
940.5000;0.6170;-5.4825;
940.8000;0.6146;-5.4877;
941.1000;0.6154;-5.4903;
941.4000;0.6162;-5.4903;
941.7000;0.6146;-5.4955;
942.0000;0.6170;-5.4929;
942.3000;0.6154;-5.4929;
942.6000;0.6097;-5.5058;
942.9000;0.6162;-5.4955;
943.2000;0.6121;-5.5084;
943.5000;0.6146;-5.5032;
943.8000;0.6097;-5.5162;
944.1000;0.6178;-5.4929;
944.4000;0.6178;-5.5007;
944.7000;0.6170;-5.5007;
945.0000;0.6121;-5.5188;
945.3000;0.6162;-5.5084;
945.6000;0.6154;-5.4955;
945.9000;0.6146;-5.4955;
946.2000;0.6146;-5.5032;
946.5000;0.6146;-5.4955;
946.8000;0.6146;-5.4877;
947.1000;0.6162;-5.4825;
947.4000;0.6121;-5.4955;
947.7000;0.6154;-5.4929;
948.0000;0.6129;-5.4955;
948.3000;0.6129;-5.4851;
948.6000;0.6138;-5.4773;
948.9000;0.6146;-5.4799;
949.2000;0.6162;-5.4747;
949.5000;0.6170;-5.4747;
949.8000;0.6154;-5.4747;
950.1000;0.6170;-5.4825;
950.4000;0.6186;-5.4747;
950.7000;0.6162;-5.4825;
951.0000;0.6186;-5.4773;
951.3000;0.6146;-5.4903;
951.6000;0.6154;-5.4825;
951.9000;0.6162;-5.4851;
952.2000;0.6170;-5.4903;
952.5000;0.6138;-5.4981;
952.8000;0.6146;-5.4903;
953.1000;0.6146;-5.4877;
953.4000;0.6178;-5.4747;
953.7000;0.6154;-5.4903;
954.0000;0.6129;-5.4955;
954.3000;0.6146;-5.4929;
954.6000;0.6138;-5.5058;
954.9000;0.6121;-5.5110;
955.2000;0.6162;-5.5110;
955.5000;0.6170;-5.5058;
955.8000;0.6170;-5.4981;
956.1000;0.6146;-5.5058;
956.4000;0.6138;-5.5110;
956.7000;0.6146;-5.5032;
957.0000;0.6121;-5.5058;
957.3000;0.6146;-5.4929;
957.6000;0.6146;-5.5084;
957.9000;0.6186;-5.4981;
958.2000;0.6170;-5.4981;
958.5000;0.6154;-5.5007;
958.8000;0.6138;-5.5032;
959.1000;0.6121;-5.5032;
959.4000;0.6170;-5.4955;
959.7000;0.6154;-5.4981;
960.0000;0.6146;-5.5032;
960.3000;0.6138;-5.5110;
960.6000;0.6162;-5.4981;
960.9000;0.6105;-5.5084;
961.2000;0.6081;-5.5110;
961.5000;0.6138;-5.4955;
961.8000;0.6121;-5.4981;
962.1000;0.6146;-5.4981;
962.4000;0.6129;-5.5007;
962.7000;0.6129;-5.4955;
963.0000;0.6146;-5.5007;
963.3000;0.6138;-5.5007;
963.6000;0.6138;-5.5007;
963.9000;0.6138;-5.5032;
964.2000;0.6129;-5.4981;
964.5000;0.6138;-5.4981;
964.8000;0.6146;-5.5007;
965.1000;0.6146;-5.5110;
965.4000;0.6138;-5.5136;
965.7000;0.6146;-5.5084;
966.0000;0.6146;-5.5007;
966.3000;0.6146;-5.5032;
966.6000;0.6162;-5.5084;
966.9000;0.6113;-5.5214;
967.2000;0.6154;-5.5084;
967.5000;0.6129;-5.5110;
967.8000;0.6146;-5.5007;
968.1000;0.6138;-5.4955;
968.4000;0.6129;-5.4981;
968.7000;0.6138;-5.5007;
969.0000;0.6154;-5.4955;
969.3000;0.6121;-5.4981;
969.6000;0.6186;-5.4877;
969.9000;0.6146;-5.5007;
970.2000;0.6138;-5.5084;
970.5000;0.6138;-5.5188;
970.8000;0.6138;-5.5058;
971.1000;0.6154;-5.5032;
971.4000;0.6154;-5.5058;
971.7000;0.6138;-5.5032;
972.0000;0.6138;-5.5032;
972.3000;0.6146;-5.4981;
972.6000;0.6129;-5.5007;
972.9000;0.6129;-5.4903;
973.2000;0.6129;-5.4877;
973.5000;0.6146;-5.4877;
973.8000;0.6146;-5.4877;
974.1000;0.6154;-5.4851;
974.4000;0.6138;-5.4773;
974.7000;0.6138;-5.4747;
975.0000;0.6121;-5.4799;
975.3000;0.6105;-5.4825;
975.6000;0.6089;-5.4981;
975.9000;0.6138;-5.4773;
976.2000;0.6121;-5.4799;
976.5000;0.6138;-5.4669;
976.8000;0.6146;-5.4695;
977.1000;0.6154;-5.4643;
977.4000;0.6154;-5.4695;
977.7000;0.6138;-5.4799;
978.0000;0.6113;-5.5007;
978.3000;0.6121;-5.4929;
978.6000;0.6129;-5.4955;
978.9000;0.6146;-5.4903;
979.2000;0.6146;-5.4747;
979.5000;0.6129;-5.4799;
979.8000;0.6121;-5.4825;
980.1000;0.6129;-5.4799;
980.4000;0.6113;-5.4929;
980.7000;0.6121;-5.4929;
981.0000;0.6138;-5.4903;
981.3000;0.6146;-5.4929;
981.6000;0.6121;-5.4981;
981.9000;0.6113;-5.4929;
982.2000;0.6113;-5.4903;
982.5000;0.6121;-5.4851;
982.8000;0.6129;-5.4851;
983.1000;0.6129;-5.4877;
983.4000;0.6129;-5.4903;
983.7000;0.6186;-5.4721;
984.0000;0.6121;-5.4877;
984.3000;0.6178;-5.4618;
984.6000;0.6178;-5.4592;
984.9000;0.6129;-5.4669;
985.2000;0.6113;-5.4747;
985.5000;0.6129;-5.4773;
985.8000;0.6113;-5.4643;
986.1000;0.6121;-5.4566;
986.4000;0.6138;-5.4566;
986.7000;0.6129;-5.4592;
987.0000;0.6121;-5.4643;
987.3000;0.6138;-5.4566;
987.6000;0.6129;-5.4721;
987.9000;0.6138;-5.4721;
988.2000;0.6129;-5.4799;
988.5000;0.6138;-5.4851;
988.8000;0.6121;-5.4825;
989.1000;0.6138;-5.4773;
989.4000;0.6138;-5.4695;
989.7000;0.6138;-5.4643;
990.0000;0.6129;-5.4695;
990.3000;0.6162;-5.4566;
990.6000;0.6129;-5.4721;
990.9000;0.6121;-5.4825;
991.2000;0.6121;-5.4903;
991.5000;0.6138;-5.4851;
991.8000;0.6146;-5.4929;
992.1000;0.6129;-5.4929;
992.4000;0.6138;-5.4929;
992.7000;0.6138;-5.4929;
993.0000;0.6129;-5.4877;
993.3000;0.6121;-5.4877;
993.6000;0.6129;-5.4903;
993.9000;0.6105;-5.4929;
994.2000;0.6129;-5.4929;
994.5000;0.6121;-5.4929;
994.8000;0.6048;-5.5110;
995.1000;0.6081;-5.5084;
995.4000;0.6113;-5.4955;
995.7000;0.6097;-5.4955;
996.0000;0.6113;-5.4955;
996.3000;0.6162;-5.4877;
996.6000;0.6129;-5.4903;
996.9000;0.6121;-5.4799;
997.2000;0.6129;-5.4747;
997.5000;0.6129;-5.4773;
997.8000;0.6138;-5.4799;
998.1000;0.6195;-5.4669;
998.4000;0.6129;-5.4799;
998.7000;0.6105;-5.4773;
999.0000;0.6113;-5.4799;
999.3000;0.6089;-5.4877;
999.6000;0.6105;-5.4851;
999.9000;0.6097;-5.4903;
1000.2000;0.6121;-5.4851;
1000.5000;0.6113;-5.4851;
1000.8000;0.6113;-5.4903;
1001.1000;0.6138;-5.4747;
1001.4000;0.6113;-5.4851;
1001.7000;0.6113;-5.4903;
1002.0000;0.6121;-5.4825;
1002.3000;0.6097;-5.4851;
1002.6000;0.6121;-5.4877;
1002.9000;0.6129;-5.4825;
1003.2000;0.6113;-5.4851;
1003.5000;0.6121;-5.4773;
1003.8000;0.6121;-5.4721;
1004.1000;0.6105;-5.4825;
1004.4000;0.6113;-5.4877;
1004.7000;0.6105;-5.4903;
1005.0000;0.6121;-5.4903;
1005.3000;0.6121;-5.4851;
1005.6000;0.6129;-5.4825;
1005.9000;0.6121;-5.4825;
1006.2000;0.6105;-5.4825;
1006.5000;0.6121;-5.4799;
1006.8000;0.6113;-5.4877;
1007.1000;0.6113;-5.4851;
1007.4000;0.6138;-5.4799;
1007.7000;0.6105;-5.4877;
1008.0000;0.6113;-5.4929;
1008.3000;0.6129;-5.4955;
1008.6000;0.6089;-5.5110;
1008.9000;0.6072;-5.5110;
1009.2000;0.6113;-5.5032;
1009.5000;0.6113;-5.5007;
1009.8000;0.6113;-5.4929;
1010.1000;0.6105;-5.4799;
1010.4000;0.6097;-5.4799;
1010.7000;0.6113;-5.4799;
1011.0000;0.6113;-5.4721;
1011.3000;0.6081;-5.4721;
1011.6000;0.6113;-5.4643;
1011.9000;0.6195;-5.4410;
1012.2000;0.6089;-5.4618;
1012.5000;0.6121;-5.4592;
1012.8000;0.6097;-5.4747;
1013.1000;0.6146;-5.4669;
1013.4000;0.6129;-5.4721;
1013.7000;0.6121;-5.4721;
1014.0000;0.6089;-5.4851;
1014.3000;0.6097;-5.4877;
1014.6000;0.6097;-5.4825;
1014.9000;0.6040;-5.4981;
1015.2000;0.6072;-5.4825;
1015.5000;0.6097;-5.4851;
1015.8000;0.6089;-5.4825;
1016.1000;0.6081;-5.4721;
1016.4000;0.6097;-5.4721;
1016.7000;0.6105;-5.4669;
1017.0000;0.6121;-5.4566;
1017.3000;0.6121;-5.4592;
1017.6000;0.6138;-5.4514;
1017.9000;0.6081;-5.4747;
1018.2000;0.6097;-5.4747;
1018.5000;0.6113;-5.4799;
1018.8000;0.6105;-5.4851;
1019.1000;0.6056;-5.4955;
1019.4000;0.6105;-5.4747;
1019.7000;0.6113;-5.4669;
1020.0000;0.6113;-5.4747;
1020.3000;0.6105;-5.4877;
1020.6000;0.6105;-5.4929;
1020.9000;0.6121;-5.4877;
1021.2000;0.6097;-5.4929;
1021.5000;0.6089;-5.4903;
1021.8000;0.6105;-5.4877;
1022.1000;0.6097;-5.4877;
1022.4000;0.6056;-5.5032;
1022.7000;0.6113;-5.4981;
1023.0000;0.6105;-5.4955;
1023.3000;0.6121;-5.4825;
1023.6000;0.6105;-5.4851;
1023.9000;0.6105;-5.4877;
1024.2000;0.6105;-5.4799;
1024.5000;0.6105;-5.4721;
1024.8000;0.6089;-5.4695;
1025.1000;0.6105;-5.4592;
1025.4000;0.6170;-5.4384;
1025.7000;0.6064;-5.4669;
1026.0000;0.6097;-5.4592;
1026.3000;0.6097;-5.4643;
1026.6000;0.6097;-5.4721;
1026.9000;0.6105;-5.4669;
1027.2000;0.6097;-5.4799;
1027.5000;0.6081;-5.4799;
1027.8000;0.6048;-5.4955;
1028.1000;0.6097;-5.4877;
1028.4000;0.6097;-5.4929;
1028.7000;0.6129;-5.4877;
1029.0000;0.6081;-5.4929;
1029.3000;0.6072;-5.4903;
1029.6000;0.6097;-5.4851;
1029.9000;0.6081;-5.4851;
1030.2000;0.6097;-5.4799;
1030.5000;0.6081;-5.4825;
1030.8000;0.6097;-5.4825;
1031.1000;0.6097;-5.4773;
1031.4000;0.6081;-5.4773;
1031.7000;0.6097;-5.4695;
1032.0000;0.6064;-5.4747;
1032.3000;0.6081;-5.4669;
1032.6000;0.6097;-5.4695;
1032.9000;0.6072;-5.4618;
1033.2000;0.6097;-5.4488;
1033.5000;0.6089;-5.4514;
1033.8000;0.6072;-5.4618;
1034.1000;0.6081;-5.4566;
1034.4000;0.6081;-5.4669;
1034.7000;0.6089;-5.4618;
1035.0000;0.6121;-5.4566;
1035.3000;0.6105;-5.4721;
1035.6000;0.6105;-5.4851;
1035.9000;0.6113;-5.4851;
1036.2000;0.6097;-5.4825;
1036.5000;0.6081;-5.4799;
1036.8000;0.6105;-5.4643;
1037.1000;0.6178;-5.4488;
1037.4000;0.6105;-5.4618;
1037.7000;0.6105;-5.4643;
1038.0000;0.6072;-5.4747;
1038.3000;0.6040;-5.4773;
1038.6000;0.6097;-5.4618;
1038.9000;0.6097;-5.4618;
1039.2000;0.6081;-5.4695;
1039.5000;0.6064;-5.4799;
1039.8000;0.6089;-5.4695;
1040.1000;0.6081;-5.4695;
1040.4000;0.6081;-5.4721;
1040.7000;0.6081;-5.4669;
1041.0000;0.6089;-5.4618;
1041.3000;0.6089;-5.4540;
1041.6000;0.6081;-5.4514;
1041.9000;0.6064;-5.4566;
1042.2000;0.6081;-5.4566;
1042.5000;0.6089;-5.4592;
1042.8000;0.6072;-5.4643;
1043.1000;0.6089;-5.4540;
1043.4000;0.6113;-5.4436;
1043.7000;0.6097;-5.4488;
1044.0000;0.6097;-5.4488;
1044.3000;0.6089;-5.4436;
1044.6000;0.6081;-5.4514;
1044.9000;0.6089;-5.4436;
1045.2000;0.6113;-5.4488;
1045.5000;0.6105;-5.4514;
1045.8000;0.6097;-5.4540;
1046.1000;0.6081;-5.4514;
1046.4000;0.6105;-5.4514;
1046.7000;0.6089;-5.4592;
1047.0000;0.6097;-5.4514;
1047.3000;0.6064;-5.4566;
1047.6000;0.6121;-5.4384;
1047.9000;0.6081;-5.4514;
1048.2000;0.6081;-5.4384;
1048.5000;0.6089;-5.4280;
1048.8000;0.6089;-5.4332;
1049.1000;0.6170;-5.4203;
1049.4000;0.6129;-5.4306;
1049.7000;0.6089;-5.4306;
1050.0000;0.6072;-5.4410;
1050.3000;0.6081;-5.4358;
1050.6000;0.6138;-5.4177;
1050.9000;0.6113;-5.4358;
1051.2000;0.6089;-5.4514;
1051.5000;0.6081;-5.4540;
1051.8000;0.6097;-5.4540;
1052.1000;0.6064;-5.4669;
1052.4000;0.6081;-5.4618;
1052.7000;0.6089;-5.4618;
1053.0000;0.6097;-5.4592;
1053.3000;0.6081;-5.4540;
1053.6000;0.6064;-5.4566;
1053.9000;0.6097;-5.4566;
1054.2000;0.6113;-5.4540;
1054.5000;0.6089;-5.4540;
1054.8000;0.6146;-5.4332;
1055.1000;0.6081;-5.4514;
1055.4000;0.6105;-5.4514;
1055.7000;0.6113;-5.4462;
1056.0000;0.6105;-5.4488;
1056.3000;0.6081;-5.4488;
1056.6000;0.6064;-5.4514;
1056.9000;0.6081;-5.4488;
1057.2000;0.6072;-5.4514;
1057.5000;0.6072;-5.4462;
1057.8000;0.6056;-5.4410;
1058.1000;0.6097;-5.4358;
1058.4000;0.6081;-5.4410;
1058.7000;0.6113;-5.4410;
1059.0000;0.6121;-5.4358;
1059.3000;0.6081;-5.4410;
1059.6000;0.6097;-5.4306;
1059.9000;0.6056;-5.4410;
1060.2000;0.6048;-5.4358;
1060.5000;0.6081;-5.4306;
1060.8000;0.6064;-5.4384;
1061.1000;0.6056;-5.4384;
1061.4000;0.6064;-5.4384;
1061.7000;0.6097;-5.4280;
1062.0000;0.6048;-5.4410;
1062.3000;0.6081;-5.4436;
1062.6000;0.6081;-5.4410;
1062.9000;0.6089;-5.4410;
1063.2000;0.6105;-5.4384;
1063.5000;0.6081;-5.4332;
1063.8000;0.6089;-5.4384;
1064.1000;0.6081;-5.4462;
1064.4000;0.6097;-5.4436;
1064.7000;0.6113;-5.4384;
1065.0000;0.6081;-5.4436;
1065.3000;0.6064;-5.4410;
1065.6000;0.6081;-5.4436;
1065.9000;0.6097;-5.4332;
1066.2000;0.6097;-5.4332;
1066.5000;0.6072;-5.4384;
1066.8000;0.6081;-5.4384;
1067.1000;0.6081;-5.4358;
1067.4000;0.6072;-5.4384;
1067.7000;0.6081;-5.4384;
1068.0000;0.6097;-5.4436;
1068.3000;0.6081;-5.4488;
1068.6000;0.6048;-5.4566;
1068.9000;0.6072;-5.4488;
1069.2000;0.6105;-5.4358;
1069.5000;0.6097;-5.4384;
1069.8000;0.6113;-5.4384;
1070.1000;0.6072;-5.4436;
1070.4000;0.6048;-5.4540;
1070.7000;0.6097;-5.4462;
1071.0000;0.6081;-5.4462;
1071.3000;0.6072;-5.4488;
1071.6000;0.6064;-5.4514;
1071.9000;0.6072;-5.4488;
1072.2000;0.6072;-5.4514;
1072.5000;0.6064;-5.4436;
1072.8000;0.6056;-5.4540;
1073.1000;0.6064;-5.4436;
1073.4000;0.6056;-5.4436;
1073.7000;0.6032;-5.4592;
1074.0000;0.6056;-5.4592;
1074.3000;0.6032;-5.4721;
1074.6000;0.6089;-5.4462;
1074.9000;0.6097;-5.4514;
1075.2000;0.6040;-5.4514;
1075.5000;0.6081;-5.4384;
1075.8000;0.6064;-5.4384;
1076.1000;0.6007;-5.4618;
1076.4000;0.6072;-5.4436;
1076.7000;0.6081;-5.4462;
1077.0000;0.6081;-5.4514;
1077.3000;0.6056;-5.4566;
1077.6000;0.6064;-5.4592;
1077.9000;0.6072;-5.4618;
1078.2000;0.6081;-5.4566;
1078.5000;0.6081;-5.4540;
1078.8000;0.6064;-5.4540;
1079.1000;0.6113;-5.4384;
1079.4000;0.6081;-5.4488;
1079.7000;0.6129;-5.4384;
1080.0000;0.6105;-5.4436;
1080.3000;0.6072;-5.4566;
1080.6000;0.6064;-5.4592;
1080.9000;0.6097;-5.4566;
1081.2000;0.6097;-5.4566;
1081.5000;0.6072;-5.4747;
1081.8000;0.6064;-5.4747;
1082.1000;0.6081;-5.4773;
1082.4000;0.6081;-5.4695;
1082.7000;0.6048;-5.4799;
1083.0000;0.6072;-5.4592;
1083.3000;0.6040;-5.4566;
1083.6000;0.6064;-5.4462;
1083.9000;0.6072;-5.4358;
1084.2000;0.6056;-5.4384;
1084.5000;0.6064;-5.4358;
1084.8000;0.6081;-5.4332;
1085.1000;0.6040;-5.4488;
1085.4000;0.6064;-5.4358;
1085.7000;0.6072;-5.4332;
1086.0000;0.6072;-5.4254;
1086.3000;0.6072;-5.4306;
1086.6000;0.6081;-5.4358;
1086.9000;0.6072;-5.4358;
1087.2000;0.6089;-5.4332;
1087.5000;0.6056;-5.4488;
1087.8000;0.6048;-5.4488;
1088.1000;0.6056;-5.4488;
1088.4000;0.6072;-5.4462;
1088.7000;0.6064;-5.4436;
1089.0000;0.6072;-5.4410;
1089.3000;0.6040;-5.4514;
1089.6000;0.6064;-5.4410;
1089.9000;0.6064;-5.4358;
1090.2000;0.6089;-5.4332;
1090.5000;0.6081;-5.4384;
1090.8000;0.6064;-5.4332;
1091.1000;0.6105;-5.4228;
1091.4000;0.6072;-5.4228;
1091.7000;0.6081;-5.4151;
1092.0000;0.6056;-5.4177;
1092.3000;0.6081;-5.4177;
1092.6000;0.6081;-5.4203;
1092.9000;0.6064;-5.4306;
1093.2000;0.6072;-5.4306;
1093.5000;0.6072;-5.4332;
1093.8000;0.6064;-5.4280;
1094.1000;0.6089;-5.4254;
1094.4000;0.6064;-5.4203;
1094.7000;0.6064;-5.4177;
1095.0000;0.6064;-5.4254;
1095.3000;0.6072;-5.4203;
1095.6000;0.6056;-5.4254;
1095.9000;0.6089;-5.4099;
1096.2000;0.6064;-5.4151;
1096.5000;0.6064;-5.4151;
1096.8000;0.6072;-5.4228;
1097.1000;0.6064;-5.4254;
1097.4000;0.6072;-5.4254;
1097.7000;0.6072;-5.4254;
1098.0000;0.6072;-5.4306;
1098.3000;0.6040;-5.4358;
1098.6000;0.6064;-5.4332;
1098.9000;0.6064;-5.4410;
1099.2000;0.6064;-5.4488;
1099.5000;0.6064;-5.4488;
1099.8000;0.6072;-5.4514;
1100.1000;0.6064;-5.4540;
1100.4000;0.6064;-5.4540;
1100.7000;0.6064;-5.4566;
1101.0000;0.6072;-5.4514;
1101.3000;0.6170;-5.4280;
1101.6000;0.6081;-5.4514;
1101.9000;0.6064;-5.4540;
1102.2000;0.6072;-5.4488;
1102.5000;0.6064;-5.4462;
1102.8000;0.6072;-5.4358;
1103.1000;0.6056;-5.4384;
1103.4000;0.6081;-5.4358;
1103.7000;0.6056;-5.4436;
1104.0000;0.6064;-5.4462;
1104.3000;0.6056;-5.4540;
1104.6000;0.6064;-5.4462;
1104.9000;0.6064;-5.4514;
1105.2000;0.6072;-5.4462;
1105.5000;0.6072;-5.4488;
1105.8000;0.6007;-5.4643;
1106.1000;0.6072;-5.4643;
1106.4000;0.6072;-5.4721;
1106.7000;0.6072;-5.4695;
1107.0000;0.6056;-5.4695;
1107.3000;0.6064;-5.4695;
1107.6000;0.6064;-5.4566;
1107.9000;0.6064;-5.4540;
1108.2000;0.6081;-5.4643;
1108.5000;0.6056;-5.4721;
1108.8000;0.6056;-5.4695;
1109.1000;0.6064;-5.4669;
1109.4000;0.6056;-5.4592;
1109.7000;0.6064;-5.4514;
1110.0000;0.6056;-5.4488;
1110.3000;0.6056;-5.4462;
1110.6000;0.6048;-5.4540;
1110.9000;0.6064;-5.4514;
1111.2000;0.6072;-5.4462;
1111.5000;0.6081;-5.4462;
1111.8000;0.6072;-5.4384;
1112.1000;0.6105;-5.4436;
1112.4000;0.6064;-5.4540;
1112.7000;0.6064;-5.4462;
1113.0000;0.6064;-5.4410;
1113.3000;0.6064;-5.4436;
1113.6000;0.6064;-5.4488;
1113.9000;0.6040;-5.4488;
1114.2000;0.6024;-5.4436;
1114.5000;0.6056;-5.4384;
1114.8000;0.6056;-5.4358;
1115.1000;0.5975;-5.4514;
1115.4000;0.6048;-5.4332;
1115.7000;0.6056;-5.4332;
1116.0000;0.6056;-5.4410;
1116.3000;0.6072;-5.4384;
1116.6000;0.6072;-5.4410;
1116.9000;0.6072;-5.4436;
1117.2000;0.6072;-5.4462;
1117.5000;0.6056;-5.4566;
1117.8000;0.6048;-5.4566;
1118.1000;0.6064;-5.4540;
1118.4000;0.6048;-5.4566;
1118.7000;0.6032;-5.4592;
1119.0000;0.6056;-5.4566;
1119.3000;0.6048;-5.4514;
1119.6000;0.6056;-5.4566;
1119.9000;0.6015;-5.4592;
1120.2000;0.6015;-5.4618;
1120.5000;0.6048;-5.4566;
1120.8000;0.6056;-5.4566;
1121.1000;0.6048;-5.4643;
1121.4000;0.6064;-5.4618;
1121.7000;0.6056;-5.4592;
1122.0000;0.6064;-5.4618;
1122.3000;0.6064;-5.4643;
1122.6000;0.6056;-5.4592;
1122.9000;0.6072;-5.4488;
1123.2000;0.6048;-5.4462;
1123.5000;0.6064;-5.4488;
1123.8000;0.6064;-5.4436;
1124.1000;0.6048;-5.4592;
1124.4000;0.6064;-5.4566;
1124.7000;0.6064;-5.4592;
1125.0000;0.6048;-5.4643;
1125.3000;0.6048;-5.4695;
1125.6000;0.6048;-5.4592;
1125.9000;0.6007;-5.4618;
1126.2000;0.6064;-5.4540;
1126.5000;0.6048;-5.4540;
1126.8000;0.6064;-5.4488;
1127.1000;0.6015;-5.4618;
1127.4000;0.6064;-5.4566;
1127.7000;0.6064;-5.4643;
1128.0000;0.6040;-5.4643;
1128.3000;0.6048;-5.4669;
1128.6000;0.6064;-5.4566;
1128.9000;0.6048;-5.4566;
1129.2000;0.6032;-5.4669;
1129.5000;0.6056;-5.4618;
1129.8000;0.6056;-5.4592;
1130.1000;0.5991;-5.4747;
1130.4000;0.6048;-5.4669;
1130.7000;0.6056;-5.4695;
1131.0000;0.6040;-5.4747;
1131.3000;0.6064;-5.4643;
1131.6000;0.6081;-5.4669;
1131.9000;0.6064;-5.4669;
1132.2000;0.6064;-5.4747;
1132.5000;0.6064;-5.4695;
1132.8000;0.6048;-5.4747;
1133.1000;0.6064;-5.4747;
1133.4000;0.6056;-5.4721;
1133.7000;0.6081;-5.4643;
1134.0000;0.6056;-5.4695;
1134.3000;0.6072;-5.4643;
1134.6000;0.6056;-5.4721;
1134.9000;0.6064;-5.4721;
1135.2000;0.6056;-5.4851;
1135.5000;0.6015;-5.4903;
1135.8000;0.6056;-5.4877;
1136.1000;0.6056;-5.4851;
1136.4000;0.6048;-5.4825;
1136.7000;0.6056;-5.4747;
1137.0000;0.6056;-5.4669;
1137.3000;0.6072;-5.4643;
1137.6000;0.6056;-5.4721;
1137.9000;0.6081;-5.4618;
1138.2000;0.6056;-5.4721;
1138.5000;0.6146;-5.4462;
1138.8000;0.6056;-5.4643;
1139.1000;0.6064;-5.4618;
1139.4000;0.6048;-5.4669;
1139.7000;0.6072;-5.4592;
1140.0000;0.6056;-5.4643;
1140.3000;0.6040;-5.4669;
1140.6000;0.6056;-5.4592;
1140.9000;0.6064;-5.4592;
1141.2000;0.6024;-5.4669;
1141.5000;0.6056;-5.4540;
1141.8000;0.6048;-5.4566;
1142.1000;0.6056;-5.4592;
1142.4000;0.6064;-5.4695;
1142.7000;0.6056;-5.4721;
1143.0000;0.6048;-5.4721;
1143.3000;0.6048;-5.4877;
1143.6000;0.6056;-5.4799;
1143.9000;0.6048;-5.4721;
1144.2000;0.6048;-5.4721;
1144.5000;0.6048;-5.4799;
1144.8000;0.6048;-5.4799;
1145.1000;0.6032;-5.4929;
1145.4000;0.6040;-5.4825;
1145.7000;0.6048;-5.4825;
1146.0000;0.5999;-5.4877;
1146.3000;0.6105;-5.4643;
1146.6000;0.6048;-5.4721;
1146.9000;0.6048;-5.4695;
1147.2000;0.6064;-5.4747;
1147.5000;0.6048;-5.4747;
1147.8000;0.6032;-5.4643;
1148.1000;0.6048;-5.4592;
1148.4000;0.6040;-5.4566;
1148.7000;0.6015;-5.4592;
1149.0000;0.6113;-5.4332;
1149.3000;0.6056;-5.4540;
1149.6000;0.6048;-5.4540;
1149.9000;0.6048;-5.4540;
1150.2000;0.6032;-5.4643;
1150.5000;0.6048;-5.4514;
1150.8000;0.6056;-5.4566;
1151.1000;0.6048;-5.4540;
1151.4000;0.6056;-5.4540;
1151.7000;0.6064;-5.4540;
1152.0000;0.6056;-5.4540;
1152.3000;0.6048;-5.4618;
1152.6000;0.6032;-5.4618;
1152.9000;0.6056;-5.4643;
1153.2000;0.6048;-5.4566;
1153.5000;0.6040;-5.4592;
1153.8000;0.6048;-5.4643;
1154.1000;0.6048;-5.4669;
1154.4000;0.6056;-5.4669;
1154.7000;0.6064;-5.4669;
1155.0000;0.6048;-5.4695;
1155.3000;0.6056;-5.4643;
1155.6000;0.6032;-5.4643;
1155.9000;0.6032;-5.4669;
1156.2000;0.6064;-5.4618;
1156.5000;0.6056;-5.4618;
1156.8000;0.6056;-5.4721;
1157.1000;0.6048;-5.4851;
1157.4000;0.6072;-5.4799;
1157.7000;0.6032;-5.4929;
1158.0000;0.6056;-5.4955;
1158.3000;0.6040;-5.5032;
1158.6000;0.6024;-5.5110;
1158.9000;0.6056;-5.5084;
1159.2000;0.6056;-5.5084;
1159.5000;0.6040;-5.5162;
1159.8000;0.6097;-5.5058;
1160.1000;0.6064;-5.5110;
1160.4000;0.6064;-5.5084;
1160.7000;0.6064;-5.5007;
1161.0000;0.6040;-5.5084;
1161.3000;0.5975;-5.5188;
1161.6000;0.6048;-5.4955;
1161.9000;0.6056;-5.4903;
1162.2000;0.6048;-5.4773;
1162.5000;0.6048;-5.4747;
1162.8000;0.6064;-5.4747;
1163.1000;0.6064;-5.4618;
1163.4000;0.6056;-5.4643;
1163.7000;0.6024;-5.4747;
1164.0000;0.6056;-5.4799;
1164.3000;0.6072;-5.4799;
1164.6000;0.6048;-5.4929;
1164.9000;0.6040;-5.4903;
1165.2000;0.6089;-5.4877;
1165.5000;0.6048;-5.4955;
1165.8000;0.6056;-5.4851;
1166.1000;0.6056;-5.4851;
1166.4000;0.6015;-5.5007;
1166.7000;0.6024;-5.4929;
1167.0000;0.6032;-5.4825;
1167.3000;0.6032;-5.4851;
1167.6000;0.6040;-5.4773;
1167.9000;0.6064;-5.4695;
1168.2000;0.6024;-5.4799;
1168.5000;0.6056;-5.4747;
1168.8000;0.6048;-5.4721;
1169.1000;0.6056;-5.4747;
1169.4000;0.6064;-5.4773;
1169.7000;0.6129;-5.4669;
1170.0000;0.6040;-5.4825;
1170.3000;0.6040;-5.4747;
1170.6000;0.6040;-5.4773;
1170.9000;0.6032;-5.4877;
1171.2000;0.6032;-5.4981;
1171.5000;0.6056;-5.4903;
1171.8000;0.6064;-5.4903;
1172.1000;0.6040;-5.4903;
1172.4000;0.6040;-5.4851;
1172.7000;0.6040;-5.4773;
1173.0000;0.6040;-5.4773;
1173.3000;0.6040;-5.4747;
1173.6000;0.6040;-5.4799;
1173.9000;0.6048;-5.4721;
1174.2000;0.6129;-5.4436;
1174.5000;0.6032;-5.4592;
1174.8000;0.6056;-5.4436;
1175.1000;0.6032;-5.4540;
1175.4000;0.6048;-5.4514;
1175.7000;0.6032;-5.4514;
1176.0000;0.6024;-5.4488;
1176.3000;0.6032;-5.4514;
1176.6000;0.6032;-5.4540;
1176.9000;0.6040;-5.4592;
1177.2000;0.6056;-5.4643;
1177.5000;0.6032;-5.4618;
1177.8000;0.5983;-5.4747;
1178.1000;0.6048;-5.4695;
1178.4000;0.6024;-5.4747;
1178.7000;0.6040;-5.4721;
1179.0000;0.6048;-5.4643;
1179.3000;0.6040;-5.4566;
1179.6000;0.6048;-5.4618;
1179.9000;0.6007;-5.4618;
1180.2000;0.6032;-5.4540;
1180.5000;0.6032;-5.4462;
1180.8000;0.6056;-5.4488;
1181.1000;0.6040;-5.4514;
1181.4000;0.6024;-5.4566;
1181.7000;0.6048;-5.4462;
1182.0000;0.6024;-5.4566;
1182.3000;0.6072;-5.4462;
1182.6000;0.6024;-5.4618;
1182.9000;0.6032;-5.4592;
1183.2000;0.6089;-5.4514;
1183.5000;0.6032;-5.4592;
1183.8000;0.6040;-5.4592;
1184.1000;0.6015;-5.4747;
1184.4000;0.6048;-5.4695;
1184.7000;0.6040;-5.4566;
1185.0000;0.6040;-5.4488;
1185.3000;0.6024;-5.4514;
1185.6000;0.6024;-5.4566;
1185.9000;0.6048;-5.4592;
1186.2000;0.6048;-5.4747;
1186.5000;0.6024;-5.4773;
1186.8000;0.6064;-5.4721;
1187.1000;0.6048;-5.4747;
1187.4000;0.6048;-5.4747;
1187.7000;0.6040;-5.4747;
1188.0000;0.6040;-5.4747;
1188.3000;0.6048;-5.4695;
1188.6000;0.6072;-5.4618;
1188.9000;0.6048;-5.4669;
1189.2000;0.6056;-5.4643;
1189.5000;0.6056;-5.4695;
1189.8000;0.6048;-5.4669;
1190.1000;0.6048;-5.4669;
1190.4000;0.5999;-5.4877;
1190.7000;0.6040;-5.4643;
1191.0000;0.5999;-5.4773;
1191.3000;0.6056;-5.4592;
1191.6000;0.6032;-5.4618;
1191.9000;0.6032;-5.4592;
1192.2000;0.6064;-5.4514;
1192.5000;0.6048;-5.4643;
1192.8000;0.6024;-5.4721;
1193.1000;0.6064;-5.4592;
1193.4000;0.6007;-5.4669;
1193.7000;0.6040;-5.4566;
1194.0000;0.6040;-5.4540;
1194.3000;0.6056;-5.4540;
1194.6000;0.6032;-5.4592;
1194.9000;0.6032;-5.4592;
1195.2000;0.6024;-5.4540;
1195.5000;0.6024;-5.4566;
1195.8000;0.6056;-5.4514;
1196.1000;0.6040;-5.4566;
1196.4000;0.6032;-5.4540;
1196.7000;0.6024;-5.4669;
1197.0000;0.5999;-5.4721;
1197.3000;0.6032;-5.4695;
1197.6000;0.6040;-5.4643;
1197.9000;0.6040;-5.4799;
1198.2000;0.6024;-5.4773;
1198.5000;0.6048;-5.4747;
1198.8000;0.6048;-5.4799;
1199.1000;0.6048;-5.4747;
1199.4000;0.6032;-5.4747;
1199.7000;0.6040;-5.4747;
1200.0000;0.6032;-5.4773;
1200.3000;0.6024;-5.4851;
1200.6000;0.6081;-5.4799;
1200.9000;0.6024;-5.4825;
1201.2000;0.5999;-5.4825;
1201.5000;0.6040;-5.4799;
1201.8000;0.6032;-5.4747;
1202.1000;0.6024;-5.4773;
1202.4000;0.6040;-5.4773;
1202.7000;0.6024;-5.4721;
1203.0000;0.6040;-5.4695;
1203.3000;0.6032;-5.4695;
1203.6000;0.6048;-5.4592;
1203.9000;0.6056;-5.4566;
1204.2000;0.6024;-5.4669;
1204.5000;0.6040;-5.4618;
1204.8000;0.6040;-5.4592;
1205.1000;0.6048;-5.4592;
1205.4000;0.6032;-5.4695;
1205.7000;0.6024;-5.4799;
1206.0000;0.6032;-5.4773;
1206.3000;0.6064;-5.4721;
1206.6000;0.5991;-5.4825;
1206.9000;0.6032;-5.4773;
1207.2000;0.6024;-5.4825;
1207.5000;0.6032;-5.4877;
1207.8000;0.6048;-5.4825;
1208.1000;0.6015;-5.4773;
1208.4000;0.6105;-5.4618;
1208.7000;0.6024;-5.4825;
1209.0000;0.6032;-5.4747;
1209.3000;0.6015;-5.4747;
1209.6000;0.6081;-5.4618;
1209.9000;0.6032;-5.4721;
1210.2000;0.6032;-5.4695;
1210.5000;0.6040;-5.4721;
1210.8000;0.6048;-5.4773;
1211.1000;0.6024;-5.4903;
1211.4000;0.6032;-5.4877;
1211.7000;0.6040;-5.4877;
1212.0000;0.6032;-5.4903;
1212.3000;0.6024;-5.4903;
1212.6000;0.6024;-5.4929;
1212.9000;0.6032;-5.4851;
1213.2000;0.6015;-5.4877;
1213.5000;0.6032;-5.4799;
1213.8000;0.6032;-5.4747;
1214.1000;0.6040;-5.4773;
1214.4000;0.6048;-5.4592;
1214.7000;0.6032;-5.4721;
1215.0000;0.5991;-5.4851;
1215.3000;0.6032;-5.4773;
1215.6000;0.6056;-5.4773;
1215.9000;0.6024;-5.4903;
1216.2000;0.6015;-5.4929;
1216.5000;0.6048;-5.4929;
1216.8000;0.6032;-5.4981;
1217.1000;0.6032;-5.4955;
1217.4000;0.6024;-5.4903;
1217.7000;0.6024;-5.4903;
1218.0000;0.6032;-5.4851;
1218.3000;0.6032;-5.4799;
1218.6000;0.6015;-5.4825;
1218.9000;0.6032;-5.4773;
1219.2000;0.6024;-5.4877;
1219.5000;0.6048;-5.4877;
1219.8000;0.6040;-5.4929;
1220.1000;0.6032;-5.4877;
1220.4000;0.6032;-5.4799;
1220.7000;0.6056;-5.4721;
1221.0000;0.6032;-5.4747;
1221.3000;0.5975;-5.4877;
1221.6000;0.6097;-5.4566;
1221.9000;0.6024;-5.4851;
1222.2000;0.6064;-5.4825;
1222.5000;0.6024;-5.4929;
1222.8000;0.6024;-5.4851;
1223.1000;0.6015;-5.4851;
1223.4000;0.6024;-5.4851;
1223.7000;0.6024;-5.4721;
1224.0000;0.6015;-5.4773;
1224.3000;0.6040;-5.4747;
1224.6000;0.6040;-5.4643;
1224.9000;0.6056;-5.4618;
1225.2000;0.6024;-5.4695;
1225.5000;0.6032;-5.4669;
1225.8000;0.6032;-5.4643;
1226.1000;0.6040;-5.4566;
1226.4000;0.6007;-5.4618;
1226.7000;0.6024;-5.4514;
1227.0000;0.6007;-5.4669;
1227.3000;0.6056;-5.4514;
1227.6000;0.6064;-5.4592;
1227.9000;0.6032;-5.4695;
1228.2000;0.6007;-5.4721;
1228.5000;0.6040;-5.4669;
1228.8000;0.6032;-5.4643;
1229.1000;0.6024;-5.4773;
1229.4000;0.6048;-5.4721;
1229.7000;0.6048;-5.4773;
1230.0000;0.6032;-5.4825;
1230.3000;0.6081;-5.4592;
1230.6000;0.6032;-5.4695;
1230.9000;0.6056;-5.4566;
1231.2000;0.6048;-5.4643;
1231.5000;0.6032;-5.4643;
1231.8000;0.6024;-5.4618;
1232.1000;0.5999;-5.4669;
1232.4000;0.6040;-5.4592;
1232.7000;0.6032;-5.4643;
1233.0000;0.6024;-5.4721;
1233.3000;0.6024;-5.4799;
1233.6000;0.6024;-5.4721;
1233.9000;0.6015;-5.4643;
1234.2000;0.6024;-5.4566;
1234.5000;0.6040;-5.4488;
1234.8000;0.6040;-5.4540;
1235.1000;0.6032;-5.4540;
1235.4000;0.6040;-5.4540;
1235.7000;0.6048;-5.4618;
1236.0000;0.6040;-5.4747;
1236.3000;0.6032;-5.4773;
1236.6000;0.6032;-5.4721;
1236.9000;0.6024;-5.4773;
1237.2000;0.6032;-5.4747;
1237.5000;0.6032;-5.4799;
1237.8000;0.6024;-5.4877;
1238.1000;0.5991;-5.4981;
1238.4000;0.6024;-5.4877;
1238.7000;0.6024;-5.4955;
1239.0000;0.6048;-5.4799;
1239.3000;0.6015;-5.4773;
1239.6000;0.6040;-5.4747;
1239.9000;0.6032;-5.4643;
1240.2000;0.6032;-5.4669;
1240.5000;0.6024;-5.4566;
1240.8000;0.6024;-5.4618;
1241.1000;0.6048;-5.4488;
1241.4000;0.6032;-5.4618;
1241.7000;0.6032;-5.4669;
1242.0000;0.6040;-5.4695;
1242.3000;0.6032;-5.4695;
1242.6000;0.6024;-5.4721;
1242.9000;0.6015;-5.4695;
1243.2000;0.6024;-5.4695;
1243.5000;0.6024;-5.4721;
1243.8000;0.6024;-5.4747;
1244.1000;0.5975;-5.4955;
1244.4000;0.6015;-5.4825;
1244.7000;0.6032;-5.4773;
1245.0000;0.6007;-5.4773;
1245.3000;0.6015;-5.4566;
1245.6000;0.6015;-5.4540;
1245.9000;0.6015;-5.4410;
1246.2000;0.5991;-5.4462;
1246.5000;0.6032;-5.4384;
1246.8000;0.6024;-5.4488;
1247.1000;0.5999;-5.4592;
1247.4000;0.6040;-5.4488;
1247.7000;0.6032;-5.4514;
1248.0000;0.6015;-5.4540;
1248.3000;0.6032;-5.4514;
1248.6000;0.6024;-5.4488;
1248.9000;0.6015;-5.4462;
1249.2000;0.5942;-5.4618;
1249.5000;0.6040;-5.4436;
1249.8000;0.6024;-5.4488;
1250.1000;0.6040;-5.4488;
1250.4000;0.6032;-5.4540;
1250.7000;0.6015;-5.4592;
1251.0000;0.6040;-5.4540;
1251.3000;0.6007;-5.4566;
1251.6000;0.6015;-5.4669;
1251.9000;0.6032;-5.4695;
1252.2000;0.6032;-5.4643;
1252.5000;0.6024;-5.4566;
1252.8000;0.5975;-5.4695;
1253.1000;0.6048;-5.4488;
1253.4000;0.6032;-5.4488;
1253.7000;0.6015;-5.4514;
1254.0000;0.6032;-5.4514;
1254.3000;0.5983;-5.4643;
1254.6000;0.5999;-5.4643;
1254.9000;0.6015;-5.4643;
1255.2000;0.6072;-5.4566;
1255.5000;0.6024;-5.4669;
1255.8000;0.6015;-5.4695;
1256.1000;0.6015;-5.4669;
1256.4000;0.6040;-5.4669;
1256.7000;0.6024;-5.4669;
1257.0000;0.6015;-5.4695;
1257.3000;0.6007;-5.4643;
1257.6000;0.6024;-5.4618;
1257.9000;0.6015;-5.4643;
1258.2000;0.6007;-5.4669;
1258.5000;0.6024;-5.4618;
1258.8000;0.6024;-5.4592;
1259.1000;0.6040;-5.4566;
1259.4000;0.6024;-5.4566;
1259.7000;0.6040;-5.4488;
1260.0000;0.6024;-5.4592;
1260.3000;0.6024;-5.4643;
1260.6000;0.6024;-5.4695;
1260.9000;0.6024;-5.4695;
1261.2000;0.6015;-5.4747;
1261.5000;0.6015;-5.4695;
1261.8000;0.6040;-5.4643;
1262.1000;0.5991;-5.4799;
1262.4000;0.6024;-5.4669;
1262.7000;0.6015;-5.4643;
1263.0000;0.6024;-5.4592;
1263.3000;0.6089;-5.4462;
1263.6000;0.6024;-5.4618;
1263.9000;0.6024;-5.4618;
1264.2000;0.6048;-5.4566;
1264.5000;0.6015;-5.4747;
1264.8000;0.5975;-5.4851;
1265.1000;0.5958;-5.4929;
1265.4000;0.6024;-5.4695;
1265.7000;0.6024;-5.4695;
1266.0000;0.5983;-5.4669;
1266.3000;0.6024;-5.4592;
1266.6000;0.6015;-5.4618;
1266.9000;0.6040;-5.4592;
1267.2000;0.6056;-5.4618;
1267.5000;0.6024;-5.4618;
1267.8000;0.6024;-5.4566;
1268.1000;0.6015;-5.4592;
1268.4000;0.6015;-5.4643;
1268.7000;0.6007;-5.4566;
1269.0000;0.6024;-5.4514;
1269.3000;0.6032;-5.4514;
1269.6000;0.5999;-5.4566;
1269.9000;0.6024;-5.4592;
1270.2000;0.5958;-5.4799;
1270.5000;0.6024;-5.4566;
1270.8000;0.6024;-5.4592;
1271.1000;0.6024;-5.4618;
1271.4000;0.6024;-5.4592;
1271.7000;0.6040;-5.4618;
1272.0000;0.6040;-5.4669;
1272.3000;0.6024;-5.4695;
1272.6000;0.6040;-5.4643;
1272.9000;0.6015;-5.4695;
1273.2000;0.6015;-5.4747;
1273.5000;0.6040;-5.4643;
1273.8000;0.6024;-5.4695;
1274.1000;0.6015;-5.4618;
1274.4000;0.6032;-5.4514;
1274.7000;0.5975;-5.4566;
1275.0000;0.6007;-5.4566;
1275.3000;0.6024;-5.4592;
1275.6000;0.6024;-5.4566;
1275.9000;0.6007;-5.4618;
1276.2000;0.6015;-5.4488;
1276.5000;0.5999;-5.4592;
1276.8000;0.6015;-5.4514;
1277.1000;0.6024;-5.4540;
1277.4000;0.6007;-5.4618;
1277.7000;0.6015;-5.4540;
1278.0000;0.6024;-5.4462;
1278.3000;0.6032;-5.4488;
1278.6000;0.6024;-5.4488;
1278.9000;0.6089;-5.4280;
1279.2000;0.6007;-5.4566;
1279.5000;0.6024;-5.4514;
1279.8000;0.6007;-5.4540;
1280.1000;0.5991;-5.4592;
1280.4000;0.5999;-5.4462;
1280.7000;0.6007;-5.4436;
1281.0000;0.6015;-5.4410;
1281.3000;0.6024;-5.4436;
1281.6000;0.5999;-5.4540;
1281.9000;0.6040;-5.4540;
1282.2000;0.6015;-5.4540;
1282.5000;0.6007;-5.4514;
1282.8000;0.6024;-5.4488;
1283.1000;0.6024;-5.4592;
1283.4000;0.6056;-5.4410;
1283.7000;0.5983;-5.4643;
1284.0000;0.6048;-5.4436;
1284.3000;0.5958;-5.4618;
1284.6000;0.5991;-5.4436;
1284.9000;0.6024;-5.4384;
1285.2000;0.6024;-5.4488;
1285.5000;0.6015;-5.4514;
1285.8000;0.5999;-5.4566;
1286.1000;0.6040;-5.4436;
1286.4000;0.5975;-5.4566;
1286.7000;0.6040;-5.4410;
1287.0000;0.6032;-5.4488;
1287.3000;0.6007;-5.4592;
1287.6000;0.6015;-5.4669;
1287.9000;0.6015;-5.4592;
1288.2000;0.6007;-5.4540;
1288.5000;0.6024;-5.4514;
1288.8000;0.6015;-5.4514;
1289.1000;0.5999;-5.4618;
1289.4000;0.5999;-5.4643;
1289.7000;0.5999;-5.4695;
1290.0000;0.6007;-5.4669;
1290.3000;0.6007;-5.4695;
1290.6000;0.5999;-5.4799;
1290.9000;0.6015;-5.4695;
1291.2000;0.5999;-5.4669;
1291.5000;0.6015;-5.4540;
1291.8000;0.5999;-5.4566;
1292.1000;0.6032;-5.4540;
1292.4000;0.6024;-5.4462;
1292.7000;0.6024;-5.4488;
1293.0000;0.6015;-5.4488;
1293.3000;0.6040;-5.4540;
1293.6000;0.6024;-5.4540;
1293.9000;0.6015;-5.4566;
1294.2000;0.6040;-5.4514;
1294.5000;0.5999;-5.4592;
1294.8000;0.6032;-5.4514;
1295.1000;0.6015;-5.4540;
1295.4000;0.5999;-5.4618;
1295.7000;0.6024;-5.4540;
1296.0000;0.5999;-5.4488;
1296.3000;0.5999;-5.4540;
1296.6000;0.6007;-5.4462;
1296.9000;0.6007;-5.4488;
1297.2000;0.6015;-5.4436;
1297.5000;0.6024;-5.4384;
1297.8000;0.6032;-5.4436;
1298.1000;0.6015;-5.4436;
1298.4000;0.5983;-5.4514;
1298.7000;0.6032;-5.4436;
1299.0000;0.6015;-5.4410;
1299.3000;0.5967;-5.4514;
1299.6000;0.6007;-5.4358;
1299.9000;0.6024;-5.4410;
1300.2000;0.6072;-5.4332;
1300.5000;0.6007;-5.4410;
1300.8000;0.6007;-5.4462;
1301.1000;0.6007;-5.4462;
1301.4000;0.6007;-5.4514;
1301.7000;0.6015;-5.4566;
1302.0000;0.6007;-5.4540;
1302.3000;0.5950;-5.4592;
1302.6000;0.5999;-5.4540;
1302.9000;0.6007;-5.4540;
1303.2000;0.6007;-5.4488;
1303.5000;0.6015;-5.4514;
1303.8000;0.6015;-5.4592;
1304.1000;0.6015;-5.4592;
1304.4000;0.6015;-5.4669;
1304.7000;0.6015;-5.4643;
1305.0000;0.6007;-5.4618;
1305.3000;0.5999;-5.4747;
1305.6000;0.5999;-5.4695;
1305.9000;0.6007;-5.4695;
1306.2000;0.6032;-5.4669;
1306.5000;0.6015;-5.4773;
1306.8000;0.5999;-5.4877;
1307.1000;0.6040;-5.4825;
1307.4000;0.6015;-5.4877;
1307.7000;0.6024;-5.4799;
1308.0000;0.5958;-5.4903;
1308.3000;0.6032;-5.4695;
1308.6000;0.6024;-5.4669;
1308.9000;0.6032;-5.4669;
1309.2000;0.6024;-5.4618;
1309.5000;0.6024;-5.4514;
1309.8000;0.6032;-5.4514;
1310.1000;0.6015;-5.4592;
1310.4000;0.6015;-5.4643;
1310.7000;0.6015;-5.4721;
1311.0000;0.6015;-5.4747;
1311.3000;0.6015;-5.4721;
1311.6000;0.6007;-5.4747;
1311.9000;0.6007;-5.4773;
1312.2000;0.6007;-5.4669;
1312.5000;0.6007;-5.4643;
1312.8000;0.6015;-5.4592;
1313.1000;0.5999;-5.4566;
1313.4000;0.5991;-5.4618;
1313.7000;0.6007;-5.4566;
1314.0000;0.6007;-5.4566;
1314.3000;0.6015;-5.4643;
1314.6000;0.6024;-5.4669;
1314.9000;0.6015;-5.4643;
1315.2000;0.6015;-5.4643;
1315.5000;0.6024;-5.4566;
1315.8000;0.6015;-5.4618;
1316.1000;0.6015;-5.4592;
1316.4000;0.6024;-5.4514;
1316.7000;0.6024;-5.4488;
1317.0000;0.6015;-5.4514;
1317.3000;0.6015;-5.4592;
1317.6000;0.6007;-5.4592;
1317.9000;0.6032;-5.4618;
1318.2000;0.6032;-5.4592;
1318.5000;0.6015;-5.4540;
1318.8000;0.6024;-5.4618;
1319.1000;0.6015;-5.4592;
1319.4000;0.6007;-5.4566;
1319.7000;0.6007;-5.4566;
1320.0000;0.6007;-5.4540;
1320.3000;0.6040;-5.4436;
1320.6000;0.5950;-5.4747;
1320.9000;0.5999;-5.4643;
1321.2000;0.6056;-5.4618;
1321.5000;0.5999;-5.4721;
1321.8000;0.6015;-5.4721;
1322.1000;0.5991;-5.4695;
1322.4000;0.6007;-5.4695;
1322.7000;0.6015;-5.4669;
1323.0000;0.6015;-5.4592;
1323.3000;0.5942;-5.4773;
1323.6000;0.6032;-5.4514;
1323.9000;0.5942;-5.4695;
1324.2000;0.5999;-5.4643;
1324.5000;0.5999;-5.4592;
1324.8000;0.6015;-5.4669;
1325.1000;0.5983;-5.4695;
1325.4000;0.6007;-5.4566;
1325.7000;0.6040;-5.4514;
1326.0000;0.6007;-5.4643;
1326.3000;0.6007;-5.4669;
1326.6000;0.5999;-5.4669;
1326.9000;0.6024;-5.4566;
1327.2000;0.6056;-5.4540;
1327.5000;0.6007;-5.4669;
1327.8000;0.5999;-5.4618;
1328.1000;0.5983;-5.4618;
1328.4000;0.6007;-5.4436;
1328.7000;0.5999;-5.4436;
1329.0000;0.5999;-5.4462;
1329.3000;0.6072;-5.4358;
1329.6000;0.6007;-5.4540;
1329.9000;0.6015;-5.4618;
1330.2000;0.6007;-5.4540;
1330.5000;0.6007;-5.4618;
1330.8000;0.6032;-5.4514;
1331.1000;0.6007;-5.4540;
1331.4000;0.5999;-5.4566;
1331.7000;0.5991;-5.4566;
1332.0000;0.6024;-5.4462;
1332.3000;0.6007;-5.4540;
1332.6000;0.5999;-5.4695;
1332.9000;0.5991;-5.4747;
1333.2000;0.5999;-5.4695;
1333.5000;0.5999;-5.4695;
1333.8000;0.6015;-5.4540;
1334.1000;0.6007;-5.4462;
1334.4000;0.6024;-5.4436;
1334.7000;0.6007;-5.4462;
1335.0000;0.5999;-5.4462;
1335.3000;0.5991;-5.4514;
1335.6000;0.6007;-5.4462;
1335.9000;0.6032;-5.4462;
1336.2000;0.6007;-5.4488;
1336.5000;0.5999;-5.4540;
1336.8000;0.6007;-5.4514;
1337.1000;0.6024;-5.4436;
1337.4000;0.5999;-5.4592;
1337.7000;0.5999;-5.4592;
1338.0000;0.6015;-5.4618;
1338.3000;0.6024;-5.4695;
1338.6000;0.6007;-5.4721;
1338.9000;0.6015;-5.4592;
1339.2000;0.5991;-5.4566;
1339.5000;0.6007;-5.4488;
1339.8000;0.5999;-5.4462;
1340.1000;0.6048;-5.4332;
1340.4000;0.6015;-5.4436;
1340.7000;0.6015;-5.4410;
1341.0000;0.6015;-5.4410;
1341.3000;0.6007;-5.4514;
1341.6000;0.5983;-5.4566;
1341.9000;0.6024;-5.4592;
1342.2000;0.6015;-5.4592;
1342.5000;0.6007;-5.4721;
1342.8000;0.5999;-5.4825;
1343.1000;0.5999;-5.4799;
1343.4000;0.6015;-5.4773;
1343.7000;0.6007;-5.4721;
1344.0000;0.6024;-5.4695;
1344.3000;0.5999;-5.4721;
1344.6000;0.6007;-5.4721;
1344.9000;0.6015;-5.4669;
1345.2000;0.6015;-5.4618;
1345.5000;0.6015;-5.4618;
1345.8000;0.5991;-5.4592;
1346.1000;0.6007;-5.4540;
1346.4000;0.6015;-5.4566;
1346.7000;0.5991;-5.4618;
1347.0000;0.5958;-5.4669;
1347.3000;0.6007;-5.4514;
1347.6000;0.5983;-5.4514;
1347.9000;0.6007;-5.4358;
1348.2000;0.5950;-5.4514;
1348.5000;0.6007;-5.4358;
1348.8000;0.5999;-5.4462;
1349.1000;0.6024;-5.4462;
1349.4000;0.6015;-5.4462;
1349.7000;0.6015;-5.4514;
1350.0000;0.6007;-5.4488;
1350.3000;0.5999;-5.4618;
1350.6000;0.5999;-5.4618;
1350.9000;0.6024;-5.4462;
1351.2000;0.6007;-5.4462;
1351.5000;0.6007;-5.4462;
1351.8000;0.5999;-5.4514;
1352.1000;0.6024;-5.4462;
1352.4000;0.6024;-5.4462;
1352.7000;0.6024;-5.4514;
1353.0000;0.6007;-5.4618;
1353.3000;0.6015;-5.4566;
1353.6000;0.6048;-5.4566;
1353.9000;0.6015;-5.4618;
1354.2000;0.5999;-5.4592;
1354.5000;0.6048;-5.4488;
1354.8000;0.6015;-5.4618;
1355.1000;0.5975;-5.4592;
1355.4000;0.6007;-5.4514;
1355.7000;0.6007;-5.4358;
1356.0000;0.5991;-5.4384;
1356.3000;0.6007;-5.4358;
1356.6000;0.6007;-5.4410;
1356.9000;0.6007;-5.4384;
1357.2000;0.6072;-5.4306;
1357.5000;0.5999;-5.4488;
1357.8000;0.5999;-5.4436;
1358.1000;0.6024;-5.4410;
1358.4000;0.5983;-5.4410;
1358.7000;0.6007;-5.4332;
1359.0000;0.6032;-5.4332;
1359.3000;0.5991;-5.4436;
1359.6000;0.5983;-5.4384;
1359.9000;0.6015;-5.4358;
1360.2000;0.6015;-5.4410;
1360.5000;0.6007;-5.4410;
1360.8000;0.6007;-5.4436;
1361.1000;0.6007;-5.4410;
1361.4000;0.6015;-5.4410;
1361.7000;0.6015;-5.4384;
1362.0000;0.5942;-5.4566;
1362.3000;0.6015;-5.4332;
1362.6000;0.5999;-5.4384;
1362.9000;0.6007;-5.4358;
1363.2000;0.6007;-5.4332;
1363.5000;0.5999;-5.4358;
1363.8000;0.6007;-5.4306;
1364.1000;0.6072;-5.4151;
1364.4000;0.5999;-5.4306;
1364.7000;0.6007;-5.4254;
1365.0000;0.6024;-5.4280;
1365.3000;0.6032;-5.4280;
1365.6000;0.6007;-5.4410;
1365.9000;0.5999;-5.4462;
1366.2000;0.6015;-5.4462;
1366.5000;0.6007;-5.4436;
1366.8000;0.5991;-5.4436;
1367.1000;0.5991;-5.4358;
1367.4000;0.5983;-5.4462;
1367.7000;0.5991;-5.4384;
1368.0000;0.5983;-5.4410;
1368.3000;0.5999;-5.4410;
1368.6000;0.6007;-5.4410;
1368.9000;0.6024;-5.4332;
1369.2000;0.5999;-5.4358;
1369.5000;0.6015;-5.4384;
1369.8000;0.5999;-5.4410;
1370.1000;0.5999;-5.4410;
1370.4000;0.6048;-5.4358;
1370.7000;0.6015;-5.4384;
1371.0000;0.6024;-5.4410;
1371.3000;0.6040;-5.4436;
1371.6000;0.6032;-5.4488;
1371.9000;0.5983;-5.4514;
1372.2000;0.6032;-5.4410;
1372.5000;0.6007;-5.4488;
1372.8000;0.6007;-5.4514;
1373.1000;0.6056;-5.4462;
1373.4000;0.5999;-5.4592;
1373.7000;0.5991;-5.4592;
1374.0000;0.5999;-5.4592;
1374.3000;0.6024;-5.4669;
1374.6000;0.5991;-5.4669;
1374.9000;0.5983;-5.4721;
1375.2000;0.5991;-5.4566;
1375.5000;0.5999;-5.4462;
1375.8000;0.6032;-5.4358;
1376.1000;0.5983;-5.4462;
1376.4000;0.6040;-5.4436;
1376.7000;0.6015;-5.4514;
1377.0000;0.6015;-5.4514;
1377.3000;0.5983;-5.4540;
1377.6000;0.6015;-5.4540;
1377.9000;0.6024;-5.4540;
1378.2000;0.6007;-5.4592;
1378.5000;0.6007;-5.4643;
1378.8000;0.5942;-5.4799;
1379.1000;0.5983;-5.4669;
1379.4000;0.5983;-5.4695;
1379.7000;0.6056;-5.4566;
1380.0000;0.6007;-5.4721;
1380.3000;0.5999;-5.4695;
1380.6000;0.6007;-5.4695;
1380.9000;0.6015;-5.4618;
1381.2000;0.5999;-5.4618;
1381.5000;0.5999;-5.4721;
1381.8000;0.6007;-5.4592;
1382.1000;0.6015;-5.4618;
1382.4000;0.5999;-5.4592;
1382.7000;0.5999;-5.4566;
1383.0000;0.6007;-5.4643;
1383.3000;0.6015;-5.4566;
1383.6000;0.5991;-5.4488;
1383.9000;0.5991;-5.4540;
1384.2000;0.6048;-5.4436;
1384.5000;0.6015;-5.4540;
1384.8000;0.6007;-5.4566;
1385.1000;0.6007;-5.4540;
1385.4000;0.6007;-5.4540;
1385.7000;0.6007;-5.4488;
1386.0000;0.6007;-5.4592;
1386.3000;0.5999;-5.4540;
1386.6000;0.5991;-5.4540;
1386.9000;0.6024;-5.4462;
1387.2000;0.6015;-5.4488;
1387.5000;0.5999;-5.4514;
1387.8000;0.5999;-5.4566;
1388.1000;0.5991;-5.4592;
1388.4000;0.5999;-5.4566;
1388.7000;0.5991;-5.4643;
1389.0000;0.5983;-5.4721;
1389.3000;0.6007;-5.4669;
1389.6000;0.6015;-5.4721;
1389.9000;0.6007;-5.4721;
1390.2000;0.5967;-5.4695;
1390.5000;0.5983;-5.4592;
1390.8000;0.6024;-5.4436;
1391.1000;0.5991;-5.4436;
1391.4000;0.6007;-5.4410;
1391.7000;0.6024;-5.4280;
1392.0000;0.6015;-5.4358;
1392.3000;0.5991;-5.4566;
1392.6000;0.6007;-5.4540;
1392.9000;0.6007;-5.4566;
1393.2000;0.6024;-5.4488;
1393.5000;0.5991;-5.4618;
1393.8000;0.5975;-5.4592;
1394.1000;0.6007;-5.4462;
1394.4000;0.5999;-5.4436;
1394.7000;0.6064;-5.4280;
1395.0000;0.6015;-5.4332;
1395.3000;0.6024;-5.4384;
1395.6000;0.6015;-5.4384;
1395.9000;0.6007;-5.4384;
1396.2000;0.5983;-5.4384;
1396.5000;0.5991;-5.4410;
1396.8000;0.5991;-5.4410;
1397.1000;0.6007;-5.4488;
1397.4000;0.5999;-5.4462;
1397.7000;0.6048;-5.4358;
1398.0000;0.6007;-5.4462;
1398.3000;0.6064;-5.4228;
1398.6000;0.5999;-5.4384;
1398.9000;0.6007;-5.4332;
1399.2000;0.5991;-5.4358;
1399.5000;0.5999;-5.4332;
1399.8000;0.6007;-5.4306;
