time/ms;Fluo/V;P700 deltaI/I x10³;
-199.8000;0.1327;-0.9746;
-199.5000;0.1343;-0.9796;
-199.2000;0.1343;-0.9796;
-198.9000;0.1335;-0.9821;
-198.6000;0.1368;-0.9695;
-198.3000;0.1359;-0.9746;
-198.0000;0.1351;-0.9821;
-197.7000;0.1351;-0.9796;
-197.4000;0.1335;-0.9746;
-197.1000;0.1359;-0.9721;
-196.8000;0.1368;-0.9645;
-196.5000;0.1359;-0.9821;
-196.2000;0.1343;-0.9896;
-195.9000;0.1343;-0.9896;
-195.6000;0.1368;-0.9821;
-195.3000;0.1351;-0.9896;
-195.0000;0.1359;-0.9721;
-194.7000;0.1359;-0.9695;
-194.4000;0.1359;-0.9746;
-194.1000;0.1343;-0.9771;
-193.8000;0.1368;-0.9695;
-193.5000;0.1359;-0.9721;
-193.2000;0.1359;-0.9595;
-192.9000;0.1351;-0.9695;
-192.6000;0.1376;-0.9695;
-192.3000;0.1384;-0.9695;
-192.0000;0.1359;-0.9721;
-191.7000;0.1335;-0.9695;
-191.4000;0.1368;-0.9595;
-191.1000;0.1359;-0.9545;
-190.8000;0.1359;-0.9469;
-190.5000;0.1368;-0.9495;
-190.2000;0.1351;-0.9444;
-189.9000;0.1368;-0.9444;
-189.6000;0.1368;-0.9570;
-189.3000;0.1351;-0.9645;
-189.0000;0.1400;-0.9469;
-188.7000;0.1335;-0.9695;
-188.4000;0.1351;-0.9570;
-188.1000;0.1384;-0.9495;
-187.8000;0.1351;-0.9670;
-187.5000;0.1311;-0.9771;
-187.2000;0.1359;-0.9695;
-186.9000;0.1343;-0.9871;
-186.6000;0.1368;-0.9846;
-186.3000;0.1416;-0.9871;
-186.0000;0.1359;-0.9972;
-185.7000;0.1343;-0.9947;
-185.4000;0.1368;-0.9871;
-185.1000;0.1359;-0.9922;
-184.8000;0.1351;-0.9896;
-184.5000;0.1319;-1.0022;
-184.2000;0.1368;-0.9896;
-183.9000;0.1368;-0.9821;
-183.6000;0.1351;-0.9871;
-183.3000;0.1351;-0.9771;
-183.0000;0.1343;-0.9796;
-182.7000;0.1343;-0.9871;
-182.4000;0.1351;-0.9896;
-182.1000;0.1368;-0.9947;
-181.8000;0.1359;-0.9922;
-181.5000;0.1376;-0.9997;
-181.2000;0.1351;-1.0022;
-180.9000;0.1384;-0.9896;
-180.6000;0.1359;-0.9846;
-180.3000;0.1368;-0.9746;
-180.0000;0.1343;-0.9721;
-179.7000;0.1359;-0.9670;
-179.4000;0.1359;-0.9721;
-179.1000;0.1368;-0.9796;
-178.8000;0.1343;-0.9947;
-178.5000;0.1359;-0.9947;
-178.2000;0.1359;-0.9896;
-177.9000;0.1368;-0.9896;
-177.6000;0.1335;-0.9972;
-177.3000;0.1343;-0.9821;
-177.0000;0.1376;-0.9796;
-176.7000;0.1368;-0.9846;
-176.4000;0.1351;-0.9821;
-176.1000;0.1351;-0.9846;
-175.8000;0.1359;-0.9896;
-175.5000;0.1359;-0.9896;
-175.2000;0.1351;-0.9896;
-174.9000;0.1335;-0.9972;
-174.6000;0.1319;-0.9972;
-174.3000;0.1359;-0.9947;
-174.0000;0.1343;-1.0022;
-173.7000;0.1368;-1.0022;
-173.4000;0.1359;-0.9972;
-173.1000;0.1359;-0.9972;
-172.8000;0.1368;-0.9997;
-172.5000;0.1359;-0.9896;
-172.2000;0.1343;-0.9896;
-171.9000;0.1335;-0.9997;
-171.6000;0.1343;-0.9947;
-171.3000;0.1351;-0.9972;
-171.0000;0.1359;-0.9922;
-170.7000;0.1335;-0.9871;
-170.4000;0.1343;-0.9947;
-170.1000;0.1359;-0.9972;
-169.8000;0.1351;-0.9972;
-169.5000;0.1359;-0.9972;
-169.2000;0.1359;-1.0022;
-168.9000;0.1343;-1.0097;
-168.6000;0.1351;-1.0097;
-168.3000;0.1343;-1.0022;
-168.0000;0.1359;-0.9922;
-167.7000;0.1376;-0.9922;
-167.4000;0.1368;-0.9997;
-167.1000;0.1359;-0.9972;
-166.8000;0.1368;-0.9896;
-166.5000;0.1335;-0.9947;
-166.2000;0.1343;-0.9871;
-165.9000;0.1368;-0.9871;
-165.6000;0.1368;-0.9871;
-165.3000;0.1327;-0.9896;
-165.0000;0.1359;-0.9846;
-164.7000;0.1351;-0.9871;
-164.4000;0.1319;-0.9947;
-164.1000;0.1351;-0.9821;
-163.8000;0.1343;-0.9871;
-163.5000;0.1359;-0.9821;
-163.2000;0.1335;-0.9922;
-162.9000;0.1327;-0.9947;
-162.6000;0.1351;-0.9922;
-162.3000;0.1343;-0.9871;
-162.0000;0.1351;-0.9922;
-161.7000;0.1351;-0.9947;
-161.4000;0.1368;-0.9922;
-161.1000;0.1359;-0.9947;
-160.8000;0.1327;-1.0022;
-160.5000;0.1359;-0.9947;
-160.2000;0.1384;-0.9896;
-159.9000;0.1351;-0.9997;
-159.6000;0.1351;-0.9972;
-159.3000;0.1351;-1.0022;
-159.0000;0.1384;-0.9922;
-158.7000;0.1368;-0.9896;
-158.4000;0.1351;-0.9997;
-158.1000;0.1335;-1.0047;
-157.8000;0.1335;-1.0072;
-157.5000;0.1408;-0.9821;
-157.2000;0.1343;-0.9922;
-156.9000;0.1351;-0.9796;
-156.6000;0.1351;-0.9846;
-156.3000;0.1351;-0.9896;
-156.0000;0.1384;-0.9871;
-155.7000;0.1351;-0.9997;
-155.4000;0.1343;-0.9896;
-155.1000;0.1359;-0.9821;
-154.8000;0.1368;-0.9796;
-154.5000;0.1359;-0.9821;
-154.2000;0.1359;-0.9821;
-153.9000;0.1376;-0.9871;
-153.6000;0.1368;-0.9871;
-153.3000;0.1335;-0.9972;
-153.0000;0.1311;-0.9972;
-152.7000;0.1376;-0.9846;
-152.4000;0.1351;-0.9846;
-152.1000;0.1359;-0.9771;
-151.8000;0.1400;-0.9695;
-151.5000;0.1359;-0.9846;
-151.2000;0.1425;-0.9721;
-150.9000;0.1359;-0.9846;
-150.6000;0.1359;-0.9846;
-150.3000;0.1359;-0.9771;
-150.0000;0.1359;-0.9796;
-149.7000;0.1343;-0.9846;
-149.4000;0.1368;-0.9821;
-149.1000;0.1359;-0.9721;
-148.8000;0.1343;-0.9796;
-148.5000;0.1359;-0.9746;
-148.2000;0.1359;-0.9796;
-147.9000;0.1359;-0.9670;
-147.6000;0.1327;-0.9670;
-147.3000;0.1392;-0.9419;
-147.0000;0.1359;-0.9520;
-146.7000;0.1335;-0.9595;
-146.4000;0.1343;-0.9620;
-146.1000;0.1335;-0.9746;
-145.8000;0.1359;-0.9771;
-145.5000;0.1408;-0.9695;
-145.2000;0.1359;-0.9796;
-144.9000;0.1368;-0.9846;
-144.6000;0.1278;-1.0047;
-144.3000;0.1368;-0.9746;
-144.0000;0.1327;-0.9771;
-143.7000;0.1368;-0.9670;
-143.4000;0.1351;-0.9746;
-143.1000;0.1343;-0.9771;
-142.8000;0.1335;-0.9771;
-142.5000;0.1351;-0.9796;
-142.2000;0.1351;-0.9846;
-141.9000;0.1351;-0.9796;
-141.6000;0.1368;-0.9796;
-141.3000;0.1376;-0.9721;
-141.0000;0.1351;-0.9796;
-140.7000;0.1359;-0.9796;
-140.4000;0.1368;-0.9670;
-140.1000;0.1359;-0.9645;
-139.8000;0.1359;-0.9620;
-139.5000;0.1359;-0.9570;
-139.2000;0.1359;-0.9645;
-138.9000;0.1327;-0.9796;
-138.6000;0.1368;-0.9746;
-138.3000;0.1343;-0.9846;
-138.0000;0.1343;-0.9997;
-137.7000;0.1351;-0.9997;
-137.4000;0.1359;-0.9972;
-137.1000;0.1392;-0.9846;
-136.8000;0.1351;-0.9947;
-136.5000;0.1408;-0.9771;
-136.2000;0.1376;-0.9771;
-135.9000;0.1359;-0.9796;
-135.6000;0.1351;-0.9821;
-135.3000;0.1368;-0.9896;
-135.0000;0.1359;-0.9796;
-134.7000;0.1368;-0.9721;
-134.4000;0.1368;-0.9771;
-134.1000;0.1270;-1.0097;
-133.8000;0.1368;-0.9821;
-133.5000;0.1368;-0.9796;
-133.2000;0.1359;-0.9896;
-132.9000;0.1359;-0.9947;
-132.6000;0.1359;-0.9746;
-132.3000;0.1368;-0.9595;
-132.0000;0.1368;-0.9670;
-131.7000;0.1368;-0.9721;
-131.4000;0.1384;-0.9746;
-131.1000;0.1270;-1.0072;
-130.8000;0.1343;-0.9871;
-130.5000;0.1368;-0.9821;
-130.2000;0.1335;-0.9947;
-129.9000;0.1368;-0.9721;
-129.6000;0.1359;-0.9645;
-129.3000;0.1327;-0.9670;
-129.0000;0.1351;-0.9695;
-128.7000;0.1368;-0.9620;
-128.4000;0.1384;-0.9670;
-128.1000;0.1359;-0.9796;
-127.8000;0.1384;-0.9821;
-127.5000;0.1368;-0.9796;
-127.2000;0.1368;-0.9821;
-126.9000;0.1441;-0.9670;
-126.6000;0.1408;-0.9670;
-126.3000;0.1351;-0.9846;
-126.0000;0.1384;-0.9746;
-125.7000;0.1359;-0.9796;
-125.4000;0.1351;-0.9871;
-125.1000;0.1351;-0.9821;
-124.8000;0.1368;-0.9821;
-124.5000;0.1384;-0.9821;
-124.2000;0.1368;-0.9846;
-123.9000;0.1335;-0.9997;
-123.6000;0.1278;-1.0248;
-123.3000;0.1335;-1.0047;
-123.0000;0.1368;-1.0097;
-122.7000;0.1359;-1.0122;
-122.4000;0.1368;-1.0047;
-122.1000;0.1384;-0.9947;
-121.8000;0.1359;-1.0022;
-121.5000;0.1343;-0.9947;
-121.2000;0.1359;-0.9821;
-120.9000;0.1359;-0.9746;
-120.6000;0.1343;-0.9821;
-120.3000;0.1359;-0.9821;
-120.0000;0.1335;-0.9796;
-119.7000;0.1368;-0.9771;
-119.4000;0.1376;-0.9746;
-119.1000;0.1343;-0.9821;
-118.8000;0.1343;-0.9821;
-118.5000;0.1376;-0.9721;
-118.2000;0.1359;-0.9771;
-117.9000;0.1384;-0.9695;
-117.6000;0.1351;-0.9746;
-117.3000;0.1376;-0.9771;
-117.0000;0.1376;-0.9746;
-116.7000;0.1359;-0.9746;
-116.4000;0.1384;-0.9695;
-116.1000;0.1376;-0.9771;
-115.8000;0.1384;-0.9670;
-115.5000;0.1408;-0.9620;
-115.2000;0.1368;-0.9746;
-114.9000;0.1376;-0.9771;
-114.6000;0.1359;-0.9821;
-114.3000;0.1376;-0.9746;
-114.0000;0.1400;-0.9721;
-113.7000;0.1335;-0.9796;
-113.4000;0.1351;-0.9746;
-113.1000;0.1294;-0.9796;
-112.8000;0.1343;-0.9695;
-112.5000;0.1408;-0.9520;
-112.2000;0.1351;-0.9746;
-111.9000;0.1376;-0.9670;
-111.6000;0.1335;-0.9846;
-111.3000;0.1311;-0.9947;
-111.0000;0.1368;-0.9796;
-110.7000;0.1368;-0.9746;
-110.4000;0.1343;-0.9846;
-110.1000;0.1294;-0.9972;
-109.8000;0.1376;-0.9796;
-109.5000;0.1311;-0.9896;
-109.2000;0.1351;-0.9871;
-108.9000;0.1351;-0.9922;
-108.6000;0.1343;-0.9947;
-108.3000;0.1351;-0.9871;
-108.0000;0.1359;-0.9896;
-107.7000;0.1359;-0.9846;
-107.4000;0.1335;-0.9896;
-107.1000;0.1359;-0.9871;
-106.8000;0.1359;-0.9821;
-106.5000;0.1351;-0.9871;
-106.2000;0.1343;-0.9821;
-105.9000;0.1351;-0.9871;
-105.6000;0.1376;-0.9796;
-105.3000;0.1376;-0.9821;
-105.0000;0.1368;-0.9846;
-104.7000;0.1359;-0.9922;
-104.4000;0.1359;-0.9846;
-104.1000;0.1368;-0.9746;
-103.8000;0.1384;-0.9746;
-103.5000;0.1368;-0.9771;
-103.2000;0.1368;-0.9721;
-102.9000;0.1368;-0.9796;
-102.6000;0.1359;-0.9896;
-102.3000;0.1359;-0.9846;
-102.0000;0.1400;-0.9645;
-101.7000;0.1359;-0.9746;
-101.4000;0.1376;-0.9746;
-101.1000;0.1351;-0.9821;
-100.8000;0.1384;-0.9721;
-100.5000;0.1359;-0.9746;
-100.2000;0.1359;-0.9896;
-99.9000;0.1294;-1.0072;
-99.6000;0.1400;-0.9896;
-99.3000;0.1351;-0.9997;
-99.0000;0.1343;-0.9997;
-98.7000;0.1351;-1.0022;
-98.4000;0.1384;-0.9947;
-98.1000;0.1384;-0.9896;
-97.8000;0.1351;-1.0022;
-97.5000;0.1351;-1.0022;
-97.2000;0.1465;-0.9695;
-96.9000;0.1319;-1.0047;
-96.6000;0.1384;-0.9871;
-96.3000;0.1433;-0.9746;
-96.0000;0.1327;-1.0097;
-95.7000;0.1351;-0.9947;
-95.4000;0.1359;-0.9922;
-95.1000;0.1376;-0.9846;
-94.8000;0.1343;-0.9846;
-94.5000;0.1351;-0.9846;
-94.2000;0.1302;-0.9997;
-93.9000;0.1343;-0.9771;
-93.6000;0.1351;-0.9796;
-93.3000;0.1343;-0.9771;
-93.0000;0.1311;-0.9896;
-92.7000;0.1368;-0.9746;
-92.4000;0.1351;-0.9846;
-92.1000;0.1368;-0.9821;
-91.8000;0.1384;-0.9771;
-91.5000;0.1368;-0.9721;
-91.2000;0.1327;-0.9796;
-90.9000;0.1351;-0.9796;
-90.6000;0.1351;-0.9771;
-90.3000;0.1359;-0.9746;
-90.0000;0.1343;-0.9821;
-89.7000;0.1311;-0.9947;
-89.4000;0.1343;-0.9947;
-89.1000;0.1351;-0.9997;
-88.8000;0.1359;-0.9896;
-88.5000;0.1368;-0.9846;
-88.2000;0.1351;-0.9896;
-87.9000;0.1368;-0.9846;
-87.6000;0.1327;-0.9972;
-87.3000;0.1351;-0.9947;
-87.0000;0.1359;-1.0022;
-86.7000;0.1368;-1.0047;
-86.4000;0.1368;-1.0097;
-86.1000;0.1368;-1.0097;
-85.8000;0.1368;-0.9997;
-85.5000;0.1359;-0.9922;
-85.2000;0.1319;-0.9896;
-84.9000;0.1351;-0.9871;
-84.6000;0.1343;-0.9846;
-84.3000;0.1359;-0.9796;
-84.0000;0.1335;-0.9721;
-83.7000;0.1359;-0.9645;
-83.4000;0.1351;-0.9746;
-83.1000;0.1359;-0.9746;
-82.8000;0.1359;-0.9796;
-82.5000;0.1359;-0.9821;
-82.2000;0.1376;-0.9821;
-81.9000;0.1368;-0.9896;
-81.6000;0.1368;-0.9871;
-81.3000;0.1351;-0.9972;
-81.0000;0.1384;-0.9871;
-80.7000;0.1376;-0.9896;
-80.4000;0.1368;-0.9922;
-80.1000;0.1384;-0.9896;
-79.8000;0.1335;-0.9972;
-79.5000;0.1384;-0.9896;
-79.2000;0.1359;-0.9871;
-78.9000;0.1384;-0.9796;
-78.6000;0.1343;-0.9922;
-78.3000;0.1327;-1.0097;
-78.0000;0.1392;-0.9922;
-77.7000;0.1327;-1.0122;
-77.4000;0.1359;-1.0022;
-77.1000;0.1376;-1.0022;
-76.8000;0.1359;-0.9947;
-76.5000;0.1384;-0.9771;
-76.2000;0.1400;-0.9821;
-75.9000;0.1376;-0.9947;
-75.6000;0.1343;-0.9947;
-75.3000;0.1368;-0.9896;
-75.0000;0.1359;-0.9997;
-74.7000;0.1343;-0.9947;
-74.4000;0.1359;-0.9896;
-74.1000;0.1433;-0.9645;
-73.8000;0.1359;-0.9796;
-73.5000;0.1368;-0.9771;
-73.2000;0.1351;-0.9695;
-72.9000;0.1359;-0.9746;
-72.6000;0.1408;-0.9670;
-72.3000;0.1351;-0.9796;
-72.0000;0.1343;-0.9846;
-71.7000;0.1351;-0.9846;
-71.4000;0.1376;-0.9746;
-71.1000;0.1327;-0.9846;
-70.8000;0.1359;-0.9846;
-70.5000;0.1351;-0.9896;
-70.2000;0.1359;-0.9796;
-69.9000;0.1368;-0.9796;
-69.6000;0.1359;-0.9746;
-69.3000;0.1368;-0.9746;
-69.0000;0.1359;-0.9821;
-68.7000;0.1376;-0.9746;
-68.4000;0.1359;-0.9796;
-68.1000;0.1416;-0.9796;
-67.8000;0.1302;-0.9972;
-67.5000;0.1343;-0.9896;
-67.2000;0.1351;-0.9771;
-66.9000;0.1351;-0.9746;
-66.6000;0.1351;-0.9620;
-66.3000;0.1343;-0.9570;
-66.0000;0.1351;-0.9545;
-65.7000;0.1368;-0.9620;
-65.4000;0.1343;-0.9670;
-65.1000;0.1368;-0.9570;
-64.8000;0.1351;-0.9620;
-64.5000;0.1319;-0.9821;
-64.2000;0.1335;-0.9746;
-63.9000;0.1351;-0.9746;
-63.6000;0.1262;-0.9972;
-63.3000;0.1368;-0.9721;
-63.0000;0.1294;-0.9922;
-62.7000;0.1359;-0.9670;
-62.4000;0.1327;-0.9746;
-62.1000;0.1359;-0.9695;
-61.8000;0.1351;-0.9846;
-61.5000;0.1384;-0.9796;
-61.2000;0.1368;-0.9746;
-60.9000;0.1376;-0.9670;
-60.6000;0.1351;-0.9721;
-60.3000;0.1408;-0.9545;
-60.0000;0.1376;-0.9645;
-59.7000;0.1359;-0.9670;
-59.4000;0.1392;-0.9645;
-59.1000;0.1351;-0.9796;
-58.8000;0.1368;-0.9670;
-58.5000;0.1384;-0.9670;
-58.2000;0.1400;-0.9695;
-57.9000;0.1359;-0.9746;
-57.6000;0.1343;-0.9771;
-57.3000;0.1376;-0.9695;
-57.0000;0.1302;-0.9922;
-56.7000;0.1368;-0.9695;
-56.4000;0.1368;-0.9695;
-56.1000;0.1359;-0.9645;
-55.8000;0.1376;-0.9670;
-55.5000;0.1327;-0.9771;
-55.2000;0.1351;-0.9721;
-54.9000;0.1351;-0.9771;
-54.6000;0.1302;-0.9871;
-54.3000;0.1376;-0.9670;
-54.0000;0.1359;-0.9821;
-53.7000;0.1416;-0.9695;
-53.4000;0.1351;-0.9896;
-53.1000;0.1351;-0.9972;
-52.8000;0.1351;-0.9997;
-52.5000;0.1400;-0.9796;
-52.2000;0.1294;-1.0072;
-51.9000;0.1351;-0.9922;
-51.6000;0.1311;-0.9997;
-51.3000;0.1359;-0.9746;
-51.0000;0.1368;-0.9771;
-50.7000;0.1359;-0.9771;
-50.4000;0.1335;-0.9771;
-50.1000;0.1359;-0.9746;
-49.8000;0.1368;-0.9771;
-49.5000;0.1311;-0.9972;
-49.2000;0.1368;-0.9796;
-48.9000;0.1359;-0.9746;
-48.6000;0.1351;-0.9695;
-48.3000;0.1351;-0.9645;
-48.0000;0.1335;-0.9771;
-47.7000;0.1327;-0.9821;
-47.4000;0.1343;-0.9821;
-47.1000;0.1376;-0.9670;
-46.8000;0.1359;-0.9721;
-46.5000;0.1343;-0.9846;
-46.2000;0.1376;-0.9846;
-45.9000;0.1359;-0.9947;
-45.6000;0.1376;-0.9821;
-45.3000;0.1376;-0.9821;
-45.0000;0.1351;-0.9871;
-44.7000;0.1359;-0.9871;
-44.4000;0.1376;-0.9896;
-44.1000;0.1359;-1.0047;
-43.8000;0.1351;-1.0022;
-43.5000;0.1351;-1.0022;
-43.2000;0.1351;-0.9947;
-42.9000;0.1359;-0.9947;
-42.6000;0.1343;-0.9922;
-42.3000;0.1368;-0.9846;
-42.0000;0.1359;-0.9846;
-41.7000;0.1335;-0.9896;
-41.4000;0.1359;-0.9695;
-41.1000;0.1343;-0.9695;
-40.8000;0.1351;-0.9746;
-40.5000;0.1359;-0.9771;
-40.2000;0.1359;-0.9771;
-39.9000;0.1351;-0.9771;
-39.6000;0.1351;-0.9796;
-39.3000;0.1359;-0.9896;
-39.0000;0.1335;-0.9947;
-38.7000;0.1327;-0.9947;
-38.4000;0.1343;-1.0022;
-38.1000;0.1343;-0.9997;
-37.8000;0.1359;-1.0047;
-37.5000;0.1359;-0.9997;
-37.2000;0.1335;-1.0022;
-36.9000;0.1351;-1.0022;
-36.6000;0.1351;-1.0072;
-36.3000;0.1343;-1.0148;
-36.0000;0.1335;-1.0148;
-35.7000;0.1376;-1.0022;
-35.4000;0.1359;-1.0072;
-35.1000;0.1368;-0.9997;
-34.8000;0.1376;-0.9947;
-34.5000;0.1384;-0.9922;
-34.2000;0.1433;-0.9771;
-33.9000;0.1359;-0.9947;
-33.6000;0.1359;-0.9972;
-33.3000;0.1351;-1.0022;
-33.0000;0.1376;-0.9997;
-32.7000;0.1376;-1.0072;
-32.4000;0.1351;-1.0047;
-32.1000;0.1359;-1.0022;
-31.8000;0.1392;-0.9972;
-31.5000;0.1384;-0.9972;
-31.2000;0.1351;-1.0022;
-30.9000;0.1400;-0.9896;
-30.6000;0.1376;-1.0022;
-30.3000;0.1351;-1.0122;
-30.0000;0.1286;-1.0198;
-29.7000;0.1351;-1.0047;
-29.4000;0.1400;-0.9947;
-29.1000;0.1359;-1.0047;
-28.8000;0.1343;-1.0047;
-28.5000;0.1376;-1.0022;
-28.2000;0.1343;-1.0173;
-27.9000;0.1335;-1.0198;
-27.6000;0.1335;-1.0248;
-27.3000;0.1327;-1.0173;
-27.0000;0.1359;-1.0047;
-26.7000;0.1433;-0.9922;
-26.4000;0.1359;-1.0072;
-26.1000;0.1351;-1.0122;
-25.8000;0.1327;-1.0223;
-25.5000;0.1368;-0.9997;
-25.2000;0.1359;-1.0173;
-24.9000;0.1368;-1.0173;
-24.6000;0.1408;-1.0097;
-24.3000;0.1384;-1.0148;
-24.0000;0.1368;-1.0047;
-23.7000;0.1376;-0.9972;
-23.4000;0.1351;-1.0097;
-23.1000;0.1359;-0.9997;
-22.8000;0.1359;-0.9922;
-22.5000;0.1343;-0.9997;
-22.2000;0.1359;-1.0047;
-21.9000;0.1351;-1.0072;
-21.6000;0.1368;-0.9997;
-21.3000;0.1359;-1.0122;
-21.0000;0.1351;-1.0097;
-20.7000;0.1270;-1.0323;
-20.4000;0.1359;-1.0022;
-20.1000;0.1343;-1.0122;
-19.8000;0.1351;-1.0198;
-19.5000;0.1351;-1.0148;
-19.2000;0.1368;-0.9997;
-18.9000;0.1351;-0.9896;
-18.6000;0.1359;-0.9922;
-18.3000;0.1343;-1.0072;
-18.0000;0.1351;-0.9972;
-17.7000;0.1359;-1.0022;
-17.4000;0.1351;-1.0047;
-17.1000;0.1327;-1.0072;
-16.8000;0.1359;-0.9947;
-16.5000;0.1368;-0.9846;
-16.2000;0.1359;-0.9871;
-15.9000;0.1343;-0.9972;
-15.6000;0.1351;-0.9997;
-15.3000;0.1343;-0.9947;
-15.0000;0.1351;-0.9922;
-14.7000;0.1359;-0.9922;
-14.4000;0.1351;-0.9947;
-14.1000;0.1359;-0.9922;
-13.8000;0.1335;-0.9997;
-13.5000;0.1343;-1.0022;
-13.2000;0.1327;-1.0072;
-12.9000;0.1343;-0.9972;
-12.6000;0.1351;-0.9947;
-12.3000;0.1359;-0.9947;
-12.0000;0.1441;-0.9721;
-11.7000;0.1351;-0.9896;
-11.4000;0.1359;-0.9922;
-11.1000;0.1368;-0.9871;
-10.8000;0.1368;-0.9846;
-10.5000;0.1359;-0.9821;
-10.2000;0.1376;-0.9821;
-9.9000;0.1311;-0.9997;
-9.6000;0.1368;-1.0022;
-9.3000;0.1359;-1.0047;
-9.0000;0.1359;-0.9972;
-8.7000;0.1368;-0.9922;
-8.4000;0.1343;-0.9947;
-8.1000;0.1359;-0.9846;
-7.8000;0.1351;-0.9871;
-7.5000;0.1351;-0.9922;
-7.2000;0.1343;-0.9972;
-6.9000;0.1359;-0.9896;
-6.6000;0.1368;-0.9796;
-6.3000;0.1359;-0.9821;
-6.0000;0.1368;-0.9796;
-5.7000;0.1351;-0.9922;
-5.4000;0.1335;-0.9922;
-5.1000;0.1359;-0.9846;
-4.8000;0.1294;-0.9922;
-4.5000;0.1351;-0.9746;
-4.2000;0.1376;-0.9746;
-3.9000;0.1351;-0.9746;
-3.6000;0.1384;-0.9771;
-3.3000;0.1376;-0.9796;
-3.0000;0.1376;-0.9771;
-2.7000;0.1343;-0.9796;
-2.4000;0.1351;-0.9846;
-2.1000;0.1359;-0.9846;
-1.8000;0.1368;-0.9746;
-1.5000;0.1359;-0.9721;
-1.2000;0.1359;-0.9796;
-0.9000;0.1335;-0.9922;
-0.6000;0.1359;-0.9922;
-0.3000;0.1368;-0.9947;
0.0000;0.1368;-0.9947;
0.3000;0.1327;-1.0022;
0.6000;0.1359;-0.9796;
0.9000;0.1392;-0.9570;
1.2000;0.1416;-0.9294;
1.5000;0.1425;-0.9068;
1.8000;0.1449;-0.8841;
2.1000;0.1441;-0.8766;
2.4000;0.1481;-0.8666;
2.7000;0.1514;-0.8389;
3.0000;0.1481;-0.8414;
3.3000;0.1473;-0.8239;
3.6000;0.1490;-0.8163;
3.9000;0.1473;-0.8113;
4.2000;0.1522;-0.7862;
4.5000;0.1490;-0.7761;
4.8000;0.1506;-0.7711;
5.1000;0.1506;-0.7611;
5.4000;0.1506;-0.7586;
5.7000;0.1490;-0.7586;
6.0000;0.1506;-0.7611;
6.3000;0.1481;-0.7611;
6.6000;0.1473;-0.7636;
6.9000;0.1514;-0.7334;
7.2000;0.1522;-0.7334;
7.5000;0.1522;-0.7460;
7.8000;0.1498;-0.7636;
8.1000;0.1506;-0.7611;
8.4000;0.1522;-0.7661;
8.7000;0.1555;-0.7535;
9.0000;0.1506;-0.7636;
9.3000;0.1530;-0.7510;
9.6000;0.1498;-0.7460;
9.9000;0.1522;-0.7385;
10.2000;0.1547;-0.7259;
10.5000;0.1522;-0.7385;
10.8000;0.1547;-0.7234;
11.1000;0.1522;-0.7385;
11.4000;0.1522;-0.7385;
11.7000;0.1522;-0.7309;
12.0000;0.1530;-0.7259;
12.3000;0.1522;-0.7259;
12.6000;0.1530;-0.7209;
12.9000;0.1490;-0.7385;
13.2000;0.1579;-0.7033;
13.5000;0.1522;-0.7159;
13.8000;0.1522;-0.7108;
14.1000;0.1530;-0.7108;
14.4000;0.1514;-0.7159;
14.7000;0.1538;-0.7058;
15.0000;0.1530;-0.7133;
15.3000;0.1538;-0.7159;
15.6000;0.1522;-0.7259;
15.9000;0.1490;-0.7360;
16.2000;0.1506;-0.7510;
16.5000;0.1538;-0.7435;
16.8000;0.1522;-0.7460;
17.1000;0.1555;-0.7460;
17.4000;0.1506;-0.7435;
17.7000;0.1530;-0.7360;
18.0000;0.1514;-0.7410;
18.3000;0.1530;-0.7485;
18.6000;0.1498;-0.7510;
18.9000;0.1522;-0.7435;
19.2000;0.1538;-0.7385;
19.5000;0.1636;-0.7108;
19.8000;0.1620;-0.7234;
20.1000;0.1490;-0.7485;
20.4000;0.1522;-0.7385;
20.7000;0.1514;-0.7234;
21.0000;0.1514;-0.7209;
21.3000;0.1530;-0.7159;
21.6000;0.1522;-0.7159;
21.9000;0.1530;-0.7108;
22.2000;0.1530;-0.7058;
22.5000;0.1514;-0.7058;
22.8000;0.1555;-0.7008;
23.1000;0.1522;-0.7234;
23.4000;0.1506;-0.7309;
23.7000;0.1530;-0.7209;
24.0000;0.1538;-0.7209;
24.3000;0.1547;-0.7184;
24.6000;0.1555;-0.7234;
24.9000;0.1514;-0.7334;
25.2000;0.1530;-0.7234;
25.5000;0.1604;-0.6958;
25.8000;0.1530;-0.7108;
26.1000;0.1514;-0.7209;
26.4000;0.1530;-0.7209;
26.7000;0.1530;-0.7360;
27.0000;0.1530;-0.7360;
27.3000;0.1498;-0.7410;
27.6000;0.1498;-0.7435;
27.9000;0.1522;-0.7435;
28.2000;0.1547;-0.7410;
28.5000;0.1530;-0.7385;
28.8000;0.1530;-0.7410;
29.1000;0.1538;-0.7360;
29.4000;0.1530;-0.7360;
29.7000;0.1563;-0.7209;
30.0000;0.1538;-0.7259;
30.3000;0.1530;-0.7309;
30.6000;0.1530;-0.7234;
30.9000;0.1530;-0.7209;
31.2000;0.1514;-0.7184;
31.5000;0.1506;-0.7284;
31.8000;0.1530;-0.7284;
32.1000;0.1571;-0.7259;
32.4000;0.1514;-0.7385;
32.7000;0.1538;-0.7410;
33.0000;0.1530;-0.7309;
33.3000;0.1522;-0.7435;
33.6000;0.1612;-0.7184;
33.9000;0.1514;-0.7435;
34.2000;0.1530;-0.7360;
34.5000;0.1530;-0.7460;
34.8000;0.1571;-0.7410;
35.1000;0.1522;-0.7485;
35.4000;0.1514;-0.7460;
35.7000;0.1522;-0.7510;
36.0000;0.1530;-0.7410;
36.3000;0.1530;-0.7485;
36.6000;0.1555;-0.7360;
36.9000;0.1538;-0.7410;
37.2000;0.1571;-0.7334;
37.5000;0.1522;-0.7485;
37.8000;0.1514;-0.7410;
38.1000;0.1538;-0.7259;
38.4000;0.1538;-0.7234;
38.7000;0.1473;-0.7385;
39.0000;0.1506;-0.7284;
39.3000;0.1530;-0.7184;
39.6000;0.1538;-0.7209;
39.9000;0.1595;-0.7008;
40.2000;0.1530;-0.7259;
40.5000;0.1514;-0.7385;
40.8000;0.1514;-0.7259;
41.1000;0.1530;-0.7209;
41.4000;0.1563;-0.7209;
41.7000;0.1498;-0.7460;
42.0000;0.1506;-0.7334;
42.3000;0.1514;-0.7284;
42.6000;0.1481;-0.7334;
42.9000;0.1481;-0.7410;
43.2000;0.1530;-0.7259;
43.5000;0.1506;-0.7334;
43.8000;0.1563;-0.7058;
44.1000;0.1587;-0.7008;
44.4000;0.1522;-0.7234;
44.7000;0.1522;-0.7284;
45.0000;0.1506;-0.7385;
45.3000;0.1522;-0.7410;
45.6000;0.1547;-0.7385;
45.9000;0.1514;-0.7510;
46.2000;0.1498;-0.7435;
46.5000;0.1506;-0.7435;
46.8000;0.1522;-0.7460;
47.1000;0.1538;-0.7460;
47.4000;0.1538;-0.7510;
47.7000;0.1522;-0.7611;
48.0000;0.1514;-0.7636;
48.3000;0.1571;-0.7510;
48.6000;0.1530;-0.7586;
48.9000;0.1538;-0.7560;
49.2000;0.1522;-0.7485;
49.5000;0.1530;-0.7410;
49.8000;0.1522;-0.7435;
50.1000;0.1555;-0.7284;
50.4000;0.1538;-0.7360;
50.7000;0.1538;-0.7360;
51.0000;0.1530;-0.7385;
51.3000;0.1514;-0.7410;
51.6000;0.1514;-0.7385;
51.9000;0.1530;-0.7334;
52.2000;0.1514;-0.7460;
52.5000;0.1449;-0.7611;
52.8000;0.1506;-0.7334;
53.1000;0.1514;-0.7284;
53.4000;0.1530;-0.7234;
53.7000;0.1538;-0.7284;
54.0000;0.1506;-0.7284;
54.3000;0.1555;-0.7133;
54.6000;0.1530;-0.7209;
54.9000;0.1628;-0.7008;
55.2000;0.1473;-0.7410;
55.5000;0.1506;-0.7284;
55.8000;0.1514;-0.7284;
56.1000;0.1522;-0.7259;
56.4000;0.1530;-0.7234;
56.7000;0.1514;-0.7209;
57.0000;0.1490;-0.7234;
57.3000;0.1555;-0.7083;
57.6000;0.1522;-0.7234;
57.9000;0.1522;-0.7284;
58.2000;0.1530;-0.7360;
58.5000;0.1547;-0.7360;
58.8000;0.1587;-0.7259;
59.1000;0.1514;-0.7360;
59.4000;0.1506;-0.7284;
59.7000;0.1530;-0.7284;
60.0000;0.1530;-0.7234;
60.3000;0.1522;-0.7133;
60.6000;0.1481;-0.7234;
60.9000;0.1587;-0.6983;
61.2000;0.1538;-0.7083;
61.5000;0.1538;-0.7133;
61.8000;0.1514;-0.7159;
62.1000;0.1522;-0.7184;
62.4000;0.1514;-0.7209;
62.7000;0.1522;-0.7284;
63.0000;0.1620;-0.7083;
63.3000;0.1530;-0.7309;
63.6000;0.1522;-0.7159;
63.9000;0.1522;-0.7209;
64.2000;0.1514;-0.7209;
64.5000;0.1547;-0.7184;
64.8000;0.1538;-0.7259;
65.1000;0.1530;-0.7360;
65.4000;0.1498;-0.7385;
65.7000;0.1506;-0.7334;
66.0000;0.1530;-0.7234;
66.3000;0.1538;-0.7159;
66.6000;0.1530;-0.7133;
66.9000;0.1498;-0.7309;
67.2000;0.1490;-0.7284;
67.5000;0.1538;-0.7259;
67.8000;0.1522;-0.7309;
68.1000;0.1481;-0.7410;
68.4000;0.1514;-0.7159;
68.7000;0.1522;-0.7259;
69.0000;0.1530;-0.7284;
69.3000;0.1522;-0.7259;
69.6000;0.1530;-0.7234;
69.9000;0.1579;-0.7159;
70.2000;0.1522;-0.7309;
70.5000;0.1522;-0.7284;
70.8000;0.1522;-0.7334;
71.1000;0.1514;-0.7334;
71.4000;0.1538;-0.7284;
71.7000;0.1522;-0.7234;
72.0000;0.1538;-0.7259;
72.3000;0.1514;-0.7259;
72.6000;0.1555;-0.7284;
72.9000;0.1522;-0.7309;
73.2000;0.1514;-0.7410;
73.5000;0.1514;-0.7435;
73.8000;0.1538;-0.7360;
74.1000;0.1555;-0.7435;
74.4000;0.1514;-0.7460;
74.7000;0.1506;-0.7535;
75.0000;0.1530;-0.7485;
75.3000;0.1538;-0.7385;
75.6000;0.1514;-0.7410;
75.9000;0.1530;-0.7309;
76.2000;0.1538;-0.7259;
76.5000;0.1522;-0.7234;
76.8000;0.1514;-0.7334;
77.1000;0.1563;-0.7259;
77.4000;0.1498;-0.7360;
77.7000;0.1522;-0.7259;
78.0000;0.1514;-0.7184;
78.3000;0.1514;-0.7284;
78.6000;0.1490;-0.7259;
78.9000;0.1547;-0.7083;
79.2000;0.1506;-0.7159;
79.5000;0.1514;-0.7058;
79.8000;0.1506;-0.7133;
80.1000;0.1522;-0.7083;
80.4000;0.1514;-0.7133;
80.7000;0.1522;-0.7209;
81.0000;0.1506;-0.7209;
81.3000;0.1457;-0.7385;
81.6000;0.1530;-0.7309;
81.9000;0.1514;-0.7360;
82.2000;0.1530;-0.7385;
82.5000;0.1522;-0.7460;
82.8000;0.1506;-0.7485;
83.1000;0.1522;-0.7435;
83.4000;0.1522;-0.7410;
83.7000;0.1530;-0.7234;
84.0000;0.1514;-0.7259;
84.3000;0.1555;-0.7159;
84.6000;0.1506;-0.7209;
84.9000;0.1538;-0.7083;
85.2000;0.1530;-0.7058;
85.5000;0.1538;-0.7108;
85.8000;0.1538;-0.7133;
86.1000;0.1538;-0.7083;
86.4000;0.1530;-0.7159;
86.7000;0.1522;-0.7209;
87.0000;0.1506;-0.7184;
87.3000;0.1514;-0.7234;
87.6000;0.1595;-0.7033;
87.9000;0.1506;-0.7284;
88.2000;0.1514;-0.7184;
88.5000;0.1506;-0.7184;
88.8000;0.1514;-0.7259;
89.1000;0.1522;-0.7334;
89.4000;0.1514;-0.7259;
89.7000;0.1506;-0.7209;
90.0000;0.1522;-0.7284;
90.3000;0.1514;-0.7334;
90.6000;0.1530;-0.7334;
90.9000;0.1506;-0.7460;
91.2000;0.1433;-0.7661;
91.5000;0.1522;-0.7334;
91.8000;0.1522;-0.7259;
92.1000;0.1506;-0.7234;
92.4000;0.1514;-0.7209;
92.7000;0.1530;-0.7159;
93.0000;0.1530;-0.7108;
93.3000;0.1522;-0.7108;
93.6000;0.1498;-0.7209;
93.9000;0.1530;-0.7209;
94.2000;0.1538;-0.7133;
94.5000;0.1522;-0.7234;
94.8000;0.1530;-0.7234;
95.1000;0.1587;-0.7033;
95.4000;0.1530;-0.7209;
95.7000;0.1522;-0.7159;
96.0000;0.1563;-0.7058;
96.3000;0.1579;-0.7058;
96.6000;0.1506;-0.7284;
96.9000;0.1530;-0.7259;
97.2000;0.1514;-0.7309;
97.5000;0.1514;-0.7360;
97.8000;0.1522;-0.7309;
98.1000;0.1530;-0.7209;
98.4000;0.1498;-0.7259;
98.7000;0.1506;-0.7234;
99.0000;0.1506;-0.7284;
99.3000;0.1457;-0.7460;
99.6000;0.1522;-0.7284;
99.9000;0.1522;-0.7360;
100.2000;0.1522;-0.7360;
100.5000;0.1530;-0.7360;
100.8000;0.1465;-0.7560;
101.1000;0.1506;-0.7485;
101.4000;0.1498;-0.7435;
101.7000;0.1522;-0.7435;
102.0000;0.1498;-0.7385;
102.3000;0.1514;-0.7334;
102.6000;0.1547;-0.7284;
102.9000;0.1506;-0.7360;
103.2000;0.1522;-0.7234;
103.5000;0.1514;-0.7133;
103.8000;0.1506;-0.7159;
104.1000;0.1530;-0.7234;
104.4000;0.1522;-0.7234;
104.7000;0.1595;-0.6983;
105.0000;0.1506;-0.7108;
105.3000;0.1498;-0.7108;
105.6000;0.1579;-0.6907;
105.9000;0.1506;-0.7083;
106.2000;0.1538;-0.7058;
106.5000;0.1514;-0.7209;
106.8000;0.1530;-0.7159;
107.1000;0.1530;-0.7184;
107.4000;0.1506;-0.7259;
107.7000;0.1514;-0.7159;
108.0000;0.1522;-0.7083;
108.3000;0.1514;-0.7133;
108.6000;0.1522;-0.7083;
108.9000;0.1522;-0.7133;
109.2000;0.1498;-0.7209;
109.5000;0.1514;-0.7108;
109.8000;0.1465;-0.7159;
110.1000;0.1514;-0.7108;
110.4000;0.1530;-0.7133;
110.7000;0.1530;-0.7058;
111.0000;0.1514;-0.7058;
111.3000;0.1506;-0.7159;
111.6000;0.1473;-0.7159;
111.9000;0.1538;-0.7033;
112.2000;0.1514;-0.7259;
112.5000;0.1498;-0.7309;
112.8000;0.1587;-0.7083;
113.1000;0.1506;-0.7334;
113.4000;0.1473;-0.7385;
113.7000;0.1506;-0.7234;
114.0000;0.1506;-0.7234;
114.3000;0.1522;-0.7083;
114.6000;0.1522;-0.7033;
114.9000;0.1498;-0.7133;
115.2000;0.1547;-0.6983;
115.5000;0.1538;-0.6983;
115.8000;0.1522;-0.7033;
116.1000;0.1522;-0.7108;
116.4000;0.1506;-0.7159;
116.7000;0.1514;-0.7184;
117.0000;0.1587;-0.6958;
117.3000;0.1522;-0.7033;
117.6000;0.1514;-0.7008;
117.9000;0.1530;-0.6882;
118.2000;0.1506;-0.7033;
118.5000;0.1522;-0.7058;
118.8000;0.1506;-0.7058;
119.1000;0.1514;-0.7008;
119.4000;0.1490;-0.7108;
119.7000;0.1538;-0.6983;
120.0000;0.1522;-0.6958;
120.3000;0.1465;-0.7209;
120.6000;0.1522;-0.7058;
120.9000;0.1522;-0.7083;
121.2000;0.1538;-0.7008;
121.5000;0.1514;-0.7058;
121.8000;0.1530;-0.7083;
122.1000;0.1514;-0.7234;
122.4000;0.1538;-0.7159;
122.7000;0.1506;-0.7209;
123.0000;0.1522;-0.7234;
123.3000;0.1538;-0.7159;
123.6000;0.1457;-0.7334;
123.9000;0.1481;-0.7334;
124.2000;0.1514;-0.7284;
124.5000;0.1506;-0.7184;
124.8000;0.1522;-0.7159;
125.1000;0.1506;-0.7159;
125.4000;0.1490;-0.7209;
125.7000;0.1522;-0.7133;
126.0000;0.1538;-0.7083;
126.3000;0.1465;-0.7385;
126.6000;0.1514;-0.7234;
126.9000;0.1490;-0.7259;
127.2000;0.1514;-0.7133;
127.5000;0.1522;-0.7234;
127.8000;0.1506;-0.7334;
128.1000;0.1563;-0.7083;
128.4000;0.1522;-0.7159;
128.7000;0.1530;-0.7133;
129.0000;0.1530;-0.7083;
129.3000;0.1514;-0.7133;
129.6000;0.1530;-0.7083;
129.9000;0.1538;-0.7083;
130.2000;0.1547;-0.7033;
130.5000;0.1530;-0.7083;
130.8000;0.1506;-0.7033;
131.1000;0.1481;-0.7033;
131.4000;0.1538;-0.7033;
131.7000;0.1473;-0.7159;
132.0000;0.1514;-0.7008;
132.3000;0.1514;-0.6958;
132.6000;0.1498;-0.6958;
132.9000;0.1498;-0.6958;
133.2000;0.1506;-0.6882;
133.5000;0.1514;-0.6907;
133.8000;0.1514;-0.6882;
134.1000;0.1498;-0.6832;
134.4000;0.1514;-0.6882;
134.7000;0.1514;-0.6832;
135.0000;0.1530;-0.6807;
135.3000;0.1506;-0.6832;
135.6000;0.1506;-0.6832;
135.9000;0.1457;-0.6933;
136.2000;0.1498;-0.6832;
136.5000;0.1498;-0.6832;
136.8000;0.1506;-0.6907;
137.1000;0.1498;-0.6907;
137.4000;0.1506;-0.6857;
137.7000;0.1465;-0.6933;
138.0000;0.1522;-0.6882;
138.3000;0.1522;-0.6958;
138.6000;0.1514;-0.6983;
138.9000;0.1490;-0.7133;
139.2000;0.1522;-0.7058;
139.5000;0.1506;-0.7058;
139.8000;0.1530;-0.6907;
140.1000;0.1563;-0.6832;
140.4000;0.1506;-0.7008;
140.7000;0.1522;-0.7008;
141.0000;0.1579;-0.6907;
141.3000;0.1514;-0.7033;
141.6000;0.1538;-0.6983;
141.9000;0.1514;-0.7083;
142.2000;0.1498;-0.7159;
142.5000;0.1514;-0.7058;
142.8000;0.1490;-0.7108;
143.1000;0.1498;-0.7058;
143.4000;0.1506;-0.6958;
143.7000;0.1506;-0.7008;
144.0000;0.1530;-0.7058;
144.3000;0.1547;-0.7033;
144.6000;0.1530;-0.7008;
144.9000;0.1538;-0.6958;
145.2000;0.1555;-0.6882;
145.5000;0.1522;-0.6983;
145.8000;0.1465;-0.7184;
146.1000;0.1506;-0.7108;
146.4000;0.1481;-0.7234;
146.7000;0.1604;-0.6807;
147.0000;0.1514;-0.7033;
147.3000;0.1530;-0.7083;
147.6000;0.1514;-0.7058;
147.9000;0.1506;-0.7033;
148.2000;0.1457;-0.7108;
148.5000;0.1506;-0.6983;
148.8000;0.1465;-0.7058;
149.1000;0.1538;-0.6882;
149.4000;0.1530;-0.7008;
149.7000;0.1506;-0.7083;
150.0000;0.1490;-0.6958;
150.3000;0.1522;-0.6907;
150.6000;0.1506;-0.6933;
150.9000;0.1514;-0.6857;
151.2000;0.1522;-0.6807;
151.5000;0.1506;-0.6882;
151.8000;0.1522;-0.6832;
152.1000;0.1538;-0.6832;
152.4000;0.1522;-0.6832;
152.7000;0.1498;-0.6958;
153.0000;0.1604;-0.6732;
153.3000;0.1490;-0.7083;
153.6000;0.1498;-0.7033;
153.9000;0.1522;-0.7033;
154.2000;0.1498;-0.7184;
154.5000;0.1522;-0.7133;
154.8000;0.1498;-0.7159;
155.1000;0.1522;-0.7133;
155.4000;0.1530;-0.7133;
155.7000;0.1514;-0.7033;
156.0000;0.1514;-0.7083;
156.3000;0.1514;-0.7033;
156.6000;0.1522;-0.7108;
156.9000;0.1498;-0.7259;
157.2000;0.1514;-0.7284;
157.5000;0.1506;-0.7259;
157.8000;0.1522;-0.7234;
158.1000;0.1498;-0.7334;
158.4000;0.1514;-0.7209;
158.7000;0.1530;-0.7159;
159.0000;0.1498;-0.7284;
159.3000;0.1538;-0.7159;
159.6000;0.1490;-0.7184;
159.9000;0.1530;-0.7083;
160.2000;0.1530;-0.7108;
160.5000;0.1563;-0.7058;
160.8000;0.1530;-0.7184;
161.1000;0.1465;-0.7284;
161.4000;0.1555;-0.6983;
161.7000;0.1530;-0.7058;
162.0000;0.1522;-0.7008;
162.3000;0.1506;-0.7033;
162.6000;0.1514;-0.7058;
162.9000;0.1514;-0.7083;
163.2000;0.1514;-0.7058;
163.5000;0.1490;-0.7083;
163.8000;0.1416;-0.7209;
164.1000;0.1612;-0.6706;
164.4000;0.1506;-0.6907;
164.7000;0.1506;-0.6958;
165.0000;0.1498;-0.7058;
165.3000;0.1530;-0.7083;
165.6000;0.1514;-0.7184;
165.9000;0.1538;-0.7184;
166.2000;0.1530;-0.7234;
166.5000;0.1514;-0.7234;
166.8000;0.1522;-0.7284;
167.1000;0.1538;-0.7234;
167.4000;0.1506;-0.7360;
167.7000;0.1522;-0.7360;
168.0000;0.1530;-0.7234;
168.3000;0.1522;-0.7259;
168.6000;0.1538;-0.7133;
168.9000;0.1514;-0.7309;
169.2000;0.1538;-0.7284;
169.5000;0.1514;-0.7209;
169.8000;0.1506;-0.7259;
170.1000;0.1514;-0.7234;
170.4000;0.1522;-0.7309;
170.7000;0.1547;-0.7209;
171.0000;0.1498;-0.7184;
171.3000;0.1522;-0.7159;
171.6000;0.1473;-0.7284;
171.9000;0.1530;-0.7159;
172.2000;0.1441;-0.7435;
172.5000;0.1538;-0.7234;
172.8000;0.1522;-0.7133;
173.1000;0.1473;-0.7334;
173.4000;0.1522;-0.7133;
173.7000;0.1514;-0.7083;
174.0000;0.1498;-0.7058;
174.3000;0.1514;-0.7008;
174.6000;0.1538;-0.6983;
174.9000;0.1490;-0.7108;
175.2000;0.1555;-0.6958;
175.5000;0.1522;-0.7058;
175.8000;0.1514;-0.7033;
176.1000;0.1481;-0.7133;
176.4000;0.1522;-0.7058;
176.7000;0.1506;-0.7008;
177.0000;0.1538;-0.6907;
177.3000;0.1530;-0.7108;
177.6000;0.1506;-0.7309;
177.9000;0.1506;-0.7284;
178.2000;0.1522;-0.7284;
178.5000;0.1506;-0.7309;
178.8000;0.1465;-0.7360;
179.1000;0.1547;-0.7133;
179.4000;0.1538;-0.7058;
179.7000;0.1522;-0.7108;
180.0000;0.1522;-0.7184;
180.3000;0.1522;-0.7209;
180.6000;0.1530;-0.7259;
180.9000;0.1530;-0.7184;
181.2000;0.1522;-0.7184;
181.5000;0.1514;-0.7133;
181.8000;0.1506;-0.7234;
182.1000;0.1538;-0.7184;
182.4000;0.1506;-0.7159;
182.7000;0.1498;-0.7284;
183.0000;0.1498;-0.7234;
183.3000;0.1522;-0.7309;
183.6000;0.1514;-0.7309;
183.9000;0.1425;-0.7460;
184.2000;0.1498;-0.7209;
184.5000;0.1506;-0.7108;
184.8000;0.1506;-0.7083;
185.1000;0.1530;-0.6933;
185.4000;0.1465;-0.7083;
185.7000;0.1506;-0.6983;
186.0000;0.1506;-0.7108;
186.3000;0.1506;-0.7133;
186.6000;0.1506;-0.7058;
186.9000;0.1522;-0.7033;
187.2000;0.1498;-0.7083;
187.5000;0.1506;-0.7133;
187.8000;0.1522;-0.7209;
188.1000;0.1490;-0.7360;
188.4000;0.1506;-0.7184;
188.7000;0.1522;-0.7259;
189.0000;0.1473;-0.7410;
189.3000;0.1522;-0.7259;
189.6000;0.1547;-0.7259;
189.9000;0.1522;-0.7234;
190.2000;0.1555;-0.7133;
190.5000;0.1498;-0.7133;
190.8000;0.1514;-0.7058;
191.1000;0.1506;-0.7159;
191.4000;0.1514;-0.7108;
191.7000;0.1522;-0.7008;
192.0000;0.1530;-0.6933;
192.3000;0.1538;-0.6907;
192.6000;0.1538;-0.6933;
192.9000;0.1506;-0.7033;
193.2000;0.1522;-0.6958;
193.5000;0.1498;-0.6958;
193.8000;0.1490;-0.6983;
194.1000;0.1400;-0.7209;
194.4000;0.1498;-0.7058;
194.7000;0.1506;-0.7008;
195.0000;0.1490;-0.7008;
195.3000;0.1498;-0.7033;
195.6000;0.1506;-0.7058;
195.9000;0.1530;-0.6832;
196.2000;0.1498;-0.7033;
196.5000;0.1506;-0.7083;
196.8000;0.1514;-0.6983;
197.1000;0.1579;-0.6882;
197.4000;0.1506;-0.7133;
197.7000;0.1506;-0.7234;
198.0000;0.1506;-0.7309;
198.3000;0.1449;-0.7535;
198.6000;0.1514;-0.7360;
198.9000;0.1514;-0.7209;
199.2000;0.1498;-0.7184;
199.5000;0.1514;-0.7159;
199.8000;0.1522;-0.7058;
200.1000;0.1612;-0.6782;
200.4000;0.1514;-0.7008;
200.7000;0.1530;-0.6983;
201.0000;0.1514;-0.6983;
201.3000;0.1530;-0.7033;
201.6000;0.1555;-0.7008;
201.9000;0.1522;-0.7058;
202.2000;0.1530;-0.7033;
202.5000;0.1506;-0.7108;
202.8000;0.1514;-0.7159;
203.1000;0.1506;-0.7259;
203.4000;0.1498;-0.7284;
203.7000;0.1522;-0.7284;
204.0000;0.1481;-0.7435;
204.3000;0.1506;-0.7485;
204.6000;0.1449;-0.7510;
204.9000;0.1498;-0.7360;
205.2000;0.1514;-0.7309;
205.5000;0.1522;-0.7284;
205.8000;0.1514;-0.7259;
206.1000;0.1547;-0.7108;
206.4000;0.1506;-0.7159;
206.7000;0.1506;-0.7209;
207.0000;0.1522;-0.7184;
207.3000;0.1506;-0.7284;
207.6000;0.1595;-0.7058;
207.9000;0.1514;-0.7309;
208.2000;0.1514;-0.7309;
208.5000;0.1522;-0.7234;
208.8000;0.1522;-0.7133;
209.1000;0.1514;-0.7159;
209.4000;0.1498;-0.7058;
209.7000;0.1530;-0.7033;
210.0000;0.1530;-0.6958;
210.3000;0.1506;-0.7008;
210.6000;0.1506;-0.7008;
210.9000;0.1514;-0.6933;
211.2000;0.1547;-0.6907;
211.5000;0.1498;-0.6983;
211.8000;0.1514;-0.7033;
212.1000;0.1514;-0.7033;
212.4000;0.1490;-0.6983;
212.7000;0.1538;-0.6882;
213.0000;0.1498;-0.7008;
213.3000;0.1498;-0.6958;
213.6000;0.1522;-0.6983;
213.9000;0.1514;-0.6983;
214.2000;0.1498;-0.7033;
214.5000;0.1473;-0.7133;
214.8000;0.1514;-0.6983;
215.1000;0.1514;-0.6983;
215.4000;0.1514;-0.7008;
215.7000;0.1514;-0.7058;
216.0000;0.1498;-0.7058;
216.3000;0.1498;-0.7159;
216.6000;0.1498;-0.7259;
216.9000;0.1490;-0.7334;
217.2000;0.1490;-0.7385;
217.5000;0.1514;-0.7284;
217.8000;0.1514;-0.7284;
218.1000;0.1530;-0.7209;
218.4000;0.1514;-0.7259;
218.7000;0.1490;-0.7435;
219.0000;0.1506;-0.7360;
219.3000;0.1506;-0.7360;
219.6000;0.1506;-0.7334;
219.9000;0.1498;-0.7360;
220.2000;0.1538;-0.7360;
220.5000;0.1506;-0.7485;
220.8000;0.1498;-0.7435;
221.1000;0.1555;-0.7234;
221.4000;0.1522;-0.7234;
221.7000;0.1530;-0.7360;
222.0000;0.1498;-0.7510;
222.3000;0.1490;-0.7485;
222.6000;0.1490;-0.7410;
222.9000;0.1514;-0.7334;
223.2000;0.1514;-0.7360;
223.5000;0.1506;-0.7334;
223.8000;0.1555;-0.7259;
224.1000;0.1514;-0.7385;
224.4000;0.1530;-0.7259;
224.7000;0.1522;-0.7309;
225.0000;0.1506;-0.7334;
225.3000;0.1538;-0.7259;
225.6000;0.1538;-0.7259;
225.9000;0.1514;-0.7360;
226.2000;0.1522;-0.7385;
226.5000;0.1498;-0.7410;
226.8000;0.1465;-0.7560;
227.1000;0.1506;-0.7334;
227.4000;0.1547;-0.7209;
227.7000;0.1522;-0.7360;
228.0000;0.1506;-0.7360;
228.3000;0.1498;-0.7360;
228.6000;0.1481;-0.7435;
228.9000;0.1547;-0.7234;
229.2000;0.1490;-0.7309;
229.5000;0.1490;-0.7309;
229.8000;0.1457;-0.7410;
230.1000;0.1498;-0.7385;
230.4000;0.1449;-0.7435;
230.7000;0.1530;-0.7234;
231.0000;0.1481;-0.7309;
231.3000;0.1490;-0.7334;
231.6000;0.1604;-0.7083;
231.9000;0.1514;-0.7334;
232.2000;0.1490;-0.7360;
232.5000;0.1498;-0.7360;
232.8000;0.1530;-0.7184;
233.1000;0.1587;-0.7008;
233.4000;0.1506;-0.7259;
233.7000;0.1514;-0.7284;
234.0000;0.1514;-0.7209;
234.3000;0.1538;-0.7083;
234.6000;0.1514;-0.7133;
234.9000;0.1506;-0.7234;
235.2000;0.1571;-0.7133;
235.5000;0.1522;-0.7209;
235.8000;0.1506;-0.7209;
236.1000;0.1441;-0.7184;
236.4000;0.1490;-0.7133;
236.7000;0.1522;-0.7083;
237.0000;0.1514;-0.7159;
237.3000;0.1514;-0.7083;
237.6000;0.1514;-0.7083;
237.9000;0.1506;-0.7184;
238.2000;0.1538;-0.7209;
238.5000;0.1530;-0.7184;
238.8000;0.1441;-0.7360;
239.1000;0.1604;-0.6907;
239.4000;0.1481;-0.7209;
239.7000;0.1522;-0.7159;
240.0000;0.1514;-0.7159;
240.3000;0.1522;-0.7159;
240.6000;0.1514;-0.7159;
240.9000;0.1490;-0.7133;
241.2000;0.1522;-0.7008;
241.5000;0.1514;-0.7058;
241.8000;0.1522;-0.7058;
242.1000;0.1449;-0.7259;
242.4000;0.1530;-0.7184;
242.7000;0.1547;-0.7184;
243.0000;0.1538;-0.7108;
243.3000;0.1498;-0.7209;
243.6000;0.1490;-0.7209;
243.9000;0.1498;-0.7259;
244.2000;0.1587;-0.7058;
244.5000;0.1530;-0.7234;
244.8000;0.1538;-0.7159;
245.1000;0.1612;-0.7008;
245.4000;0.1530;-0.7209;
245.7000;0.1514;-0.7209;
246.0000;0.1547;-0.7108;
246.3000;0.1522;-0.7184;
246.6000;0.1530;-0.7133;
246.9000;0.1530;-0.7184;
247.2000;0.1473;-0.7234;
247.5000;0.1506;-0.7133;
247.8000;0.1555;-0.7083;
248.1000;0.1514;-0.7309;
248.4000;0.1514;-0.7360;
248.7000;0.1481;-0.7410;
249.0000;0.1514;-0.7284;
249.3000;0.1530;-0.7259;
249.6000;0.1498;-0.7334;
249.9000;0.1506;-0.7410;
250.2000;0.1522;-0.7385;
250.5000;0.1506;-0.7360;
250.8000;0.1563;-0.7234;
251.1000;0.1473;-0.7510;
251.4000;0.1563;-0.7284;
251.7000;0.1490;-0.7334;
252.0000;0.1514;-0.7234;
252.3000;0.1498;-0.7309;
252.6000;0.1490;-0.7309;
252.9000;0.1530;-0.7184;
253.2000;0.1498;-0.7234;
253.5000;0.1498;-0.7209;
253.8000;0.1514;-0.7284;
254.1000;0.1465;-0.7385;
254.4000;0.1473;-0.7360;
254.7000;0.1506;-0.7284;
255.0000;0.1579;-0.7184;
255.3000;0.1530;-0.7234;
255.6000;0.1530;-0.7209;
255.9000;0.1522;-0.7133;
256.2000;0.1506;-0.7133;
256.5000;0.1506;-0.7083;
256.8000;0.1530;-0.6983;
257.1000;0.1490;-0.7058;
257.4000;0.1498;-0.7058;
257.7000;0.1514;-0.6882;
258.0000;0.1506;-0.6958;
258.3000;0.1498;-0.7083;
258.6000;0.1506;-0.7058;
258.9000;0.1465;-0.7159;
259.2000;0.1506;-0.7108;
259.5000;0.1514;-0.7008;
259.8000;0.1490;-0.6983;
260.1000;0.1498;-0.6933;
260.4000;0.1522;-0.6832;
260.7000;0.1481;-0.6933;
261.0000;0.1514;-0.6832;
261.3000;0.1506;-0.6958;
261.6000;0.1522;-0.6882;
261.9000;0.1522;-0.6882;
262.2000;0.1530;-0.6933;
262.5000;0.1514;-0.6983;
262.8000;0.1522;-0.6958;
263.1000;0.1498;-0.7083;
263.4000;0.1506;-0.7133;
263.7000;0.1473;-0.7159;
264.0000;0.1514;-0.6958;
264.3000;0.1481;-0.6958;
264.6000;0.1514;-0.6933;
264.9000;0.1490;-0.6958;
265.2000;0.1498;-0.7008;
265.5000;0.1514;-0.7008;
265.8000;0.1514;-0.7058;
266.1000;0.1522;-0.7008;
266.4000;0.1506;-0.7033;
266.7000;0.1538;-0.6983;
267.0000;0.1522;-0.7033;
267.3000;0.1514;-0.6933;
267.6000;0.1514;-0.7008;
267.9000;0.1506;-0.7033;
268.2000;0.1506;-0.7008;
268.5000;0.1498;-0.7008;
268.8000;0.1522;-0.7008;
269.1000;0.1514;-0.7008;
269.4000;0.1514;-0.7033;
269.7000;0.1522;-0.7058;
270.0000;0.1538;-0.7058;
270.3000;0.1498;-0.7133;
270.6000;0.1522;-0.7058;
270.9000;0.1514;-0.7033;
271.2000;0.1530;-0.6907;
271.5000;0.1514;-0.6983;
271.8000;0.1530;-0.6958;
272.1000;0.1530;-0.7008;
272.4000;0.1514;-0.7058;
272.7000;0.1506;-0.7159;
273.0000;0.1522;-0.7159;
273.3000;0.1506;-0.7108;
273.6000;0.1522;-0.7058;
273.9000;0.1473;-0.7209;
274.2000;0.1481;-0.7133;
274.5000;0.1547;-0.7033;
274.8000;0.1498;-0.7133;
275.1000;0.1498;-0.7133;
275.4000;0.1506;-0.7159;
275.7000;0.1506;-0.7184;
276.0000;0.1506;-0.7184;
276.3000;0.1538;-0.7058;
276.6000;0.1514;-0.7133;
276.9000;0.1514;-0.7108;
277.2000;0.1514;-0.7133;
277.5000;0.1530;-0.7133;
277.8000;0.1506;-0.7184;
278.1000;0.1506;-0.7259;
278.4000;0.1506;-0.7334;
278.7000;0.1490;-0.7435;
279.0000;0.1498;-0.7435;
279.3000;0.1498;-0.7360;
279.6000;0.1522;-0.7360;
279.9000;0.1522;-0.7334;
280.2000;0.1514;-0.7334;
280.5000;0.1498;-0.7485;
280.8000;0.1506;-0.7535;
281.1000;0.1530;-0.7309;
281.4000;0.1514;-0.7385;
281.7000;0.1547;-0.7309;
282.0000;0.1506;-0.7385;
282.3000;0.1547;-0.7259;
282.6000;0.1498;-0.7334;
282.9000;0.1514;-0.7259;
283.2000;0.1522;-0.7234;
283.5000;0.1498;-0.7334;
283.8000;0.1498;-0.7360;
284.1000;0.1506;-0.7259;
284.4000;0.1506;-0.7284;
284.7000;0.1522;-0.7309;
285.0000;0.1514;-0.7334;
285.3000;0.1514;-0.7309;
285.6000;0.1514;-0.7309;
285.9000;0.1514;-0.7284;
286.2000;0.1538;-0.7309;
286.5000;0.1473;-0.7460;
286.8000;0.1563;-0.7209;
287.1000;0.1514;-0.7284;
287.4000;0.1506;-0.7284;
287.7000;0.1384;-0.7535;
288.0000;0.1498;-0.7309;
288.3000;0.1457;-0.7485;
288.6000;0.1538;-0.7259;
288.9000;0.1506;-0.7385;
289.2000;0.1506;-0.7410;
289.5000;0.1490;-0.7410;
289.8000;0.1514;-0.7334;
290.1000;0.1481;-0.7259;
290.4000;0.1506;-0.7309;
290.7000;0.1473;-0.7385;
291.0000;0.1514;-0.7184;
291.3000;0.1522;-0.7083;
291.6000;0.1490;-0.7108;
291.9000;0.1498;-0.7108;
292.2000;0.1514;-0.7108;
292.5000;0.1514;-0.7108;
292.8000;0.1514;-0.7184;
293.1000;0.1522;-0.7108;
293.4000;0.1506;-0.7083;
293.7000;0.1498;-0.7033;
294.0000;0.1612;-0.6757;
294.3000;0.1490;-0.7008;
294.6000;0.1481;-0.7184;
294.9000;0.1506;-0.7159;
295.2000;0.1498;-0.7159;
295.5000;0.1506;-0.7083;
295.8000;0.1506;-0.7033;
296.1000;0.1506;-0.7058;
296.4000;0.1514;-0.7033;
296.7000;0.1506;-0.7058;
297.0000;0.1449;-0.7284;
297.3000;0.1506;-0.7159;
297.6000;0.1514;-0.7209;
297.9000;0.1498;-0.7184;
298.2000;0.1498;-0.7209;
298.5000;0.1506;-0.7259;
298.8000;0.1506;-0.7284;
299.1000;0.1522;-0.7133;
299.4000;0.1498;-0.7108;
299.7000;0.1522;-0.7008;
300.0000;0.1522;-0.7058;
300.3000;0.1506;-0.7234;
300.6000;0.1490;-0.7184;
300.9000;0.1506;-0.7309;
301.2000;0.1498;-0.7259;
301.5000;0.1522;-0.7184;
301.8000;0.1481;-0.7259;
302.1000;0.1514;-0.7234;
302.4000;0.1514;-0.7234;
302.7000;0.1522;-0.7159;
303.0000;0.1506;-0.7234;
303.3000;0.1498;-0.7209;
303.6000;0.1498;-0.7133;
303.9000;0.1490;-0.7033;
304.2000;0.1506;-0.6983;
304.5000;0.1490;-0.7033;
304.8000;0.1514;-0.7008;
305.1000;0.1547;-0.6933;
305.4000;0.1514;-0.7033;
305.7000;0.1490;-0.7133;
306.0000;0.1514;-0.7159;
306.3000;0.1522;-0.7108;
306.6000;0.1522;-0.7058;
306.9000;0.1530;-0.6983;
307.2000;0.1506;-0.6983;
307.5000;0.1522;-0.6983;
307.8000;0.1514;-0.6933;
308.1000;0.1522;-0.6857;
308.4000;0.1506;-0.6832;
308.7000;0.1514;-0.6933;
309.0000;0.1498;-0.7058;
309.3000;0.1522;-0.7058;
309.6000;0.1514;-0.7083;
309.9000;0.1506;-0.7058;
310.2000;0.1506;-0.7033;
310.5000;0.1522;-0.7058;
310.8000;0.1457;-0.7209;
311.1000;0.1490;-0.7133;
311.4000;0.1514;-0.6958;
311.7000;0.1522;-0.6907;
312.0000;0.1506;-0.6933;
312.3000;0.1547;-0.6933;
312.6000;0.1579;-0.6907;
312.9000;0.1506;-0.7159;
313.2000;0.1400;-0.7410;
313.5000;0.1498;-0.7159;
313.8000;0.1514;-0.7108;
314.1000;0.1530;-0.6958;
314.4000;0.1506;-0.7033;
314.7000;0.1481;-0.7008;
315.0000;0.1498;-0.6983;
315.3000;0.1514;-0.6907;
315.6000;0.1555;-0.6832;
315.9000;0.1498;-0.7058;
316.2000;0.1506;-0.7159;
316.5000;0.1514;-0.7133;
316.8000;0.1530;-0.7083;
317.1000;0.1538;-0.7058;
317.4000;0.1506;-0.7108;
317.7000;0.1538;-0.7058;
318.0000;0.1571;-0.6933;
318.3000;0.1506;-0.7083;
318.6000;0.1522;-0.7083;
318.9000;0.1506;-0.7184;
319.2000;0.1514;-0.7209;
319.5000;0.1514;-0.7259;
319.8000;0.1514;-0.7184;
320.1000;0.1514;-0.7108;
320.4000;0.1522;-0.7033;
320.7000;0.1498;-0.7108;
321.0000;0.1506;-0.7133;
321.3000;0.1498;-0.7108;
321.6000;0.1530;-0.7008;
321.9000;0.1522;-0.7058;
322.2000;0.1571;-0.6958;
322.5000;0.1433;-0.7259;
322.8000;0.1514;-0.7083;
323.1000;0.1530;-0.7083;
323.4000;0.1481;-0.7184;
323.7000;0.1498;-0.7184;
324.0000;0.1506;-0.7234;
324.3000;0.1506;-0.7259;
324.6000;0.1506;-0.7284;
324.9000;0.1506;-0.7385;
325.2000;0.1506;-0.7334;
325.5000;0.1538;-0.7234;
325.8000;0.1506;-0.7234;
326.1000;0.1506;-0.7108;
326.4000;0.1490;-0.7033;
326.7000;0.1498;-0.7008;
327.0000;0.1571;-0.6832;
327.3000;0.1498;-0.7083;
327.6000;0.1522;-0.7058;
327.9000;0.1506;-0.7058;
328.2000;0.1408;-0.7259;
328.5000;0.1498;-0.7033;
328.8000;0.1547;-0.6983;
329.1000;0.1522;-0.7008;
329.4000;0.1522;-0.6958;
329.7000;0.1514;-0.7008;
330.0000;0.1514;-0.6983;
330.3000;0.1522;-0.6857;
330.6000;0.1514;-0.6933;
330.9000;0.1506;-0.6983;
331.2000;0.1506;-0.6933;
331.5000;0.1514;-0.6832;
331.8000;0.1498;-0.6958;
332.1000;0.1530;-0.6933;
332.4000;0.1506;-0.7008;
332.7000;0.1498;-0.6983;
333.0000;0.1514;-0.6958;
333.3000;0.1514;-0.6907;
333.6000;0.1473;-0.6958;
333.9000;0.1498;-0.6983;
334.2000;0.1506;-0.6882;
334.5000;0.1514;-0.6882;
334.8000;0.1498;-0.6958;
335.1000;0.1522;-0.6958;
335.4000;0.1498;-0.6958;
335.7000;0.1498;-0.6958;
336.0000;0.1514;-0.6857;
336.3000;0.1481;-0.6882;
336.6000;0.1498;-0.6882;
336.9000;0.1506;-0.6882;
337.2000;0.1514;-0.6907;
337.5000;0.1514;-0.6958;
337.8000;0.1514;-0.7058;
338.1000;0.1514;-0.7133;
338.4000;0.1514;-0.7033;
338.7000;0.1514;-0.7058;
339.0000;0.1506;-0.7008;
339.3000;0.1514;-0.7008;
339.6000;0.1506;-0.7008;
339.9000;0.1514;-0.7058;
340.2000;0.1530;-0.7008;
340.5000;0.1506;-0.6983;
340.8000;0.1514;-0.6983;
341.1000;0.1498;-0.7058;
341.4000;0.1498;-0.7008;
341.7000;0.1433;-0.7159;
342.0000;0.1490;-0.7058;
342.3000;0.1498;-0.7108;
342.6000;0.1547;-0.7058;
342.9000;0.1506;-0.7133;
343.2000;0.1506;-0.7133;
343.5000;0.1457;-0.7259;
343.8000;0.1490;-0.7184;
344.1000;0.1498;-0.7209;
344.4000;0.1490;-0.7159;
344.7000;0.1473;-0.7234;
345.0000;0.1490;-0.7184;
345.3000;0.1449;-0.7159;
345.6000;0.1481;-0.6983;
345.9000;0.1514;-0.6958;
346.2000;0.1490;-0.7108;
346.5000;0.1490;-0.7058;
346.8000;0.1473;-0.7108;
347.1000;0.1514;-0.7008;
347.4000;0.1522;-0.7033;
347.7000;0.1498;-0.7159;
348.0000;0.1490;-0.7184;
348.3000;0.1498;-0.7159;
348.6000;0.1506;-0.7159;
348.9000;0.1490;-0.7184;
349.2000;0.1490;-0.7083;
349.5000;0.1506;-0.7083;
349.8000;0.1481;-0.7083;
350.1000;0.1490;-0.7033;
350.4000;0.1498;-0.7058;
350.7000;0.1506;-0.7008;
351.0000;0.1506;-0.7033;
351.3000;0.1490;-0.7108;
351.6000;0.1490;-0.7083;
351.9000;0.1514;-0.7033;
352.2000;0.1538;-0.6983;
352.5000;0.1506;-0.6983;
352.8000;0.1506;-0.6907;
353.1000;0.1522;-0.6958;
353.4000;0.1506;-0.6983;
353.7000;0.1514;-0.6832;
354.0000;0.1522;-0.6857;
354.3000;0.1506;-0.6933;
354.6000;0.1506;-0.7033;
354.9000;0.1506;-0.7033;
355.2000;0.1514;-0.7133;
355.5000;0.1449;-0.7159;
355.8000;0.1522;-0.6958;
356.1000;0.1514;-0.7033;
356.4000;0.1514;-0.7083;
356.7000;0.1473;-0.7259;
357.0000;0.1490;-0.7108;
357.3000;0.1506;-0.7033;
357.6000;0.1514;-0.7008;
357.9000;0.1514;-0.7008;
358.2000;0.1612;-0.6782;
358.5000;0.1506;-0.7033;
358.8000;0.1498;-0.7083;
359.1000;0.1490;-0.7108;
359.4000;0.1490;-0.7083;
359.7000;0.1490;-0.7108;
360.0000;0.1498;-0.7033;
360.3000;0.1498;-0.6983;
360.6000;0.1416;-0.7259;
360.9000;0.1506;-0.6958;
361.2000;0.1449;-0.7133;
361.5000;0.1433;-0.7209;
361.8000;0.1441;-0.7133;
362.1000;0.1506;-0.6983;
362.4000;0.1514;-0.6958;
362.7000;0.1522;-0.6983;
363.0000;0.1506;-0.7083;
363.3000;0.1522;-0.7083;
363.6000;0.1514;-0.7184;
363.9000;0.1498;-0.7209;
364.2000;0.1514;-0.7184;
364.5000;0.1514;-0.7133;
364.8000;0.1506;-0.7133;
365.1000;0.1514;-0.7108;
365.4000;0.1506;-0.7058;
365.7000;0.1498;-0.7108;
366.0000;0.1530;-0.6958;
366.3000;0.1538;-0.6933;
366.6000;0.1465;-0.7108;
366.9000;0.1506;-0.6933;
367.2000;0.1514;-0.6907;
367.5000;0.1490;-0.6933;
367.8000;0.1571;-0.6732;
368.1000;0.1506;-0.6907;
368.4000;0.1547;-0.6832;
368.7000;0.1514;-0.6933;
369.0000;0.1506;-0.6983;
369.3000;0.1490;-0.6958;
369.6000;0.1490;-0.6983;
369.9000;0.1555;-0.6857;
370.2000;0.1506;-0.7058;
370.5000;0.1522;-0.6882;
370.8000;0.1498;-0.6983;
371.1000;0.1506;-0.7008;
371.4000;0.1506;-0.6958;
371.7000;0.1522;-0.6983;
372.0000;0.1530;-0.6933;
372.3000;0.1514;-0.7058;
372.6000;0.1530;-0.7058;
372.9000;0.1481;-0.7133;
373.2000;0.1547;-0.6983;
373.5000;0.1506;-0.7008;
373.8000;0.1530;-0.6832;
374.1000;0.1465;-0.7058;
374.4000;0.1481;-0.7058;
374.7000;0.1490;-0.7058;
375.0000;0.1498;-0.6958;
375.3000;0.1490;-0.7008;
375.6000;0.1490;-0.6958;
375.9000;0.1498;-0.7083;
376.2000;0.1571;-0.6882;
376.5000;0.1530;-0.7008;
376.8000;0.1506;-0.6958;
377.1000;0.1547;-0.6882;
377.4000;0.1514;-0.6933;
377.7000;0.1498;-0.6907;
378.0000;0.1612;-0.6631;
378.3000;0.1506;-0.6882;
378.6000;0.1498;-0.6933;
378.9000;0.1514;-0.6907;
379.2000;0.1538;-0.6832;
379.5000;0.1473;-0.7108;
379.8000;0.1498;-0.7058;
380.1000;0.1498;-0.6983;
380.4000;0.1538;-0.6907;
380.7000;0.1473;-0.7008;
381.0000;0.1514;-0.6933;
381.3000;0.1465;-0.6983;
381.6000;0.1530;-0.6857;
381.9000;0.1514;-0.6907;
382.2000;0.1506;-0.6807;
382.5000;0.1506;-0.6882;
382.8000;0.1587;-0.6681;
383.1000;0.1457;-0.7033;
383.4000;0.1490;-0.6933;
383.7000;0.1514;-0.6857;
384.0000;0.1506;-0.6907;
384.3000;0.1490;-0.7033;
384.6000;0.1506;-0.6983;
384.9000;0.1457;-0.7209;
385.2000;0.1522;-0.7033;
385.5000;0.1498;-0.7083;
385.8000;0.1490;-0.7033;
386.1000;0.1563;-0.6857;
386.4000;0.1506;-0.6907;
386.7000;0.1506;-0.6857;
387.0000;0.1506;-0.6958;
387.3000;0.1498;-0.7008;
387.6000;0.1514;-0.7008;
387.9000;0.1481;-0.7058;
388.2000;0.1481;-0.7033;
388.5000;0.1498;-0.7083;
388.8000;0.1490;-0.7159;
389.1000;0.1498;-0.7184;
389.4000;0.1473;-0.7184;
389.7000;0.1514;-0.7108;
390.0000;0.1506;-0.7083;
390.3000;0.1490;-0.7083;
390.6000;0.1506;-0.7108;
390.9000;0.1522;-0.6983;
391.2000;0.1498;-0.7108;
391.5000;0.1530;-0.7108;
391.8000;0.1498;-0.7083;
392.1000;0.1547;-0.6933;
392.4000;0.1514;-0.7033;
392.7000;0.1506;-0.7058;
393.0000;0.1481;-0.7108;
393.3000;0.1514;-0.6983;
393.6000;0.1530;-0.7008;
393.9000;0.1506;-0.7008;
394.2000;0.1530;-0.6907;
394.5000;0.1514;-0.6933;
394.8000;0.1465;-0.7058;
395.1000;0.1506;-0.7008;
395.4000;0.1498;-0.7083;
395.7000;0.1490;-0.7184;
396.0000;0.1481;-0.7159;
396.3000;0.1498;-0.7184;
396.6000;0.1514;-0.7159;
396.9000;0.1514;-0.7159;
397.2000;0.1506;-0.7008;
397.5000;0.1490;-0.7033;
397.8000;0.1522;-0.7083;
398.1000;0.1514;-0.7108;
398.4000;0.1449;-0.7360;
398.7000;0.1538;-0.7083;
399.0000;0.1457;-0.7184;
399.3000;0.1481;-0.7159;
399.6000;0.1506;-0.7234;
399.9000;0.1555;-0.7108;
400.2000;0.1530;-0.7058;
400.5000;0.1530;-0.7008;
400.8000;0.1498;-0.7159;
401.1000;0.1490;-0.7209;
401.4000;0.1530;-0.7159;
401.7000;0.1530;-0.7083;
402.0000;0.1547;-0.6907;
402.3000;0.1514;-0.7108;
402.6000;0.1571;-0.6933;
402.9000;0.1490;-0.7159;
403.2000;0.1506;-0.7083;
403.5000;0.1522;-0.7083;
403.8000;0.1498;-0.7083;
404.1000;0.1490;-0.7159;
404.4000;0.1506;-0.7159;
404.7000;0.1571;-0.6933;
405.0000;0.1498;-0.7209;
405.3000;0.1522;-0.7184;
405.6000;0.1530;-0.7083;
405.9000;0.1522;-0.7159;
406.2000;0.1506;-0.7234;
406.5000;0.1506;-0.7159;
406.8000;0.1498;-0.7184;
407.1000;0.1522;-0.7058;
407.4000;0.1522;-0.7083;
407.7000;0.1498;-0.7133;
408.0000;0.1522;-0.7083;
408.3000;0.1514;-0.7159;
408.6000;0.1571;-0.7083;
408.9000;0.1498;-0.7133;
409.2000;0.1506;-0.7159;
409.5000;0.1498;-0.7108;
409.8000;0.1498;-0.7008;
410.1000;0.1506;-0.7008;
410.4000;0.1481;-0.7033;
410.7000;0.1498;-0.6983;
411.0000;0.1538;-0.6907;
411.3000;0.1506;-0.6983;
411.6000;0.1514;-0.6958;
411.9000;0.1538;-0.6832;
412.2000;0.1522;-0.6807;
412.5000;0.1498;-0.6983;
412.8000;0.1514;-0.6983;
413.1000;0.1506;-0.6933;
413.4000;0.1530;-0.6882;
413.7000;0.1506;-0.6857;
414.0000;0.1506;-0.6983;
414.3000;0.1514;-0.7033;
414.6000;0.1490;-0.7108;
414.9000;0.1498;-0.7184;
415.2000;0.1481;-0.7234;
415.5000;0.1506;-0.7184;
415.8000;0.1498;-0.7234;
416.1000;0.1506;-0.7209;
416.4000;0.1506;-0.7234;
416.7000;0.1514;-0.7209;
417.0000;0.1498;-0.7234;
417.3000;0.1522;-0.7259;
417.6000;0.1538;-0.7209;
417.9000;0.1506;-0.7309;
418.2000;0.1530;-0.7234;
418.5000;0.1522;-0.7209;
418.8000;0.1522;-0.7209;
419.1000;0.1514;-0.7284;
419.4000;0.1506;-0.7460;
419.7000;0.1522;-0.7410;
420.0000;0.1465;-0.7535;
420.3000;0.1498;-0.7385;
420.6000;0.1506;-0.7334;
420.9000;0.1498;-0.7309;
421.2000;0.1514;-0.7360;
421.5000;0.1506;-0.7385;
421.8000;0.1498;-0.7309;
422.1000;0.1473;-0.7309;
422.4000;0.1547;-0.7008;
422.7000;0.1514;-0.7083;
423.0000;0.1490;-0.7083;
423.3000;0.1514;-0.7159;
423.6000;0.1498;-0.7159;
423.9000;0.1481;-0.7259;
424.2000;0.1530;-0.7209;
424.5000;0.1506;-0.7184;
424.8000;0.1506;-0.7184;
425.1000;0.1522;-0.7184;
425.4000;0.1514;-0.7259;
425.7000;0.1514;-0.7360;
426.0000;0.1514;-0.7410;
426.3000;0.1514;-0.7360;
426.6000;0.1481;-0.7435;
426.9000;0.1481;-0.7410;
427.2000;0.1490;-0.7385;
427.5000;0.1514;-0.7259;
427.8000;0.1522;-0.7259;
428.1000;0.1506;-0.7284;
428.4000;0.1514;-0.7334;
428.7000;0.1530;-0.7385;
429.0000;0.1571;-0.7259;
429.3000;0.1498;-0.7485;
429.6000;0.1506;-0.7360;
429.9000;0.1514;-0.7309;
430.2000;0.1498;-0.7334;
430.5000;0.1498;-0.7309;
430.8000;0.1538;-0.7284;
431.1000;0.1522;-0.7234;
431.4000;0.1506;-0.7209;
431.7000;0.1522;-0.7259;
432.0000;0.1514;-0.7209;
432.3000;0.1514;-0.7083;
432.6000;0.1538;-0.7108;
432.9000;0.1530;-0.7033;
433.2000;0.1530;-0.7008;
433.5000;0.1522;-0.7033;
433.8000;0.1481;-0.7259;
434.1000;0.1514;-0.7184;
434.4000;0.1522;-0.7058;
434.7000;0.1490;-0.7033;
435.0000;0.1514;-0.6983;
435.3000;0.1490;-0.7033;
435.6000;0.1498;-0.7033;
435.9000;0.1506;-0.7033;
436.2000;0.1490;-0.7058;
436.5000;0.1522;-0.6958;
436.8000;0.1506;-0.7033;
437.1000;0.1498;-0.7133;
437.4000;0.1498;-0.7058;
437.7000;0.1514;-0.7159;
438.0000;0.1514;-0.7159;
438.3000;0.1490;-0.7133;
438.6000;0.1481;-0.7083;
438.9000;0.1514;-0.7058;
439.2000;0.1465;-0.7234;
439.5000;0.1433;-0.7360;
439.8000;0.1490;-0.7234;
440.1000;0.1465;-0.7410;
440.4000;0.1481;-0.7385;
440.7000;0.1498;-0.7334;
441.0000;0.1522;-0.7209;
441.3000;0.1481;-0.7334;
441.6000;0.1449;-0.7535;
441.9000;0.1506;-0.7334;
442.2000;0.1530;-0.7209;
442.5000;0.1498;-0.7234;
442.8000;0.1506;-0.7209;
443.1000;0.1481;-0.7284;
443.4000;0.1490;-0.7234;
443.7000;0.1498;-0.7184;
444.0000;0.1465;-0.7309;
444.3000;0.1506;-0.7234;
444.6000;0.1498;-0.7209;
444.9000;0.1490;-0.7159;
445.2000;0.1490;-0.7133;
445.5000;0.1506;-0.7133;
445.8000;0.1514;-0.7133;
446.1000;0.1498;-0.7133;
446.4000;0.1506;-0.7008;
446.7000;0.1514;-0.6933;
447.0000;0.1555;-0.6857;
447.3000;0.1490;-0.6983;
447.6000;0.1506;-0.6907;
447.9000;0.1506;-0.6857;
448.2000;0.1465;-0.6983;
448.5000;0.1506;-0.6832;
448.8000;0.1490;-0.6983;
449.1000;0.1522;-0.6958;
449.4000;0.1506;-0.7083;
449.7000;0.1555;-0.6907;
450.0000;0.1506;-0.7008;
450.3000;0.1498;-0.7058;
450.6000;0.1473;-0.7058;
450.9000;0.1498;-0.7083;
451.2000;0.1498;-0.7083;
451.5000;0.1498;-0.6983;
451.8000;0.1490;-0.6933;
452.1000;0.1498;-0.6958;
452.4000;0.1514;-0.6933;
452.7000;0.1579;-0.6857;
453.0000;0.1506;-0.7108;
453.3000;0.1441;-0.7334;
453.6000;0.1481;-0.7334;
453.9000;0.1506;-0.7309;
454.2000;0.1522;-0.7259;
454.5000;0.1514;-0.7284;
454.8000;0.1538;-0.7159;
455.1000;0.1644;-0.6857;
455.4000;0.1490;-0.7334;
455.7000;0.1498;-0.7360;
456.0000;0.1595;-0.7133;
456.3000;0.1506;-0.7234;
456.6000;0.1514;-0.7184;
456.9000;0.1514;-0.7209;
457.2000;0.1514;-0.7259;
457.5000;0.1490;-0.7360;
457.8000;0.1514;-0.7309;
458.1000;0.1465;-0.7360;
458.4000;0.1490;-0.7334;
458.7000;0.1506;-0.7385;
459.0000;0.1514;-0.7259;
459.3000;0.1514;-0.7334;
459.6000;0.1506;-0.7360;
459.9000;0.1490;-0.7309;
460.2000;0.1506;-0.7284;
460.5000;0.1514;-0.7284;
460.8000;0.1457;-0.7560;
461.1000;0.1514;-0.7360;
461.4000;0.1522;-0.7209;
461.7000;0.1506;-0.7259;
462.0000;0.1506;-0.7284;
462.3000;0.1514;-0.7234;
462.6000;0.1522;-0.7259;
462.9000;0.1514;-0.7284;
463.2000;0.1498;-0.7334;
463.5000;0.1506;-0.7234;
463.8000;0.1522;-0.7159;
464.1000;0.1506;-0.7284;
464.4000;0.1522;-0.7309;
464.7000;0.1514;-0.7334;
465.0000;0.1441;-0.7334;
465.3000;0.1498;-0.7234;
465.6000;0.1514;-0.7284;
465.9000;0.1498;-0.7259;
466.2000;0.1506;-0.7184;
466.5000;0.1506;-0.7133;
466.8000;0.1530;-0.7083;
467.1000;0.1506;-0.7284;
467.4000;0.1498;-0.7360;
467.7000;0.1514;-0.7309;
468.0000;0.1514;-0.7309;
468.3000;0.1522;-0.7309;
468.6000;0.1506;-0.7410;
468.9000;0.1498;-0.7410;
469.2000;0.1490;-0.7410;
469.5000;0.1522;-0.7184;
469.8000;0.1457;-0.7284;
470.1000;0.1506;-0.7083;
470.4000;0.1506;-0.7083;
470.7000;0.1522;-0.7033;
471.0000;0.1506;-0.7083;
471.3000;0.1498;-0.6983;
471.6000;0.1490;-0.6933;
471.9000;0.1506;-0.6933;
472.2000;0.1530;-0.6983;
472.5000;0.1547;-0.6907;
472.8000;0.1522;-0.6983;
473.1000;0.1522;-0.7008;
473.4000;0.1506;-0.7083;
473.7000;0.1514;-0.7058;
474.0000;0.1530;-0.7033;
474.3000;0.1538;-0.6857;
474.6000;0.1457;-0.7008;
474.9000;0.1547;-0.6807;
475.2000;0.1506;-0.6983;
475.5000;0.1490;-0.7159;
475.8000;0.1563;-0.7159;
476.1000;0.1547;-0.7309;
476.4000;0.1522;-0.7385;
476.7000;0.1514;-0.7360;
477.0000;0.1514;-0.7284;
477.3000;0.1457;-0.7385;
477.6000;0.1465;-0.7410;
477.9000;0.1498;-0.7284;
478.2000;0.1506;-0.7259;
478.5000;0.1506;-0.7259;
478.8000;0.1636;-0.6983;
479.1000;0.1498;-0.7284;
479.4000;0.1514;-0.7284;
479.7000;0.1514;-0.7360;
480.0000;0.1506;-0.7360;
480.3000;0.1514;-0.7334;
480.6000;0.1498;-0.7334;
480.9000;0.1498;-0.7234;
481.2000;0.1522;-0.7184;
481.5000;0.1506;-0.7159;
481.8000;0.1498;-0.7209;
482.1000;0.1514;-0.7184;
482.4000;0.1530;-0.7159;
482.7000;0.1498;-0.7184;
483.0000;0.1538;-0.7133;
483.3000;0.1530;-0.7209;
483.6000;0.1587;-0.7083;
483.9000;0.1514;-0.7259;
484.2000;0.1538;-0.7259;
484.5000;0.1514;-0.7284;
484.8000;0.1514;-0.7309;
485.1000;0.1530;-0.7259;
485.4000;0.1514;-0.7309;
485.7000;0.1522;-0.7209;
486.0000;0.1514;-0.7234;
486.3000;0.1498;-0.7159;
486.6000;0.1522;-0.7058;
486.9000;0.1498;-0.7108;
487.2000;0.1506;-0.7108;
487.5000;0.1506;-0.7058;
487.8000;0.1441;-0.7234;
488.1000;0.1506;-0.7108;
488.4000;0.1514;-0.7159;
488.7000;0.1498;-0.7159;
489.0000;0.1490;-0.7184;
489.3000;0.1498;-0.7159;
489.6000;0.1514;-0.7184;
489.9000;0.1498;-0.7184;
490.2000;0.1465;-0.7209;
490.5000;0.1506;-0.7133;
490.8000;0.1514;-0.7108;
491.1000;0.1522;-0.7133;
491.4000;0.1490;-0.7209;
491.7000;0.1506;-0.7159;
492.0000;0.1425;-0.7360;
492.3000;0.1547;-0.6983;
492.6000;0.1514;-0.7083;
492.9000;0.1490;-0.7133;
493.2000;0.1514;-0.7033;
493.5000;0.1571;-0.6857;
493.8000;0.1506;-0.7033;
494.1000;0.1530;-0.7033;
494.4000;0.1498;-0.7033;
494.7000;0.1457;-0.7008;
495.0000;0.1506;-0.6882;
495.3000;0.1514;-0.6807;
495.6000;0.1522;-0.6807;
495.9000;0.1506;-0.6857;
496.2000;0.1473;-0.6983;
496.5000;0.1490;-0.7008;
496.8000;0.1490;-0.7033;
497.1000;0.1481;-0.7083;
497.4000;0.1514;-0.7033;
497.7000;0.1506;-0.7058;
498.0000;0.1473;-0.7133;
498.3000;0.1522;-0.6983;
498.6000;0.1506;-0.7159;
498.9000;0.1506;-0.7184;
499.2000;0.1514;-0.7133;
499.5000;0.1506;-0.7133;
499.8000;0.1530;-0.7083;
500.1000;0.1514;-0.7058;
500.4000;0.1506;-0.7083;
500.7000;0.1514;-0.7033;
501.0000;0.1490;-0.7058;
501.3000;0.1506;-0.7008;
501.6000;0.1498;-0.7159;
501.9000;0.1490;-0.7234;
502.2000;0.1498;-0.7209;
502.5000;0.1506;-0.7209;
502.8000;0.1538;-0.7108;
503.1000;0.1498;-0.7133;
503.4000;0.1514;-0.7083;
503.7000;0.1506;-0.7108;
504.0000;0.1514;-0.7008;
504.3000;0.1481;-0.7083;
504.6000;0.1514;-0.7058;
504.9000;0.1506;-0.7083;
505.2000;0.1498;-0.7083;
505.5000;0.1498;-0.7209;
505.8000;0.1433;-0.7485;
506.1000;0.1506;-0.7259;
506.4000;0.1514;-0.7184;
506.7000;0.1498;-0.7184;
507.0000;0.1490;-0.7234;
507.3000;0.1498;-0.7184;
507.6000;0.1498;-0.7259;
507.9000;0.1498;-0.7259;
508.2000;0.1490;-0.7334;
508.5000;0.1522;-0.7234;
508.8000;0.1514;-0.7284;
509.1000;0.1538;-0.7284;
509.4000;0.1522;-0.7309;
509.7000;0.1506;-0.7334;
510.0000;0.1555;-0.7209;
510.3000;0.1490;-0.7360;
510.6000;0.1506;-0.7184;
510.9000;0.1473;-0.7259;
511.2000;0.1506;-0.7284;
511.5000;0.1498;-0.7259;
511.8000;0.1506;-0.7184;
512.1000;0.1490;-0.7159;
512.4000;0.1490;-0.7159;
512.7000;0.1522;-0.7108;
513.0000;0.1473;-0.7184;
513.3000;0.1490;-0.7133;
513.6000;0.1506;-0.7008;
513.9000;0.1506;-0.6983;
514.2000;0.1498;-0.7083;
514.5000;0.1490;-0.7083;
514.8000;0.1490;-0.7008;
515.1000;0.1538;-0.6832;
515.4000;0.1498;-0.6907;
515.7000;0.1498;-0.6882;
516.0000;0.1465;-0.7133;
516.3000;0.1392;-0.7435;
516.6000;0.1506;-0.7083;
516.9000;0.1498;-0.7108;
517.2000;0.1465;-0.7234;
517.5000;0.1506;-0.7083;
517.8000;0.1514;-0.7159;
518.1000;0.1514;-0.7184;
518.4000;0.1498;-0.7184;
518.7000;0.1506;-0.7209;
519.0000;0.1514;-0.7159;
519.3000;0.1514;-0.7209;
519.6000;0.1514;-0.7133;
519.9000;0.1514;-0.7159;
520.2000;0.1498;-0.7108;
520.5000;0.1465;-0.7259;
520.8000;0.1522;-0.7133;
521.1000;0.1473;-0.7209;
521.4000;0.1506;-0.7108;
521.7000;0.1465;-0.7209;
522.0000;0.1490;-0.7133;
522.3000;0.1506;-0.7083;
522.6000;0.1547;-0.6958;
522.9000;0.1473;-0.7133;
523.2000;0.1498;-0.7083;
523.5000;0.1490;-0.7108;
523.8000;0.1506;-0.7184;
524.1000;0.1498;-0.7108;
524.4000;0.1506;-0.7108;
524.7000;0.1490;-0.7159;
525.0000;0.1530;-0.6983;
525.3000;0.1506;-0.7058;
525.6000;0.1490;-0.7133;
525.9000;0.1490;-0.7133;
526.2000;0.1498;-0.7108;
526.5000;0.1514;-0.7033;
526.8000;0.1506;-0.7108;
527.1000;0.1522;-0.7184;
527.4000;0.1522;-0.7184;
527.7000;0.1490;-0.7184;
528.0000;0.1522;-0.7133;
528.3000;0.1506;-0.7184;
528.6000;0.1490;-0.7259;
528.9000;0.1506;-0.7209;
529.2000;0.1522;-0.7133;
529.5000;0.1514;-0.7209;
529.8000;0.1522;-0.7159;
530.1000;0.1522;-0.7209;
530.4000;0.1563;-0.7159;
530.7000;0.1441;-0.7410;
531.0000;0.1514;-0.7133;
531.3000;0.1530;-0.7159;
531.6000;0.1555;-0.7259;
531.9000;0.1538;-0.7284;
532.2000;0.1481;-0.7435;
532.5000;0.1530;-0.7334;
532.8000;0.1498;-0.7410;
533.1000;0.1547;-0.7309;
533.4000;0.1506;-0.7334;
533.7000;0.1481;-0.7284;
534.0000;0.1498;-0.7159;
534.3000;0.1506;-0.7133;
534.6000;0.1490;-0.7159;
534.9000;0.1490;-0.7184;
535.2000;0.1522;-0.7133;
535.5000;0.1506;-0.7083;
535.8000;0.1498;-0.7083;
536.1000;0.1465;-0.7133;
536.4000;0.1498;-0.7108;
536.7000;0.1498;-0.7159;
537.0000;0.1481;-0.7184;
537.3000;0.1538;-0.7033;
537.6000;0.1490;-0.7184;
537.9000;0.1514;-0.7159;
538.2000;0.1473;-0.7234;
538.5000;0.1498;-0.7209;
538.8000;0.1473;-0.7209;
539.1000;0.1522;-0.7083;
539.4000;0.1522;-0.7184;
539.7000;0.1530;-0.7209;
540.0000;0.1498;-0.7360;
540.3000;0.1506;-0.7309;
540.6000;0.1506;-0.7385;
540.9000;0.1498;-0.7385;
541.2000;0.1490;-0.7485;
541.5000;0.1490;-0.7385;
541.8000;0.1498;-0.7385;
542.1000;0.1473;-0.7435;
542.4000;0.1498;-0.7334;
542.7000;0.1498;-0.7284;
543.0000;0.1481;-0.7360;
543.3000;0.1522;-0.7259;
543.6000;0.1506;-0.7184;
543.9000;0.1563;-0.6983;
544.2000;0.1498;-0.7083;
544.5000;0.1522;-0.7058;
544.8000;0.1481;-0.7184;
545.1000;0.1498;-0.7133;
545.4000;0.1522;-0.7108;
545.7000;0.1498;-0.7083;
546.0000;0.1490;-0.7209;
546.3000;0.1465;-0.7309;
546.6000;0.1498;-0.7309;
546.9000;0.1498;-0.7360;
547.2000;0.1498;-0.7334;
547.5000;0.1506;-0.7234;
547.8000;0.1506;-0.7234;
548.1000;0.1530;-0.7209;
548.4000;0.1522;-0.7259;
548.7000;0.1522;-0.7309;
549.0000;0.1449;-0.7510;
549.3000;0.1506;-0.7360;
549.6000;0.1408;-0.7586;
549.9000;0.1506;-0.7284;
550.2000;0.1498;-0.7234;
550.5000;0.1530;-0.7184;
550.8000;0.1522;-0.7259;
551.1000;0.1506;-0.7284;
551.4000;0.1514;-0.7184;
551.7000;0.1473;-0.7234;
552.0000;0.1514;-0.7309;
552.3000;0.1514;-0.7309;
552.6000;0.1449;-0.7385;
552.9000;0.1563;-0.7159;
553.2000;0.1490;-0.7360;
553.5000;0.1498;-0.7309;
553.8000;0.1457;-0.7435;
554.1000;0.1514;-0.7234;
554.4000;0.1538;-0.7058;
554.7000;0.1498;-0.7234;
555.0000;0.1506;-0.7184;
555.3000;0.1514;-0.7184;
555.6000;0.1498;-0.7108;
555.9000;0.1498;-0.7133;
556.2000;0.1506;-0.7133;
556.5000;0.1473;-0.7360;
556.8000;0.1498;-0.7259;
557.1000;0.1490;-0.7234;
557.4000;0.1514;-0.7234;
557.7000;0.1465;-0.7334;
558.0000;0.1514;-0.7234;
558.3000;0.1490;-0.7309;
558.6000;0.1506;-0.7259;
558.9000;0.1587;-0.7083;
559.2000;0.1514;-0.7334;
559.5000;0.1514;-0.7284;
559.8000;0.1514;-0.7184;
560.1000;0.1498;-0.7259;
560.4000;0.1498;-0.7309;
560.7000;0.1514;-0.7309;
561.0000;0.1498;-0.7284;
561.3000;0.1547;-0.7133;
561.6000;0.1522;-0.7309;
561.9000;0.1416;-0.7611;
562.2000;0.1514;-0.7309;
562.5000;0.1506;-0.7385;
562.8000;0.1490;-0.7435;
563.1000;0.1506;-0.7234;
563.4000;0.1506;-0.7209;
563.7000;0.1449;-0.7410;
564.0000;0.1514;-0.7259;
564.3000;0.1506;-0.7234;
564.6000;0.1498;-0.7334;
564.9000;0.1514;-0.7385;
565.2000;0.1522;-0.7259;
565.5000;0.1425;-0.7460;
565.8000;0.1498;-0.7309;
566.1000;0.1473;-0.7385;
566.4000;0.1490;-0.7360;
566.7000;0.1498;-0.7259;
567.0000;0.1457;-0.7360;
567.3000;0.1498;-0.7259;
567.6000;0.1506;-0.7209;
567.9000;0.1498;-0.7234;
568.2000;0.1563;-0.7008;
568.5000;0.1522;-0.7083;
568.8000;0.1473;-0.7209;
569.1000;0.1506;-0.7083;
569.4000;0.1498;-0.7184;
569.7000;0.1522;-0.7058;
570.0000;0.1506;-0.7058;
570.3000;0.1547;-0.7008;
570.6000;0.1506;-0.7133;
570.9000;0.1522;-0.7058;
571.2000;0.1563;-0.6933;
571.5000;0.1481;-0.7184;
571.8000;0.1481;-0.7159;
572.1000;0.1473;-0.7234;
572.4000;0.1506;-0.7108;
572.7000;0.1514;-0.7083;
573.0000;0.1457;-0.7159;
573.3000;0.1514;-0.7008;
573.6000;0.1490;-0.7133;
573.9000;0.1473;-0.7159;
574.2000;0.1498;-0.7108;
574.5000;0.1498;-0.7209;
574.8000;0.1506;-0.7259;
575.1000;0.1498;-0.7334;
575.4000;0.1514;-0.7334;
575.7000;0.1514;-0.7309;
576.0000;0.1490;-0.7385;
576.3000;0.1481;-0.7309;
576.6000;0.1498;-0.7259;
576.9000;0.1498;-0.7309;
577.2000;0.1498;-0.7184;
577.5000;0.1465;-0.7259;
577.8000;0.1522;-0.7008;
578.1000;0.1522;-0.7008;
578.4000;0.1514;-0.7033;
578.7000;0.1506;-0.7083;
579.0000;0.1465;-0.7184;
579.3000;0.1506;-0.7083;
579.6000;0.1490;-0.7133;
579.9000;0.1498;-0.7083;
580.2000;0.1538;-0.6983;
580.5000;0.1481;-0.7033;
580.8000;0.1481;-0.7058;
581.1000;0.1490;-0.7008;
581.4000;0.1571;-0.6857;
581.7000;0.1514;-0.7033;
582.0000;0.1498;-0.7008;
582.3000;0.1506;-0.7008;
582.6000;0.1498;-0.7108;
582.9000;0.1514;-0.7209;
583.2000;0.1433;-0.7360;
583.5000;0.1506;-0.7058;
583.8000;0.1506;-0.7033;
584.1000;0.1538;-0.6933;
584.4000;0.1490;-0.7083;
584.7000;0.1498;-0.7083;
585.0000;0.1490;-0.7058;
585.3000;0.1538;-0.6983;
585.6000;0.1490;-0.7033;
585.9000;0.1498;-0.7108;
586.2000;0.1498;-0.7184;
586.5000;0.1490;-0.7209;
586.8000;0.1506;-0.7184;
587.1000;0.1465;-0.7309;
587.4000;0.1490;-0.7284;
587.7000;0.1490;-0.7259;
588.0000;0.1514;-0.7184;
588.3000;0.1498;-0.7234;
588.6000;0.1538;-0.7008;
588.9000;0.1514;-0.7008;
589.2000;0.1514;-0.7008;
589.5000;0.1490;-0.7108;
589.8000;0.1514;-0.7083;
590.1000;0.1506;-0.7083;
590.4000;0.1506;-0.7008;
590.7000;0.1530;-0.6958;
591.0000;0.1506;-0.7033;
591.3000;0.1490;-0.7058;
591.6000;0.1490;-0.7159;
591.9000;0.1498;-0.7083;
592.2000;0.1522;-0.7108;
592.5000;0.1506;-0.7259;
592.8000;0.1498;-0.7360;
593.1000;0.1547;-0.7360;
593.4000;0.1498;-0.7460;
593.7000;0.1514;-0.7435;
594.0000;0.1538;-0.7485;
594.3000;0.1538;-0.7510;
594.6000;0.1498;-0.7611;
594.9000;0.1506;-0.7636;
595.2000;0.1538;-0.7460;
595.5000;0.1514;-0.7485;
595.8000;0.1514;-0.7460;
596.1000;0.1555;-0.7209;
596.4000;0.1498;-0.7259;
596.7000;0.1498;-0.7259;
597.0000;0.1498;-0.7259;
597.3000;0.1490;-0.7284;
597.6000;0.1498;-0.7159;
597.9000;0.1498;-0.7083;
598.2000;0.1514;-0.7058;
598.5000;0.1490;-0.7159;
598.8000;0.1514;-0.6983;
599.1000;0.1498;-0.7033;
599.4000;0.1514;-0.7083;
599.7000;0.1506;-0.7058;
600.0000;0.1530;-0.7058;
600.3000;0.1506;-0.7259;
600.6000;0.1490;-0.7535;
600.9000;0.1490;-0.7636;
601.2000;0.1481;-0.7761;
601.5000;0.1465;-0.7912;
601.8000;0.1473;-0.7912;
602.1000;0.1441;-0.8088;
602.4000;0.1433;-0.8289;
602.7000;0.1425;-0.8314;
603.0000;0.1425;-0.8414;
603.3000;0.1425;-0.8615;
603.6000;0.1481;-0.8540;
603.9000;0.1408;-0.8691;
604.2000;0.1400;-0.8867;
604.5000;0.1392;-0.9017;
604.8000;0.1400;-0.8992;
605.1000;0.1425;-0.8942;
605.4000;0.1400;-0.9068;
605.7000;0.1392;-0.9068;
606.0000;0.1335;-0.9268;
606.3000;0.1343;-0.9344;
606.6000;0.1392;-0.9294;
606.9000;0.1359;-0.9369;
607.2000;0.1351;-0.9344;
607.5000;0.1376;-0.9268;
607.8000;0.1392;-0.9294;
608.1000;0.1376;-0.9419;
608.4000;0.1400;-0.9469;
608.7000;0.1376;-0.9495;
609.0000;0.1392;-0.9419;
609.3000;0.1351;-0.9469;
609.6000;0.1359;-0.9570;
609.9000;0.1368;-0.9570;
610.2000;0.1335;-0.9746;
610.5000;0.1351;-0.9721;
610.8000;0.1302;-0.9846;
611.1000;0.1335;-0.9670;
611.4000;0.1359;-0.9670;
611.7000;0.1351;-0.9670;
612.0000;0.1351;-0.9821;
612.3000;0.1351;-0.9846;
612.6000;0.1343;-0.9821;
612.9000;0.1368;-0.9695;
613.2000;0.1351;-0.9695;
613.5000;0.1335;-0.9670;
613.8000;0.1433;-0.9419;
614.1000;0.1343;-0.9570;
614.4000;0.1368;-0.9595;
614.7000;0.1245;-0.9997;
615.0000;0.1343;-0.9796;
615.3000;0.1335;-0.9846;
615.6000;0.1343;-0.9771;
615.9000;0.1343;-0.9796;
616.2000;0.1343;-0.9796;
616.5000;0.1425;-0.9620;
616.8000;0.1384;-0.9721;
617.1000;0.1351;-0.9922;
617.4000;0.1351;-0.9821;
617.7000;0.1319;-0.9796;
618.0000;0.1343;-0.9695;
618.3000;0.1359;-0.9645;
618.6000;0.1368;-0.9670;
618.9000;0.1343;-0.9645;
619.2000;0.1368;-0.9620;
619.5000;0.1384;-0.9620;
619.8000;0.1335;-0.9871;
620.1000;0.1359;-0.9871;
620.4000;0.1343;-0.9896;
620.7000;0.1327;-0.9922;
621.0000;0.1376;-0.9846;
621.3000;0.1343;-0.9922;
621.6000;0.1343;-0.9846;
621.9000;0.1359;-0.9821;
622.2000;0.1351;-0.9846;
622.5000;0.1335;-0.9721;
622.8000;0.1359;-0.9620;
623.1000;0.1359;-0.9545;
623.4000;0.1351;-0.9595;
623.7000;0.1359;-0.9545;
624.0000;0.1351;-0.9545;
624.3000;0.1351;-0.9670;
624.6000;0.1294;-0.9821;
624.9000;0.1278;-0.9947;
625.2000;0.1343;-0.9796;
625.5000;0.1343;-0.9896;
625.8000;0.1351;-0.9896;
626.1000;0.1343;-0.9972;
626.4000;0.1335;-0.9972;
626.7000;0.1343;-0.9922;
627.0000;0.1343;-0.9871;
627.3000;0.1351;-0.9947;
627.6000;0.1335;-0.9922;
627.9000;0.1319;-0.9871;
628.2000;0.1359;-0.9846;
628.5000;0.1359;-0.9846;
628.8000;0.1343;-0.9846;
629.1000;0.1376;-0.9746;
629.4000;0.1335;-0.9771;
629.7000;0.1343;-0.9796;
630.0000;0.1351;-0.9821;
630.3000;0.1343;-0.9922;
630.6000;0.1319;-0.9947;
630.9000;0.1327;-0.9846;
631.2000;0.1359;-0.9771;
631.5000;0.1311;-0.9947;
631.8000;0.1343;-0.9871;
632.1000;0.1400;-0.9670;
632.4000;0.1343;-0.9721;
632.7000;0.1351;-0.9695;
633.0000;0.1319;-0.9871;
633.3000;0.1376;-0.9721;
633.6000;0.1359;-0.9796;
633.9000;0.1368;-0.9922;
634.2000;0.1327;-1.0047;
634.5000;0.1368;-0.9947;
634.8000;0.1368;-0.9922;
635.1000;0.1384;-0.9896;
635.4000;0.1343;-1.0097;
635.7000;0.1335;-1.0072;
636.0000;0.1351;-0.9972;
636.3000;0.1343;-1.0047;
636.6000;0.1351;-1.0072;
636.9000;0.1368;-1.0047;
637.2000;0.1359;-1.0047;
637.5000;0.1351;-1.0072;
637.8000;0.1359;-1.0072;
638.1000;0.1343;-1.0097;
638.4000;0.1359;-0.9997;
638.7000;0.1327;-1.0022;
639.0000;0.1302;-1.0022;
639.3000;0.1335;-0.9922;
639.6000;0.1351;-0.9871;
639.9000;0.1319;-0.9846;
640.2000;0.1319;-0.9922;
640.5000;0.1351;-0.9896;
640.8000;0.1351;-0.9997;
641.1000;0.1376;-0.9997;
641.4000;0.1311;-1.0173;
641.7000;0.1335;-1.0198;
642.0000;0.1335;-1.0173;
642.3000;0.1351;-1.0047;
642.6000;0.1327;-1.0097;
642.9000;0.1327;-1.0148;
643.2000;0.1327;-1.0148;
643.5000;0.1359;-1.0122;
643.8000;0.1359;-1.0097;
644.1000;0.1351;-1.0047;
644.4000;0.1311;-1.0047;
644.7000;0.1359;-0.9871;
645.0000;0.1368;-0.9846;
645.3000;0.1343;-0.9947;
645.6000;0.1327;-1.0022;
645.9000;0.1335;-1.0072;
646.2000;0.1343;-1.0022;
646.5000;0.1343;-1.0072;
646.8000;0.1335;-1.0022;
647.1000;0.1343;-0.9972;
647.4000;0.1392;-0.9796;
647.7000;0.1359;-0.9922;
648.0000;0.1335;-0.9922;
648.3000;0.1335;-0.9796;
648.6000;0.1376;-0.9721;
648.9000;0.1302;-0.9972;
649.2000;0.1319;-0.9947;
649.5000;0.1368;-0.9746;
649.8000;0.1343;-0.9871;
650.1000;0.1351;-0.9846;
650.4000;0.1351;-0.9871;
650.7000;0.1351;-0.9821;
651.0000;0.1351;-0.9846;
651.3000;0.1368;-0.9695;
651.6000;0.1408;-0.9570;
651.9000;0.1327;-0.9771;
652.2000;0.1335;-0.9796;
652.5000;0.1343;-0.9721;
652.8000;0.1343;-0.9695;
653.1000;0.1343;-0.9796;
653.4000;0.1343;-0.9846;
653.7000;0.1351;-0.9846;
654.0000;0.1343;-0.9846;
654.3000;0.1335;-0.9871;
654.6000;0.1343;-0.9846;
654.9000;0.1351;-0.9796;
655.2000;0.1351;-0.9771;
655.5000;0.1351;-0.9846;
655.8000;0.1335;-0.9846;
656.1000;0.1351;-0.9796;
656.4000;0.1368;-0.9695;
656.7000;0.1368;-0.9670;
657.0000;0.1335;-0.9871;
657.3000;0.1351;-0.9896;
657.6000;0.1368;-0.9896;
657.9000;0.1359;-0.9771;
658.2000;0.1319;-0.9821;
658.5000;0.1335;-0.9846;
658.8000;0.1359;-0.9796;
659.1000;0.1359;-0.9771;
659.4000;0.1335;-0.9796;
659.7000;0.1359;-0.9746;
660.0000;0.1351;-0.9695;
660.3000;0.1359;-0.9695;
660.6000;0.1254;-1.0072;
660.9000;0.1327;-0.9871;
661.2000;0.1343;-0.9796;
661.5000;0.1351;-0.9746;
661.8000;0.1343;-0.9796;
662.1000;0.1335;-0.9896;
662.4000;0.1351;-0.9947;
662.7000;0.1351;-0.9972;
663.0000;0.1319;-0.9997;
663.3000;0.1343;-1.0022;
663.6000;0.1319;-1.0047;
663.9000;0.1359;-0.9896;
664.2000;0.1351;-0.9972;
664.5000;0.1327;-0.9972;
664.8000;0.1343;-1.0047;
665.1000;0.1351;-0.9997;
665.4000;0.1335;-1.0022;
665.7000;0.1351;-0.9972;
666.0000;0.1335;-0.9922;
666.3000;0.1335;-0.9896;
666.6000;0.1335;-0.9997;
666.9000;0.1343;-0.9997;
667.2000;0.1335;-0.9922;
667.5000;0.1368;-0.9871;
667.8000;0.1327;-0.9922;
668.1000;0.1368;-0.9846;
668.4000;0.1359;-0.9721;
668.7000;0.1327;-0.9821;
669.0000;0.1311;-1.0047;
669.3000;0.1351;-0.9922;
669.6000;0.1343;-0.9922;
669.9000;0.1343;-0.9871;
670.2000;0.1335;-0.9922;
670.5000;0.1351;-0.9896;
670.8000;0.1368;-0.9846;
671.1000;0.1335;-0.9922;
671.4000;0.1384;-0.9947;
671.7000;0.1351;-1.0022;
672.0000;0.1343;-0.9972;
672.3000;0.1311;-0.9972;
672.6000;0.1294;-0.9997;
672.9000;0.1311;-0.9972;
673.2000;0.1319;-0.9922;
673.5000;0.1262;-1.0148;
673.8000;0.1343;-0.9896;
674.1000;0.1351;-0.9821;
674.4000;0.1351;-0.9821;
674.7000;0.1327;-0.9796;
675.0000;0.1343;-0.9771;
675.3000;0.1351;-0.9821;
675.6000;0.1359;-0.9846;
675.9000;0.1359;-0.9796;
676.2000;0.1327;-0.9871;
676.5000;0.1327;-0.9821;
676.8000;0.1335;-0.9821;
677.1000;0.1319;-0.9846;
677.4000;0.1343;-0.9947;
677.7000;0.1311;-1.0072;
678.0000;0.1335;-1.0022;
678.3000;0.1351;-1.0022;
678.6000;0.1335;-0.9997;
678.9000;0.1343;-1.0097;
679.2000;0.1359;-1.0072;
679.5000;0.1368;-1.0047;
679.8000;0.1351;-1.0097;
680.1000;0.1351;-0.9972;
680.4000;0.1359;-0.9947;
680.7000;0.1351;-0.9896;
681.0000;0.1351;-0.9947;
681.3000;0.1351;-0.9972;
681.6000;0.1416;-0.9846;
681.9000;0.1359;-0.9997;
682.2000;0.1343;-1.0072;
682.5000;0.1335;-0.9997;
682.8000;0.1335;-0.9896;
683.1000;0.1335;-0.9846;
683.4000;0.1319;-0.9746;
683.7000;0.1343;-0.9796;
684.0000;0.1319;-0.9846;
684.3000;0.1335;-0.9821;
684.6000;0.1384;-0.9721;
684.9000;0.1384;-0.9721;
685.2000;0.1335;-0.9846;
685.5000;0.1359;-0.9721;
685.8000;0.1449;-0.9469;
686.1000;0.1327;-0.9846;
686.4000;0.1335;-0.9896;
686.7000;0.1343;-0.9896;
687.0000;0.1351;-0.9972;
687.3000;0.1311;-0.9997;
687.6000;0.1335;-0.9972;
687.9000;0.1327;-0.9896;
688.2000;0.1319;-0.9922;
688.5000;0.1327;-0.9947;
688.8000;0.1335;-0.9972;
689.1000;0.1335;-0.9947;
689.4000;0.1359;-0.9972;
689.7000;0.1384;-0.9896;
690.0000;0.1368;-0.9947;
690.3000;0.1343;-0.9947;
690.6000;0.1351;-0.9947;
690.9000;0.1245;-1.0148;
691.2000;0.1343;-0.9846;
691.5000;0.1351;-0.9771;
691.8000;0.1359;-0.9746;
692.1000;0.1351;-0.9721;
692.4000;0.1327;-0.9746;
692.7000;0.1335;-0.9721;
693.0000;0.1351;-0.9746;
693.3000;0.1351;-0.9670;
693.6000;0.1359;-0.9645;
693.9000;0.1351;-0.9595;
694.2000;0.1319;-0.9670;
694.5000;0.1368;-0.9595;
694.8000;0.1343;-0.9595;
695.1000;0.1302;-0.9771;
695.4000;0.1368;-0.9670;
695.7000;0.1335;-0.9846;
696.0000;0.1392;-0.9771;
696.3000;0.1359;-0.9746;
696.6000;0.1335;-0.9771;
696.9000;0.1359;-0.9821;
697.2000;0.1335;-0.9972;
697.5000;0.1327;-0.9972;
697.8000;0.1319;-1.0022;
698.1000;0.1343;-0.9896;
698.4000;0.1343;-0.9846;
698.7000;0.1327;-0.9922;
699.0000;0.1311;-0.9922;
699.3000;0.1335;-0.9846;
699.6000;0.1343;-0.9796;
699.9000;0.1335;-0.9871;
700.2000;0.1416;-0.9645;
700.5000;0.1359;-0.9746;
700.8000;0.1343;-0.9821;
701.1000;0.1359;-0.9746;
701.4000;0.1335;-0.9821;
701.7000;0.1368;-0.9746;
702.0000;0.1376;-0.9721;
702.3000;0.1311;-0.9695;
702.6000;0.1327;-0.9645;
702.9000;0.1351;-0.9570;
703.2000;0.1213;-0.9972;
703.5000;0.1319;-0.9620;
703.8000;0.1351;-0.9645;
704.1000;0.1441;-0.9444;
704.4000;0.1359;-0.9695;
704.7000;0.1359;-0.9695;
705.0000;0.1351;-0.9796;
705.3000;0.1343;-0.9922;
705.6000;0.1376;-0.9846;
705.9000;0.1343;-0.9947;
706.2000;0.1351;-0.9947;
706.5000;0.1368;-0.9997;
706.8000;0.1359;-1.0097;
707.1000;0.1335;-1.0047;
707.4000;0.1343;-1.0022;
707.7000;0.1335;-0.9972;
708.0000;0.1294;-0.9972;
708.3000;0.1343;-0.9821;
708.6000;0.1368;-0.9771;
708.9000;0.1351;-0.9796;
709.2000;0.1351;-0.9846;
709.5000;0.1343;-0.9821;
709.8000;0.1343;-0.9821;
710.1000;0.1343;-0.9796;
710.4000;0.1343;-0.9746;
710.7000;0.1343;-0.9670;
711.0000;0.1359;-0.9670;
711.3000;0.1343;-0.9746;
711.6000;0.1335;-0.9821;
711.9000;0.1319;-0.9746;
712.2000;0.1384;-0.9595;
712.5000;0.1343;-0.9670;
712.8000;0.1343;-0.9670;
713.1000;0.1335;-0.9670;
713.4000;0.1351;-0.9670;
713.7000;0.1343;-0.9670;
714.0000;0.1359;-0.9721;
714.3000;0.1319;-0.9796;
714.6000;0.1351;-0.9771;
714.9000;0.1368;-0.9771;
715.2000;0.1359;-0.9721;
715.5000;0.1327;-0.9796;
715.8000;0.1359;-0.9645;
716.1000;0.1351;-0.9645;
716.4000;0.1343;-0.9620;
716.7000;0.1351;-0.9695;
717.0000;0.1343;-0.9821;
717.3000;0.1335;-0.9871;
717.6000;0.1351;-0.9771;
717.9000;0.1319;-0.9796;
718.2000;0.1335;-0.9746;
718.5000;0.1319;-0.9721;
718.8000;0.1319;-0.9796;
719.1000;0.1425;-0.9620;
719.4000;0.1335;-0.9896;
719.7000;0.1343;-0.9871;
720.0000;0.1351;-0.9821;
720.3000;0.1335;-0.9896;
720.6000;0.1433;-0.9620;
720.9000;0.1327;-0.9771;
721.2000;0.1335;-0.9721;
721.5000;0.1335;-0.9645;
721.8000;0.1343;-0.9620;
722.1000;0.1229;-0.9922;
722.4000;0.1351;-0.9545;
722.7000;0.1335;-0.9545;
723.0000;0.1327;-0.9645;
723.3000;0.1335;-0.9595;
723.6000;0.1319;-0.9695;
723.9000;0.1262;-0.9896;
724.2000;0.1327;-0.9746;
724.5000;0.1335;-0.9821;
724.8000;0.1335;-0.9846;
725.1000;0.1351;-0.9871;
725.4000;0.1368;-0.9972;
725.7000;0.1359;-0.9972;
726.0000;0.1384;-0.9871;
726.3000;0.1351;-0.9821;
726.6000;0.1351;-0.9846;
726.9000;0.1351;-0.9871;
727.2000;0.1416;-0.9670;
727.5000;0.1343;-0.9821;
727.8000;0.1343;-0.9896;
728.1000;0.1351;-0.9947;
728.4000;0.1351;-0.9972;
728.7000;0.1335;-0.9947;
729.0000;0.1351;-0.9972;
729.3000;0.1335;-0.9922;
729.6000;0.1343;-0.9947;
729.9000;0.1359;-0.9846;
730.2000;0.1359;-0.9821;
730.5000;0.1351;-0.9796;
730.8000;0.1376;-0.9771;
731.1000;0.1351;-0.9821;
731.4000;0.1343;-0.9796;
731.7000;0.1335;-0.9846;
732.0000;0.1319;-0.9721;
732.3000;0.1327;-0.9695;
732.6000;0.1343;-0.9645;
732.9000;0.1343;-0.9771;
733.2000;0.1343;-0.9796;
733.5000;0.1335;-0.9871;
733.8000;0.1351;-0.9871;
734.1000;0.1335;-0.9846;
734.4000;0.1335;-0.9771;
734.7000;0.1302;-0.9796;
735.0000;0.1343;-0.9595;
735.3000;0.1359;-0.9469;
735.6000;0.1376;-0.9419;
735.9000;0.1327;-0.9444;
736.2000;0.1359;-0.9344;
736.5000;0.1343;-0.9369;
736.8000;0.1351;-0.9444;
737.1000;0.1335;-0.9444;
737.4000;0.1343;-0.9469;
737.7000;0.1368;-0.9444;
738.0000;0.1335;-0.9570;
738.3000;0.1335;-0.9620;
738.6000;0.1351;-0.9620;
738.9000;0.1384;-0.9595;
739.2000;0.1416;-0.9595;
739.5000;0.1327;-0.9796;
739.8000;0.1343;-0.9771;
740.1000;0.1400;-0.9670;
740.4000;0.1392;-0.9746;
740.7000;0.1343;-0.9821;
741.0000;0.1359;-0.9846;
741.3000;0.1368;-0.9896;
741.6000;0.1311;-0.9947;
741.9000;0.1311;-0.9871;
742.2000;0.1294;-0.9922;
742.5000;0.1327;-0.9846;
742.8000;0.1335;-0.9721;
743.1000;0.1319;-0.9922;
743.4000;0.1319;-1.0022;
743.7000;0.1335;-0.9947;
744.0000;0.1343;-0.9796;
744.3000;0.1343;-0.9695;
744.6000;0.1359;-0.9721;
744.9000;0.1319;-0.9896;
745.2000;0.1351;-0.9846;
745.5000;0.1343;-0.9846;
745.8000;0.1327;-0.9947;
746.1000;0.1449;-0.9645;
746.4000;0.1351;-0.9846;
746.7000;0.1327;-0.9871;
747.0000;0.1351;-0.9871;
747.3000;0.1327;-0.9922;
747.6000;0.1343;-0.9871;
747.9000;0.1359;-0.9846;
748.2000;0.1400;-0.9746;
748.5000;0.1343;-0.9821;
748.8000;0.1368;-0.9871;
749.1000;0.1359;-0.9947;
749.4000;0.1343;-0.9871;
749.7000;0.1376;-0.9796;
750.0000;0.1351;-0.9947;
750.3000;0.1359;-0.9997;
750.6000;0.1351;-0.9997;
750.9000;0.1335;-0.9922;
751.2000;0.1335;-0.9871;
751.5000;0.1343;-0.9821;
751.8000;0.1473;-0.9495;
752.1000;0.1335;-0.9896;
752.4000;0.1351;-0.9896;
752.7000;0.1327;-0.9947;
753.0000;0.1343;-0.9896;
753.3000;0.1351;-0.9896;
753.6000;0.1327;-0.9997;
753.9000;0.1335;-0.9922;
754.2000;0.1359;-0.9922;
754.5000;0.1359;-0.9922;
754.8000;0.1343;-0.9846;
755.1000;0.1351;-0.9771;
755.4000;0.1343;-0.9796;
755.7000;0.1359;-0.9796;
756.0000;0.1335;-0.9846;
756.3000;0.1343;-0.9896;
756.6000;0.1351;-0.9846;
756.9000;0.1335;-0.9896;
757.2000;0.1343;-0.9846;
757.5000;0.1335;-0.9896;
757.8000;0.1376;-0.9796;
758.1000;0.1343;-0.9871;
758.4000;0.1319;-0.9871;
758.7000;0.1351;-0.9846;
759.0000;0.1359;-0.9871;
759.3000;0.1343;-1.0022;
759.6000;0.1368;-0.9972;
759.9000;0.1343;-1.0022;
760.2000;0.1351;-0.9997;
760.5000;0.1351;-1.0047;
760.8000;0.1343;-1.0097;
761.1000;0.1351;-1.0097;
761.4000;0.1327;-1.0198;
761.7000;0.1343;-1.0097;
762.0000;0.1327;-1.0072;
762.3000;0.1327;-1.0148;
762.6000;0.1327;-1.0173;
762.9000;0.1302;-1.0248;
763.2000;0.1335;-1.0248;
763.5000;0.1343;-1.0223;
763.8000;0.1311;-1.0323;
764.1000;0.1359;-1.0198;
764.4000;0.1343;-1.0148;
764.7000;0.1359;-1.0072;
765.0000;0.1286;-1.0173;
765.3000;0.1368;-0.9972;
765.6000;0.1368;-0.9922;
765.9000;0.1319;-1.0022;
766.2000;0.1343;-0.9896;
766.5000;0.1343;-0.9871;
766.8000;0.1351;-0.9746;
767.1000;0.1416;-0.9570;
767.4000;0.1392;-0.9670;
767.7000;0.1343;-0.9871;
768.0000;0.1319;-0.9871;
768.3000;0.1335;-0.9771;
768.6000;0.1343;-0.9695;
768.9000;0.1351;-0.9746;
769.2000;0.1351;-0.9821;
769.5000;0.1351;-0.9871;
769.8000;0.1359;-0.9746;
770.1000;0.1359;-0.9796;
770.4000;0.1368;-0.9796;
770.7000;0.1335;-0.9846;
771.0000;0.1368;-0.9721;
771.3000;0.1400;-0.9645;
771.6000;0.1343;-0.9746;
771.9000;0.1351;-0.9746;
772.2000;0.1351;-0.9746;
772.5000;0.1359;-0.9821;
772.8000;0.1343;-0.9972;
773.1000;0.1359;-0.9896;
773.4000;0.1327;-0.9947;
773.7000;0.1351;-0.9846;
774.0000;0.1327;-0.9695;
774.3000;0.1311;-0.9771;
774.6000;0.1335;-0.9771;
774.9000;0.1351;-0.9695;
775.2000;0.1343;-0.9746;
775.5000;0.1351;-0.9771;
775.8000;0.1351;-0.9746;
776.1000;0.1343;-0.9796;
776.4000;0.1351;-0.9771;
776.7000;0.1343;-0.9796;
777.0000;0.1351;-0.9771;
777.3000;0.1359;-0.9871;
777.6000;0.1335;-1.0047;
777.9000;0.1335;-1.0072;
778.2000;0.1311;-1.0047;
778.5000;0.1416;-0.9670;
778.8000;0.1311;-0.9972;
779.1000;0.1327;-0.9821;
779.4000;0.1359;-0.9771;
779.7000;0.1343;-0.9846;
780.0000;0.1351;-0.9846;
780.3000;0.1368;-0.9771;
780.6000;0.1343;-0.9721;
780.9000;0.1351;-0.9771;
781.2000;0.1343;-0.9771;
781.5000;0.1278;-0.9796;
781.8000;0.1343;-0.9595;
782.1000;0.1335;-0.9695;
782.4000;0.1343;-0.9746;
782.7000;0.1319;-0.9821;
783.0000;0.1343;-0.9796;
783.3000;0.1359;-0.9721;
783.6000;0.1343;-0.9796;
783.9000;0.1384;-0.9695;
784.2000;0.1351;-0.9620;
784.5000;0.1327;-0.9695;
784.8000;0.1359;-0.9595;
785.1000;0.1286;-0.9896;
785.4000;0.1351;-0.9796;
785.7000;0.1343;-0.9796;
786.0000;0.1327;-0.9922;
786.3000;0.1319;-0.9922;
786.6000;0.1335;-0.9771;
786.9000;0.1351;-0.9695;
787.2000;0.1311;-0.9746;
787.5000;0.1327;-0.9746;
787.8000;0.1359;-0.9771;
788.1000;0.1384;-0.9670;
788.4000;0.1359;-0.9821;
788.7000;0.1327;-0.9871;
789.0000;0.1433;-0.9620;
789.3000;0.1351;-0.9922;
789.6000;0.1327;-0.9947;
789.9000;0.1408;-0.9746;
790.2000;0.1343;-0.9947;
790.5000;0.1351;-0.9922;
790.8000;0.1343;-0.9871;
791.1000;0.1359;-0.9922;
791.4000;0.1343;-0.9821;
791.7000;0.1343;-0.9871;
792.0000;0.1359;-0.9821;
792.3000;0.1311;-0.9972;
792.6000;0.1351;-0.9922;
792.9000;0.1343;-0.9896;
793.2000;0.1335;-0.9871;
793.5000;0.1343;-0.9846;
793.8000;0.1433;-0.9620;
794.1000;0.1343;-0.9771;
794.4000;0.1351;-0.9796;
794.7000;0.1368;-0.9746;
795.0000;0.1294;-0.9947;
795.3000;0.1351;-0.9846;
795.6000;0.1327;-1.0022;
795.9000;0.1351;-0.9922;
796.2000;0.1433;-0.9695;
796.5000;0.1351;-0.9972;
796.8000;0.1343;-0.9997;
797.1000;0.1351;-0.9896;
797.4000;0.1343;-0.9871;
797.7000;0.1368;-0.9771;
798.0000;0.1449;-0.9545;
798.3000;0.1343;-0.9771;
798.6000;0.1359;-0.9695;
798.9000;0.1335;-0.9821;
799.2000;0.1359;-0.9846;
799.5000;0.1319;-0.9947;
799.8000;0.1335;-0.9972;
800.1000;0.1359;-0.9922;
800.4000;0.1343;-0.9922;
800.7000;0.1302;-1.0047;
801.0000;0.1351;-0.9947;
801.3000;0.1335;-0.9947;
801.6000;0.1311;-0.9997;
801.9000;0.1359;-0.9846;
802.2000;0.1311;-0.9972;
802.5000;0.1343;-0.9871;
802.8000;0.1343;-0.9821;
803.1000;0.1311;-0.9896;
803.4000;0.1335;-0.9796;
803.7000;0.1327;-0.9821;
804.0000;0.1376;-0.9620;
804.3000;0.1319;-0.9695;
804.6000;0.1343;-0.9670;
804.9000;0.1351;-0.9721;
805.2000;0.1351;-0.9695;
805.5000;0.1343;-0.9746;
805.8000;0.1351;-0.9746;
806.1000;0.1343;-0.9695;
806.4000;0.1343;-0.9645;
806.7000;0.1351;-0.9670;
807.0000;0.1327;-0.9721;
807.3000;0.1368;-0.9620;
807.6000;0.1327;-0.9645;
807.9000;0.1335;-0.9721;
808.2000;0.1335;-0.9796;
808.5000;0.1319;-0.9846;
808.8000;0.1327;-0.9871;
809.1000;0.1262;-1.0148;
809.4000;0.1327;-1.0022;
809.7000;0.1327;-0.9997;
810.0000;0.1343;-0.9871;
810.3000;0.1343;-0.9821;
810.6000;0.1335;-0.9896;
810.9000;0.1327;-0.9947;
811.2000;0.1351;-0.9947;
811.5000;0.1351;-0.9922;
811.8000;0.1327;-0.9896;
812.1000;0.1433;-0.9595;
812.4000;0.1327;-0.9821;
812.7000;0.1327;-0.9846;
813.0000;0.1343;-0.9821;
813.3000;0.1319;-0.9896;
813.6000;0.1335;-0.9896;
813.9000;0.1343;-0.9821;
814.2000;0.1408;-0.9695;
814.5000;0.1343;-0.9846;
814.8000;0.1335;-0.9922;
815.1000;0.1351;-0.9922;
815.4000;0.1359;-0.9947;
815.7000;0.1294;-1.0047;
816.0000;0.1368;-0.9972;
816.3000;0.1343;-0.9896;
816.6000;0.1343;-0.9796;
816.9000;0.1343;-0.9771;
817.2000;0.1294;-0.9871;
817.5000;0.1359;-0.9746;
817.8000;0.1368;-0.9670;
818.1000;0.1351;-0.9746;
818.4000;0.1343;-0.9746;
818.7000;0.1286;-0.9896;
819.0000;0.1351;-0.9796;
819.3000;0.1327;-0.9896;
819.6000;0.1359;-0.9896;
819.9000;0.1335;-0.9972;
820.2000;0.1294;-0.9972;
820.5000;0.1343;-0.9846;
820.8000;0.1343;-0.9947;
821.1000;0.1335;-0.9896;
821.4000;0.1319;-0.9922;
821.7000;0.1343;-0.9821;
822.0000;0.1327;-0.9846;
822.3000;0.1319;-0.9922;
822.6000;0.1335;-0.9846;
822.9000;0.1351;-0.9821;
823.2000;0.1327;-0.9821;
823.5000;0.1359;-0.9645;
823.8000;0.1335;-0.9695;
824.1000;0.1327;-0.9721;
824.4000;0.1351;-0.9695;
824.7000;0.1302;-0.9821;
825.0000;0.1286;-0.9821;
825.3000;0.1343;-0.9771;
825.6000;0.1343;-0.9846;
825.9000;0.1351;-0.9871;
826.2000;0.1335;-0.9922;
826.5000;0.1368;-0.9922;
826.8000;0.1335;-0.9947;
827.1000;0.1351;-0.9871;
827.4000;0.1368;-0.9796;
827.7000;0.1302;-0.9922;
828.0000;0.1359;-0.9771;
828.3000;0.1368;-0.9771;
828.6000;0.1351;-0.9821;
828.9000;0.1343;-0.9796;
829.2000;0.1311;-0.9821;
829.5000;0.1368;-0.9721;
829.8000;0.1351;-0.9695;
830.1000;0.1335;-0.9771;
830.4000;0.1319;-0.9796;
830.7000;0.1335;-0.9821;
831.0000;0.1368;-0.9721;
831.3000;0.1343;-0.9746;
831.6000;0.1351;-0.9695;
831.9000;0.1368;-0.9771;
832.2000;0.1335;-0.9821;
832.5000;0.1335;-0.9670;
832.8000;0.1351;-0.9645;
833.1000;0.1319;-0.9695;
833.4000;0.1351;-0.9570;
833.7000;0.1327;-0.9570;
834.0000;0.1376;-0.9394;
834.3000;0.1335;-0.9469;
834.6000;0.1416;-0.9294;
834.9000;0.1319;-0.9595;
835.2000;0.1302;-0.9746;
835.5000;0.1327;-0.9721;
835.8000;0.1327;-0.9721;
836.1000;0.1335;-0.9746;
836.4000;0.1302;-0.9972;
836.7000;0.1343;-0.9846;
837.0000;0.1351;-0.9695;
837.3000;0.1327;-0.9796;
837.6000;0.1311;-0.9846;
837.9000;0.1270;-0.9972;
838.2000;0.1408;-0.9620;
838.5000;0.1351;-0.9846;
838.8000;0.1335;-0.9922;
839.1000;0.1359;-0.9896;
839.4000;0.1400;-0.9846;
839.7000;0.1327;-0.9972;
840.0000;0.1343;-0.9896;
840.3000;0.1351;-0.9771;
840.6000;0.1343;-0.9746;
840.9000;0.1351;-0.9771;
841.2000;0.1376;-0.9721;
841.5000;0.1343;-0.9821;
841.8000;0.1351;-0.9695;
842.1000;0.1359;-0.9746;
842.4000;0.1359;-0.9796;
842.7000;0.1359;-0.9721;
843.0000;0.1351;-0.9746;
843.3000;0.1351;-0.9721;
843.6000;0.1335;-0.9645;
843.9000;0.1376;-0.9469;
844.2000;0.1302;-0.9645;
844.5000;0.1343;-0.9570;
844.8000;0.1343;-0.9570;
845.1000;0.1343;-0.9545;
845.4000;0.1343;-0.9595;
845.7000;0.1254;-0.9871;
846.0000;0.1327;-0.9645;
846.3000;0.1343;-0.9620;
846.6000;0.1343;-0.9595;
846.9000;0.1335;-0.9670;
847.2000;0.1351;-0.9620;
847.5000;0.1343;-0.9645;
847.8000;0.1335;-0.9746;
848.1000;0.1343;-0.9821;
848.4000;0.1335;-0.9846;
848.7000;0.1335;-0.9796;
849.0000;0.1335;-0.9821;
849.3000;0.1335;-0.9771;
849.6000;0.1416;-0.9620;
849.9000;0.1351;-0.9796;
850.2000;0.1327;-0.9821;
850.5000;0.1351;-0.9746;
850.8000;0.1343;-0.9746;
851.1000;0.1343;-0.9771;
851.4000;0.1351;-0.9922;
851.7000;0.1319;-0.9997;
852.0000;0.1384;-0.9796;
852.3000;0.1343;-0.9871;
852.6000;0.1343;-0.9871;
852.9000;0.1335;-0.9846;
853.2000;0.1368;-0.9721;
853.5000;0.1343;-0.9670;
853.8000;0.1384;-0.9545;
854.1000;0.1335;-0.9746;
854.4000;0.1327;-0.9846;
854.7000;0.1425;-0.9545;
855.0000;0.1368;-0.9670;
855.3000;0.1359;-0.9721;
855.6000;0.1327;-0.9721;
855.9000;0.1335;-0.9645;
856.2000;0.1392;-0.9595;
856.5000;0.1327;-0.9746;
856.8000;0.1327;-0.9670;
857.1000;0.1262;-0.9871;
857.4000;0.1327;-0.9570;
857.7000;0.1327;-0.9670;
858.0000;0.1327;-0.9570;
858.3000;0.1327;-0.9595;
858.6000;0.1327;-0.9746;
858.9000;0.1327;-0.9846;
859.2000;0.1335;-0.9922;
859.5000;0.1294;-1.0072;
859.8000;0.1343;-1.0047;
860.1000;0.1319;-1.0047;
860.4000;0.1302;-1.0097;
860.7000;0.1351;-0.9922;
861.0000;0.1335;-0.9896;
861.3000;0.1376;-0.9846;
861.6000;0.1351;-0.9821;
861.9000;0.1319;-0.9972;
862.2000;0.1311;-0.9997;
862.5000;0.1351;-0.9796;
862.8000;0.1351;-0.9721;
863.1000;0.1343;-0.9746;
863.4000;0.1384;-0.9746;
863.7000;0.1335;-0.9896;
864.0000;0.1327;-0.9922;
864.3000;0.1311;-0.9922;
864.6000;0.1351;-0.9771;
864.9000;0.1343;-0.9721;
865.2000;0.1376;-0.9570;
865.5000;0.1335;-0.9771;
865.8000;0.1335;-0.9670;
866.1000;0.1359;-0.9620;
866.4000;0.1351;-0.9620;
866.7000;0.1327;-0.9670;
867.0000;0.1425;-0.9570;
867.3000;0.1368;-0.9721;
867.6000;0.1327;-0.9821;
867.9000;0.1351;-0.9695;
868.2000;0.1335;-0.9570;
868.5000;0.1343;-0.9545;
868.8000;0.1351;-0.9570;
869.1000;0.1351;-0.9570;
869.4000;0.1343;-0.9670;
869.7000;0.1254;-0.9997;
870.0000;0.1368;-0.9721;
870.3000;0.1368;-0.9746;
870.6000;0.1351;-0.9746;
870.9000;0.1335;-0.9695;
871.2000;0.1327;-0.9645;
871.5000;0.1335;-0.9695;
871.8000;0.1408;-0.9444;
872.1000;0.1368;-0.9620;
872.4000;0.1343;-0.9746;
872.7000;0.1351;-0.9746;
873.0000;0.1327;-0.9796;
873.3000;0.1335;-0.9821;
873.6000;0.1343;-0.9771;
873.9000;0.1351;-0.9846;
874.2000;0.1343;-0.9846;
874.5000;0.1343;-0.9821;
874.8000;0.1335;-0.9821;
875.1000;0.1368;-0.9771;
875.4000;0.1286;-1.0022;
875.7000;0.1351;-0.9922;
876.0000;0.1343;-0.9947;
876.3000;0.1327;-0.9972;
876.6000;0.1327;-0.9922;
876.9000;0.1335;-0.9821;
877.2000;0.1351;-0.9846;
877.5000;0.1368;-0.9796;
877.8000;0.1351;-0.9695;
878.1000;0.1335;-0.9670;
878.4000;0.1351;-0.9595;
878.7000;0.1368;-0.9469;
879.0000;0.1335;-0.9545;
879.3000;0.1343;-0.9495;
879.6000;0.1351;-0.9469;
879.9000;0.1408;-0.9243;
880.2000;0.1351;-0.9394;
880.5000;0.1335;-0.9620;
880.8000;0.1343;-0.9545;
881.1000;0.1351;-0.9520;
881.4000;0.1302;-0.9695;
881.7000;0.1327;-0.9570;
882.0000;0.1343;-0.9595;
882.3000;0.1368;-0.9495;
882.6000;0.1335;-0.9670;
882.9000;0.1327;-0.9721;
883.2000;0.1351;-0.9695;
883.5000;0.1392;-0.9595;
883.8000;0.1302;-0.9796;
884.1000;0.1359;-0.9620;
884.4000;0.1327;-0.9771;
884.7000;0.1335;-0.9746;
885.0000;0.1343;-0.9695;
885.3000;0.1335;-0.9645;
885.6000;0.1384;-0.9545;
885.9000;0.1343;-0.9695;
886.2000;0.1335;-0.9796;
886.5000;0.1343;-0.9846;
886.8000;0.1400;-0.9670;
887.1000;0.1327;-0.9796;
887.4000;0.1319;-0.9771;
887.7000;0.1335;-0.9721;
888.0000;0.1351;-0.9695;
888.3000;0.1392;-0.9570;
888.6000;0.1335;-0.9721;
888.9000;0.1327;-0.9721;
889.2000;0.1286;-0.9846;
889.5000;0.1319;-0.9896;
889.8000;0.1327;-0.9871;
890.1000;0.1351;-0.9896;
890.4000;0.1359;-0.9821;
890.7000;0.1302;-0.9997;
891.0000;0.1343;-0.9896;
891.3000;0.1351;-0.9896;
891.6000;0.1335;-0.9896;
891.9000;0.1343;-0.9846;
892.2000;0.1343;-0.9821;
892.5000;0.1359;-0.9922;
892.8000;0.1368;-0.9947;
893.1000;0.1335;-1.0097;
893.4000;0.1335;-1.0047;
893.7000;0.1335;-1.0047;
894.0000;0.1327;-1.0022;
894.3000;0.1351;-0.9997;
894.6000;0.1335;-0.9997;
894.9000;0.1335;-0.9972;
895.2000;0.1343;-0.9922;
895.5000;0.1335;-0.9896;
895.8000;0.1335;-0.9972;
896.1000;0.1335;-0.9922;
896.4000;0.1335;-0.9871;
896.7000;0.1351;-0.9871;
897.0000;0.1343;-0.9922;
897.3000;0.1351;-0.9846;
897.6000;0.1311;-0.9922;
897.9000;0.1351;-0.9796;
898.2000;0.1368;-0.9670;
898.5000;0.1319;-0.9746;
898.8000;0.1335;-0.9721;
899.1000;0.1359;-0.9670;
899.4000;0.1359;-0.9595;
899.7000;0.1327;-0.9645;
900.0000;0.1351;-0.9620;
900.3000;0.1359;-0.9570;
900.6000;0.1319;-0.9695;
900.9000;0.1368;-0.9645;
901.2000;0.1351;-0.9620;
901.5000;0.1368;-0.9620;
901.8000;0.1359;-0.9620;
902.1000;0.1335;-0.9721;
902.4000;0.1335;-0.9771;
902.7000;0.1311;-0.9896;
903.0000;0.1416;-0.9595;
903.3000;0.1351;-0.9796;
903.6000;0.1327;-0.9821;
903.9000;0.1351;-0.9721;
904.2000;0.1392;-0.9670;
904.5000;0.1294;-0.9896;
904.8000;0.1343;-0.9771;
905.1000;0.1278;-0.9997;
905.4000;0.1343;-0.9922;
905.7000;0.1335;-0.9997;
906.0000;0.1302;-1.0097;
906.3000;0.1335;-0.9947;
906.6000;0.1351;-0.9896;
906.9000;0.1343;-0.9997;
907.2000;0.1343;-0.9972;
907.5000;0.1229;-1.0223;
907.8000;0.1343;-0.9846;
908.1000;0.1343;-0.9896;
908.4000;0.1465;-0.9570;
908.7000;0.1351;-0.9896;
909.0000;0.1335;-0.9871;
909.3000;0.1335;-0.9796;
909.6000;0.1368;-0.9796;
909.9000;0.1343;-0.9846;
910.2000;0.1351;-0.9771;
910.5000;0.1351;-0.9670;
910.8000;0.1376;-0.9620;
911.1000;0.1359;-0.9771;
911.4000;0.1335;-0.9896;
911.7000;0.1351;-0.9846;
912.0000;0.1327;-0.9821;
912.3000;0.1335;-0.9771;
912.6000;0.1327;-0.9746;
912.9000;0.1335;-0.9695;
913.2000;0.1311;-0.9796;
913.5000;0.1335;-0.9746;
913.8000;0.1449;-0.9344;
914.1000;0.1311;-0.9721;
914.4000;0.1254;-0.9871;
914.7000;0.1335;-0.9771;
915.0000;0.1311;-0.9721;
915.3000;0.1368;-0.9570;
915.6000;0.1327;-0.9695;
915.9000;0.1351;-0.9670;
916.2000;0.1335;-0.9771;
916.5000;0.1343;-0.9796;
916.8000;0.1327;-0.9821;
917.1000;0.1351;-0.9771;
917.4000;0.1343;-0.9796;
917.7000;0.1319;-0.9922;
918.0000;0.1327;-0.9947;
918.3000;0.1343;-0.9871;
918.6000;0.1327;-0.9846;
918.9000;0.1319;-0.9871;
919.2000;0.1343;-0.9821;
919.5000;0.1343;-0.9871;
919.8000;0.1351;-0.9896;
920.1000;0.1359;-0.9871;
920.4000;0.1351;-0.9896;
920.7000;0.1368;-0.9896;
921.0000;0.1351;-0.9922;
921.3000;0.1359;-0.9871;
921.6000;0.1335;-0.9796;
921.9000;0.1343;-0.9821;
922.2000;0.1343;-0.9821;
922.5000;0.1351;-0.9746;
922.8000;0.1319;-0.9796;
923.1000;0.1335;-0.9846;
923.4000;0.1368;-0.9821;
923.7000;0.1335;-0.9871;
924.0000;0.1335;-0.9846;
924.3000;0.1343;-0.9746;
924.6000;0.1351;-0.9771;
924.9000;0.1359;-0.9846;
925.2000;0.1368;-0.9846;
925.5000;0.1351;-0.9846;
925.8000;0.1335;-0.9896;
926.1000;0.1311;-0.9947;
926.4000;0.1343;-0.9871;
926.7000;0.1327;-0.9871;
927.0000;0.1351;-0.9746;
927.3000;0.1343;-0.9771;
927.6000;0.1408;-0.9695;
927.9000;0.1327;-0.9871;
928.2000;0.1311;-0.9972;
928.5000;0.1400;-0.9771;
928.8000;0.1319;-1.0022;
929.1000;0.1335;-1.0022;
929.4000;0.1327;-0.9947;
929.7000;0.1351;-0.9796;
930.0000;0.1343;-0.9796;
930.3000;0.1368;-0.9746;
930.6000;0.1351;-0.9846;
930.9000;0.1351;-0.9871;
931.2000;0.1327;-0.9896;
931.5000;0.1335;-0.9947;
931.8000;0.1343;-0.9947;
932.1000;0.1359;-0.9947;
932.4000;0.1351;-0.9947;
932.7000;0.1351;-0.9972;
933.0000;0.1343;-0.9947;
933.3000;0.1343;-0.9947;
933.6000;0.1351;-0.9922;
933.9000;0.1302;-0.9947;
934.2000;0.1351;-0.9846;
934.5000;0.1376;-0.9721;
934.8000;0.1408;-0.9721;
935.1000;0.1368;-0.9821;
935.4000;0.1254;-1.0047;
935.7000;0.1351;-0.9796;
936.0000;0.1351;-0.9771;
936.3000;0.1343;-0.9771;
936.6000;0.1359;-0.9796;
936.9000;0.1335;-0.9796;
937.2000;0.1343;-0.9721;
937.5000;0.1335;-0.9721;
937.8000;0.1343;-0.9721;
938.1000;0.1343;-0.9695;
938.4000;0.1359;-0.9620;
938.7000;0.1335;-0.9620;
939.0000;0.1294;-0.9695;
939.3000;0.1351;-0.9595;
939.6000;0.1392;-0.9570;
939.9000;0.1351;-0.9846;
940.2000;0.1359;-0.9896;
940.5000;0.1359;-0.9922;
940.8000;0.1368;-0.9721;
941.1000;0.1368;-0.9746;
941.4000;0.1343;-0.9771;
941.7000;0.1351;-0.9746;
942.0000;0.1368;-0.9645;
942.3000;0.1343;-0.9645;
942.6000;0.1400;-0.9495;
942.9000;0.1400;-0.9545;
943.2000;0.1343;-0.9645;
943.5000;0.1327;-0.9721;
943.8000;0.1335;-0.9620;
944.1000;0.1335;-0.9670;
944.4000;0.1343;-0.9721;
944.7000;0.1335;-0.9670;
945.0000;0.1359;-0.9645;
945.3000;0.1343;-0.9670;
945.6000;0.1343;-0.9645;
945.9000;0.1425;-0.9419;
946.2000;0.1327;-0.9846;
946.5000;0.1335;-0.9821;
946.8000;0.1302;-0.9821;
947.1000;0.1311;-0.9721;
947.4000;0.1335;-0.9595;
947.7000;0.1343;-0.9595;
948.0000;0.1343;-0.9695;
948.3000;0.1278;-0.9846;
948.6000;0.1335;-0.9695;
948.9000;0.1294;-0.9796;
949.2000;0.1408;-0.9620;
949.5000;0.1327;-0.9796;
949.8000;0.1335;-0.9670;
950.1000;0.1359;-0.9645;
950.4000;0.1327;-0.9746;
950.7000;0.1351;-0.9746;
951.0000;0.1286;-0.9871;
951.3000;0.1343;-0.9645;
951.6000;0.1311;-0.9670;
951.9000;0.1335;-0.9595;
952.2000;0.1343;-0.9570;
952.5000;0.1351;-0.9545;
952.8000;0.1335;-0.9495;
953.1000;0.1449;-0.9168;
953.4000;0.1335;-0.9495;
953.7000;0.1368;-0.9570;
954.0000;0.1327;-0.9721;
954.3000;0.1359;-0.9645;
954.6000;0.1359;-0.9695;
954.9000;0.1359;-0.9645;
955.2000;0.1343;-0.9645;
955.5000;0.1335;-0.9695;
955.8000;0.1327;-0.9746;
956.1000;0.1327;-0.9670;
956.4000;0.1343;-0.9620;
956.7000;0.1384;-0.9545;
957.0000;0.1351;-0.9570;
957.3000;0.1343;-0.9595;
957.6000;0.1368;-0.9620;
957.9000;0.1351;-0.9620;
958.2000;0.1335;-0.9645;
958.5000;0.1335;-0.9645;
958.8000;0.1302;-0.9821;
959.1000;0.1351;-0.9645;
959.4000;0.1335;-0.9620;
959.7000;0.1311;-0.9695;
960.0000;0.1343;-0.9595;
960.3000;0.1351;-0.9746;
960.6000;0.1376;-0.9695;
960.9000;0.1335;-0.9796;
961.2000;0.1351;-0.9771;
961.5000;0.1368;-0.9796;
961.8000;0.1376;-0.9796;
962.1000;0.1327;-1.0022;
962.4000;0.1359;-0.9972;
962.7000;0.1335;-0.9947;
963.0000;0.1359;-0.9947;
963.3000;0.1359;-0.9871;
963.6000;0.1294;-0.9922;
963.9000;0.1368;-0.9796;
964.2000;0.1368;-0.9821;
964.5000;0.1343;-0.9871;
964.8000;0.1335;-0.9896;
965.1000;0.1351;-0.9721;
965.4000;0.1359;-0.9846;
965.7000;0.1351;-0.9796;
966.0000;0.1351;-0.9796;
966.3000;0.1368;-0.9846;
966.6000;0.1351;-0.9821;
966.9000;0.1359;-0.9796;
967.2000;0.1359;-0.9796;
967.5000;0.1327;-0.9922;
967.8000;0.1425;-0.9545;
968.1000;0.1335;-0.9721;
968.4000;0.1343;-0.9796;
968.7000;0.1335;-0.9846;
969.0000;0.1278;-0.9922;
969.3000;0.1335;-0.9796;
969.6000;0.1343;-0.9922;
969.9000;0.1343;-0.9896;
970.2000;0.1327;-0.9846;
970.5000;0.1351;-0.9796;
970.8000;0.1343;-0.9796;
971.1000;0.1343;-0.9846;
971.4000;0.1376;-0.9796;
971.7000;0.1343;-0.9821;
972.0000;0.1351;-0.9796;
972.3000;0.1343;-0.9846;
972.6000;0.1351;-0.9922;
972.9000;0.1351;-0.9896;
973.2000;0.1302;-0.9997;
973.5000;0.1335;-0.9896;
973.8000;0.1286;-0.9997;
974.1000;0.1351;-0.9922;
974.4000;0.1376;-0.9821;
974.7000;0.1278;-1.0097;
975.0000;0.1327;-0.9947;
975.3000;0.1343;-0.9871;
975.6000;0.1343;-0.9821;
975.9000;0.1262;-0.9972;
976.2000;0.1270;-1.0047;
976.5000;0.1384;-0.9846;
976.8000;0.1343;-0.9972;
977.1000;0.1359;-0.9922;
977.4000;0.1270;-1.0097;
977.7000;0.1335;-0.9896;
978.0000;0.1343;-0.9796;
978.3000;0.1351;-0.9670;
978.6000;0.1335;-0.9620;
978.9000;0.1335;-0.9721;
979.2000;0.1343;-0.9746;
979.5000;0.1368;-0.9620;
979.8000;0.1335;-0.9695;
980.1000;0.1343;-0.9620;
980.4000;0.1343;-0.9595;
980.7000;0.1384;-0.9545;
981.0000;0.1351;-0.9670;
981.3000;0.1343;-0.9695;
981.6000;0.1351;-0.9620;
981.9000;0.1351;-0.9645;
982.2000;0.1351;-0.9721;
982.5000;0.1351;-0.9670;
982.8000;0.1343;-0.9695;
983.1000;0.1343;-0.9721;
983.4000;0.1319;-0.9846;
983.7000;0.1351;-0.9821;
984.0000;0.1351;-0.9871;
984.3000;0.1262;-1.0097;
984.6000;0.1359;-0.9846;
984.9000;0.1327;-0.9821;
985.2000;0.1335;-0.9821;
985.5000;0.1368;-0.9670;
985.8000;0.1335;-0.9796;
986.1000;0.1335;-0.9821;
986.4000;0.1343;-0.9846;
986.7000;0.1327;-0.9871;
987.0000;0.1368;-0.9771;
987.3000;0.1335;-0.9871;
987.6000;0.1335;-0.9922;
987.9000;0.1311;-1.0047;
988.2000;0.1327;-0.9922;
988.5000;0.1335;-0.9922;
988.8000;0.1392;-0.9796;
989.1000;0.1335;-0.9922;
989.4000;0.1343;-0.9846;
989.7000;0.1351;-0.9821;
990.0000;0.1376;-0.9846;
990.3000;0.1319;-0.9997;
990.6000;0.1359;-0.9846;
990.9000;0.1319;-0.9947;
991.2000;0.1343;-0.9896;
991.5000;0.1335;-0.9846;
991.8000;0.1359;-0.9896;
992.1000;0.1351;-0.9972;
992.4000;0.1351;-1.0022;
992.7000;0.1335;-0.9997;
993.0000;0.1335;-0.9947;
993.3000;0.1335;-0.9922;
993.6000;0.1335;-0.9821;
993.9000;0.1343;-0.9896;
994.2000;0.1343;-0.9796;
994.5000;0.1351;-0.9746;
994.8000;0.1335;-0.9771;
995.1000;0.1343;-0.9746;
995.4000;0.1359;-0.9645;
995.7000;0.1335;-0.9771;
996.0000;0.1351;-0.9721;
996.3000;0.1319;-0.9846;
996.6000;0.1351;-0.9670;
996.9000;0.1359;-0.9545;
997.2000;0.1359;-0.9495;
997.5000;0.1351;-0.9620;
997.8000;0.1359;-0.9645;
998.1000;0.1343;-0.9645;
998.4000;0.1335;-0.9670;
998.7000;0.1343;-0.9721;
999.0000;0.1311;-0.9896;
999.3000;0.1327;-0.9771;
999.6000;0.1351;-0.9746;
999.9000;0.1319;-0.9670;
1000.2000;0.1319;-0.9670;
1000.5000;0.1335;-0.9620;
1000.8000;0.1351;-0.9570;
1001.1000;0.1319;-0.9645;
1001.4000;0.1319;-0.9570;
1001.7000;0.1335;-0.9545;
1002.0000;0.1343;-0.9595;
1002.3000;0.1408;-0.9495;
1002.6000;0.1335;-0.9695;
1002.9000;0.1351;-0.9670;
1003.2000;0.1335;-0.9695;
1003.5000;0.1351;-0.9771;
1003.8000;0.1368;-0.9771;
1004.1000;0.1343;-0.9796;
1004.4000;0.1311;-0.9972;
1004.7000;0.1335;-0.9871;
1005.0000;0.1359;-0.9846;
1005.3000;0.1302;-0.9972;
1005.6000;0.1359;-0.9846;
1005.9000;0.1359;-0.9746;
1006.2000;0.1327;-0.9846;
1006.5000;0.1351;-0.9771;
1006.8000;0.1335;-0.9721;
1007.1000;0.1351;-0.9695;
1007.4000;0.1359;-0.9670;
1007.7000;0.1335;-0.9771;
1008.0000;0.1335;-0.9721;
1008.3000;0.1335;-0.9721;
1008.6000;0.1343;-0.9746;
1008.9000;0.1319;-0.9821;
1009.2000;0.1335;-0.9821;
1009.5000;0.1343;-0.9796;
1009.8000;0.1343;-0.9695;
1010.1000;0.1343;-0.9746;
1010.4000;0.1335;-0.9746;
1010.7000;0.1351;-0.9645;
1011.0000;0.1368;-0.9620;
1011.3000;0.1335;-0.9796;
1011.6000;0.1278;-0.9846;
1011.9000;0.1319;-0.9695;
1012.2000;0.1335;-0.9746;
1012.5000;0.1319;-0.9821;
1012.8000;0.1294;-0.9871;
1013.1000;0.1327;-0.9771;
1013.4000;0.1270;-0.9821;
1013.7000;0.1343;-0.9645;
1014.0000;0.1343;-0.9670;
1014.3000;0.1335;-0.9695;
1014.6000;0.1351;-0.9796;
1014.9000;0.1392;-0.9645;
1015.2000;0.1343;-0.9771;
1015.5000;0.1327;-0.9821;
1015.8000;0.1335;-0.9721;
1016.1000;0.1351;-0.9796;
1016.4000;0.1368;-0.9695;
1016.7000;0.1343;-0.9771;
1017.0000;0.1311;-0.9846;
1017.3000;0.1327;-0.9796;
1017.6000;0.1384;-0.9695;
1017.9000;0.1254;-1.0047;
1018.2000;0.1319;-0.9871;
1018.5000;0.1351;-0.9846;
1018.8000;0.1343;-0.9846;
1019.1000;0.1327;-0.9871;
1019.4000;0.1319;-0.9871;
1019.7000;0.1384;-0.9721;
1020.0000;0.1351;-0.9947;
1020.3000;0.1319;-1.0047;
1020.6000;0.1335;-1.0097;
1020.9000;0.1351;-1.0022;
1021.2000;0.1359;-1.0022;
1021.5000;0.1376;-0.9922;
1021.8000;0.1319;-1.0097;
1022.1000;0.1351;-1.0122;
1022.4000;0.1335;-1.0148;
1022.7000;0.1278;-1.0198;
1023.0000;0.1368;-0.9972;
1023.3000;0.1270;-1.0122;
1023.6000;0.1400;-0.9871;
1023.9000;0.1343;-0.9922;
1024.2000;0.1343;-1.0022;
1024.5000;0.1327;-1.0072;
1024.8000;0.1302;-1.0148;
1025.1000;0.1335;-0.9997;
1025.4000;0.1311;-0.9922;
1025.7000;0.1351;-0.9821;
1026.0000;0.1343;-0.9771;
1026.3000;0.1368;-0.9645;
1026.6000;0.1311;-0.9771;
1026.9000;0.1351;-0.9670;
1027.2000;0.1359;-0.9620;
1027.5000;0.1351;-0.9670;
1027.8000;0.1343;-0.9670;
1028.1000;0.1335;-0.9670;
1028.4000;0.1400;-0.9595;
1028.7000;0.1343;-0.9796;
1029.0000;0.1335;-0.9871;
1029.3000;0.1335;-0.9947;
1029.6000;0.1343;-0.9922;
1029.9000;0.1343;-0.9846;
1030.2000;0.1319;-0.9922;
1030.5000;0.1327;-0.9846;
1030.8000;0.1343;-0.9922;
1031.1000;0.1343;-0.9846;
1031.4000;0.1351;-0.9896;
1031.7000;0.1343;-0.9922;
1032.0000;0.1368;-0.9922;
1032.3000;0.1327;-0.9997;
1032.6000;0.1327;-0.9947;
1032.9000;0.1343;-0.9846;
1033.2000;0.1327;-0.9896;
1033.5000;0.1343;-0.9871;
1033.8000;0.1302;-0.9997;
1034.1000;0.1343;-0.9896;
1034.4000;0.1335;-0.9846;
1034.7000;0.1327;-0.9821;
1035.0000;0.1294;-0.9922;
1035.3000;0.1335;-0.9721;
1035.6000;0.1327;-0.9796;
1035.9000;0.1351;-0.9846;
1036.2000;0.1351;-0.9821;
1036.5000;0.1343;-0.9922;
1036.8000;0.1278;-1.0148;
1037.1000;0.1343;-0.9997;
1037.4000;0.1327;-1.0047;
1037.7000;0.1351;-0.9997;
1038.0000;0.1311;-1.0022;
1038.3000;0.1327;-0.9997;
1038.6000;0.1335;-0.9947;
1038.9000;0.1335;-0.9896;
1039.2000;0.1351;-0.9922;
1039.5000;0.1335;-0.9896;
1039.8000;0.1400;-0.9746;
1040.1000;0.1343;-0.9947;
1040.4000;0.1359;-0.9871;
1040.7000;0.1343;-0.9871;
1041.0000;0.1335;-0.9997;
1041.3000;0.1359;-1.0022;
1041.6000;0.1400;-0.9896;
1041.9000;0.1335;-1.0047;
1042.2000;0.1262;-1.0148;
1042.5000;0.1335;-0.9821;
1042.8000;0.1343;-0.9796;
1043.1000;0.1311;-0.9947;
1043.4000;0.1335;-0.9871;
1043.7000;0.1351;-0.9821;
1044.0000;0.1319;-0.9922;
1044.3000;0.1343;-0.9922;
1044.6000;0.1368;-0.9947;
1044.9000;0.1262;-1.0148;
1045.2000;0.1335;-0.9997;
1045.5000;0.1343;-0.9997;
1045.8000;0.1286;-1.0122;
1046.1000;0.1311;-1.0047;
1046.4000;0.1327;-0.9997;
1046.7000;0.1343;-0.9947;
1047.0000;0.1351;-1.0047;
1047.3000;0.1343;-1.0022;
1047.6000;0.1343;-1.0022;
1047.9000;0.1376;-0.9922;
1048.2000;0.1335;-1.0047;
1048.5000;0.1351;-0.9972;
1048.8000;0.1359;-0.9947;
1049.1000;0.1343;-0.9896;
1049.4000;0.1327;-0.9871;
1049.7000;0.1343;-0.9922;
1050.0000;0.1311;-0.9997;
1050.3000;0.1384;-0.9871;
1050.6000;0.1335;-0.9972;
1050.9000;0.1319;-1.0072;
1051.2000;0.1319;-1.0072;
1051.5000;0.1343;-1.0097;
1051.8000;0.1351;-0.9997;
1052.1000;0.1335;-0.9972;
1052.4000;0.1351;-0.9997;
1052.7000;0.1351;-0.9972;
1053.0000;0.1335;-0.9922;
1053.3000;0.1343;-0.9997;
1053.6000;0.1351;-0.9972;
1053.9000;0.1351;-0.9947;
1054.2000;0.1278;-1.0173;
1054.5000;0.1327;-1.0072;
1054.8000;0.1327;-1.0022;
1055.1000;0.1311;-0.9972;
1055.4000;0.1343;-0.9896;
1055.7000;0.1335;-0.9922;
1056.0000;0.1327;-0.9871;
1056.3000;0.1335;-0.9821;
1056.6000;0.1351;-0.9796;
1056.9000;0.1343;-0.9846;
1057.2000;0.1351;-0.9846;
1057.5000;0.1368;-0.9846;
1057.8000;0.1351;-0.9871;
1058.1000;0.1359;-0.9871;
1058.4000;0.1351;-0.9821;
1058.7000;0.1343;-0.9947;
1059.0000;0.1376;-0.9871;
1059.3000;0.1343;-0.9972;
1059.6000;0.1319;-0.9997;
1059.9000;0.1335;-0.9846;
1060.2000;0.1343;-0.9821;
1060.5000;0.1368;-0.9721;
1060.8000;0.1351;-0.9771;
1061.1000;0.1343;-0.9896;
1061.4000;0.1335;-0.9972;
1061.7000;0.1335;-0.9997;
1062.0000;0.1351;-0.9896;
1062.3000;0.1335;-0.9972;
1062.6000;0.1368;-0.9896;
1062.9000;0.1343;-0.9972;
1063.2000;0.1400;-0.9922;
1063.5000;0.1311;-1.0122;
1063.8000;0.1319;-1.0022;
1064.1000;0.1343;-0.9896;
1064.4000;0.1343;-0.9947;
1064.7000;0.1392;-0.9922;
1065.0000;0.1319;-1.0122;
1065.3000;0.1376;-0.9947;
1065.6000;0.1311;-1.0122;
1065.9000;0.1368;-1.0022;
1066.2000;0.1327;-1.0097;
1066.5000;0.1311;-1.0122;
1066.8000;0.1343;-0.9947;
1067.1000;0.1400;-0.9771;
1067.4000;0.1351;-0.9896;
1067.7000;0.1343;-0.9972;
1068.0000;0.1327;-1.0072;
1068.3000;0.1343;-0.9896;
1068.6000;0.1286;-1.0047;
1068.9000;0.1302;-0.9896;
1069.2000;0.1343;-0.9871;
1069.5000;0.1335;-0.9846;
1069.8000;0.1359;-0.9771;
1070.1000;0.1359;-0.9721;
1070.4000;0.1327;-0.9821;
1070.7000;0.1359;-0.9796;
1071.0000;0.1368;-0.9796;
1071.3000;0.1376;-0.9721;
1071.6000;0.1376;-0.9721;
1071.9000;0.1359;-0.9796;
1072.2000;0.1351;-0.9796;
1072.5000;0.1359;-0.9771;
1072.8000;0.1319;-0.9922;
1073.1000;0.1351;-0.9771;
1073.4000;0.1359;-0.9695;
1073.7000;0.1335;-0.9670;
1074.0000;0.1343;-0.9620;
1074.3000;0.1335;-0.9721;
1074.6000;0.1343;-0.9695;
1074.9000;0.1343;-0.9796;
1075.2000;0.1335;-0.9947;
1075.5000;0.1327;-0.9896;
1075.8000;0.1327;-0.9846;
1076.1000;0.1343;-0.9796;
1076.4000;0.1335;-0.9821;
1076.7000;0.1229;-1.0223;
1077.0000;0.1359;-0.9972;
1077.3000;0.1359;-0.9972;
1077.6000;0.1327;-0.9972;
1077.9000;0.1351;-0.9846;
1078.2000;0.1343;-0.9972;
1078.5000;0.1335;-0.9896;
1078.8000;0.1343;-0.9896;
1079.1000;0.1319;-0.9972;
1079.4000;0.1319;-1.0022;
1079.7000;0.1351;-0.9997;
1080.0000;0.1327;-0.9922;
1080.3000;0.1335;-0.9947;
1080.6000;0.1433;-0.9695;
1080.9000;0.1335;-0.9846;
1081.2000;0.1392;-0.9746;
1081.5000;0.1335;-0.9947;
1081.8000;0.1343;-0.9871;
1082.1000;0.1359;-0.9821;
1082.4000;0.1368;-0.9771;
1082.7000;0.1351;-0.9821;
1083.0000;0.1359;-0.9871;
1083.3000;0.1359;-0.9821;
1083.6000;0.1335;-0.9922;
1083.9000;0.1351;-0.9997;
1084.2000;0.1335;-1.0097;
1084.5000;0.1359;-0.9947;
1084.8000;0.1319;-1.0047;
1085.1000;0.1286;-1.0122;
1085.4000;0.1351;-0.9922;
1085.7000;0.1327;-0.9922;
1086.0000;0.1343;-0.9871;
1086.3000;0.1359;-0.9846;
1086.6000;0.1359;-0.9796;
1086.9000;0.1343;-0.9896;
1087.2000;0.1359;-0.9922;
1087.5000;0.1368;-0.9947;
1087.8000;0.1343;-1.0022;
1088.1000;0.1368;-0.9947;
1088.4000;0.1327;-0.9997;
1088.7000;0.1351;-0.9922;
1089.0000;0.1351;-0.9871;
1089.3000;0.1368;-0.9721;
1089.6000;0.1351;-0.9796;
1089.9000;0.1343;-0.9796;
1090.2000;0.1351;-0.9771;
1090.5000;0.1327;-0.9821;
1090.8000;0.1343;-0.9721;
1091.1000;0.1359;-0.9570;
1091.4000;0.1368;-0.9545;
1091.7000;0.1400;-0.9520;
1092.0000;0.1343;-0.9721;
1092.3000;0.1384;-0.9721;
1092.6000;0.1351;-0.9846;
1092.9000;0.1254;-1.0122;
1093.2000;0.1351;-0.9871;
1093.5000;0.1343;-0.9796;
1093.8000;0.1343;-0.9846;
1094.1000;0.1335;-0.9871;
1094.4000;0.1359;-0.9821;
1094.7000;0.1384;-0.9746;
1095.0000;0.1343;-0.9922;
1095.3000;0.1351;-0.9922;
1095.6000;0.1359;-0.9846;
1095.9000;0.1351;-0.9871;
1096.2000;0.1335;-0.9997;
1096.5000;0.1351;-0.9997;
1096.8000;0.1368;-0.9972;
1097.1000;0.1335;-1.0022;
1097.4000;0.1376;-0.9922;
1097.7000;0.1359;-0.9922;
1098.0000;0.1327;-0.9972;
1098.3000;0.1351;-0.9821;
1098.6000;0.1335;-0.9821;
1098.9000;0.1343;-0.9796;
1099.2000;0.1376;-0.9721;
1099.5000;0.1335;-0.9896;
1099.8000;0.1376;-0.9670;
1100.1000;0.1335;-0.9695;
1100.4000;0.1335;-0.9620;
1100.7000;0.1359;-0.9595;
1101.0000;0.1351;-0.9670;
1101.3000;0.1368;-0.9721;
1101.6000;0.1351;-0.9746;
1101.9000;0.1343;-0.9821;
1102.2000;0.1351;-0.9796;
1102.5000;0.1359;-0.9721;
1102.8000;0.1343;-0.9796;
1103.1000;0.1351;-0.9771;
1103.4000;0.1351;-0.9645;
1103.7000;0.1359;-0.9695;
1104.0000;0.1408;-0.9670;
1104.3000;0.1335;-0.9821;
1104.6000;0.1327;-0.9746;
1104.9000;0.1351;-0.9771;
1105.2000;0.1327;-0.9846;
1105.5000;0.1351;-0.9846;
1105.8000;0.1343;-0.9796;
1106.1000;0.1359;-0.9746;
1106.4000;0.1351;-0.9695;
1106.7000;0.1343;-0.9695;
1107.0000;0.1359;-0.9721;
1107.3000;0.1327;-0.9871;
1107.6000;0.1351;-0.9821;
1107.9000;0.1343;-0.9846;
1108.2000;0.1335;-0.9896;
1108.5000;0.1335;-0.9846;
1108.8000;0.1392;-0.9645;
1109.1000;0.1359;-0.9695;
1109.4000;0.1335;-0.9796;
1109.7000;0.1351;-0.9771;
1110.0000;0.1294;-0.9896;
1110.3000;0.1359;-0.9746;
1110.6000;0.1351;-0.9771;
1110.9000;0.1343;-0.9746;
1111.2000;0.1368;-0.9721;
1111.5000;0.1368;-0.9746;
1111.8000;0.1343;-0.9746;
1112.1000;0.1376;-0.9645;
1112.4000;0.1351;-0.9695;
1112.7000;0.1343;-0.9695;
1113.0000;0.1343;-0.9721;
1113.3000;0.1327;-0.9796;
1113.6000;0.1359;-0.9771;
1113.9000;0.1368;-0.9721;
1114.2000;0.1343;-0.9796;
1114.5000;0.1335;-0.9670;
1114.8000;0.1343;-0.9645;
1115.1000;0.1343;-0.9746;
1115.4000;0.1359;-0.9746;
1115.7000;0.1351;-0.9821;
1116.0000;0.1359;-0.9796;
1116.3000;0.1335;-0.9846;
1116.6000;0.1359;-0.9796;
1116.9000;0.1335;-0.9771;
1117.2000;0.1335;-0.9721;
1117.5000;0.1351;-0.9645;
1117.8000;0.1335;-0.9695;
1118.1000;0.1343;-0.9871;
1118.4000;0.1327;-0.9771;
1118.7000;0.1327;-0.9746;
1119.0000;0.1335;-0.9670;
1119.3000;0.1319;-0.9721;
1119.6000;0.1335;-0.9645;
1119.9000;0.1302;-0.9746;
1120.2000;0.1302;-0.9771;
1120.5000;0.1368;-0.9645;
1120.8000;0.1351;-0.9721;
1121.1000;0.1335;-0.9746;
1121.4000;0.1351;-0.9670;
1121.7000;0.1384;-0.9595;
1122.0000;0.1343;-0.9570;
1122.3000;0.1327;-0.9495;
1122.6000;0.1359;-0.9444;
1122.9000;0.1359;-0.9495;
1123.2000;0.1351;-0.9620;
1123.5000;0.1359;-0.9670;
1123.8000;0.1351;-0.9645;
1124.1000;0.1359;-0.9570;
1124.4000;0.1368;-0.9444;
1124.7000;0.1335;-0.9520;
1125.0000;0.1343;-0.9545;
1125.3000;0.1359;-0.9495;
1125.6000;0.1359;-0.9495;
1125.9000;0.1343;-0.9645;
1126.2000;0.1343;-0.9746;
1126.5000;0.1343;-0.9721;
1126.8000;0.1343;-0.9670;
1127.1000;0.1335;-0.9645;
1127.4000;0.1335;-0.9695;
1127.7000;0.1327;-0.9695;
1128.0000;0.1343;-0.9620;
1128.3000;0.1335;-0.9620;
1128.6000;0.1327;-0.9670;
1128.9000;0.1319;-0.9695;
1129.2000;0.1335;-0.9796;
1129.5000;0.1351;-0.9771;
1129.8000;0.1327;-0.9846;
1130.1000;0.1351;-0.9871;
1130.4000;0.1327;-0.9871;
1130.7000;0.1319;-0.9846;
1131.0000;0.1343;-0.9746;
1131.3000;0.1327;-0.9746;
1131.6000;0.1327;-0.9746;
1131.9000;0.1343;-0.9670;
1132.2000;0.1359;-0.9645;
1132.5000;0.1351;-0.9595;
1132.8000;0.1351;-0.9545;
1133.1000;0.1384;-0.9495;
1133.4000;0.1343;-0.9620;
1133.7000;0.1343;-0.9620;
1134.0000;0.1343;-0.9670;
1134.3000;0.1319;-0.9721;
1134.6000;0.1368;-0.9595;
1134.9000;0.1327;-0.9670;
1135.2000;0.1384;-0.9620;
1135.5000;0.1343;-0.9746;
1135.8000;0.1343;-0.9746;
1136.1000;0.1327;-0.9771;
1136.4000;0.1351;-0.9620;
1136.7000;0.1351;-0.9645;
1137.0000;0.1425;-0.9469;
1137.3000;0.1368;-0.9620;
1137.6000;0.1384;-0.9645;
1137.9000;0.1359;-0.9620;
1138.2000;0.1351;-0.9620;
1138.5000;0.1343;-0.9595;
1138.8000;0.1359;-0.9620;
1139.1000;0.1449;-0.9344;
1139.4000;0.1351;-0.9620;
1139.7000;0.1351;-0.9695;
1140.0000;0.1327;-0.9821;
1140.3000;0.1335;-0.9721;
1140.6000;0.1335;-0.9746;
1140.9000;0.1319;-0.9871;
1141.2000;0.1351;-0.9896;
1141.5000;0.1343;-0.9947;
1141.8000;0.1311;-1.0047;
1142.1000;0.1221;-1.0298;
1142.4000;0.1376;-1.0022;
1142.7000;0.1311;-1.0173;
1143.0000;0.1335;-1.0122;
1143.3000;0.1343;-1.0072;
1143.6000;0.1343;-1.0047;
1143.9000;0.1368;-0.9947;
1144.2000;0.1327;-1.0072;
1144.5000;0.1343;-0.9972;
1144.8000;0.1408;-0.9896;
1145.1000;0.1351;-1.0022;
1145.4000;0.1311;-1.0148;
1145.7000;0.1343;-0.9997;
1146.0000;0.1343;-0.9896;
1146.3000;0.1343;-0.9871;
1146.6000;0.1351;-0.9947;
1146.9000;0.1392;-0.9771;
1147.2000;0.1351;-0.9896;
1147.5000;0.1351;-0.9947;
1147.8000;0.1359;-0.9896;
1148.1000;0.1343;-0.9972;
1148.4000;0.1343;-0.9821;
1148.7000;0.1359;-0.9746;
1149.0000;0.1327;-0.9821;
1149.3000;0.1351;-0.9821;
1149.6000;0.1343;-0.9922;
1149.9000;0.1343;-0.9947;
1150.2000;0.1327;-1.0022;
1150.5000;0.1335;-1.0072;
1150.8000;0.1327;-1.0022;
1151.1000;0.1327;-0.9947;
1151.4000;0.1335;-0.9922;
1151.7000;0.1368;-0.9746;
1152.0000;0.1335;-0.9846;
1152.3000;0.1335;-0.9922;
1152.6000;0.1245;-1.0097;
1152.9000;0.1351;-0.9922;
1153.2000;0.1270;-1.0097;
1153.5000;0.1335;-0.9947;
1153.8000;0.1319;-0.9871;
1154.1000;0.1319;-0.9922;
1154.4000;0.1319;-0.9846;
1154.7000;0.1319;-0.9821;
1155.0000;0.1319;-0.9796;
1155.3000;0.1327;-0.9695;
1155.6000;0.1319;-0.9721;
1155.9000;0.1343;-0.9595;
1156.2000;0.1335;-0.9645;
1156.5000;0.1327;-0.9695;
1156.8000;0.1351;-0.9670;
1157.1000;0.1359;-0.9620;
1157.4000;0.1351;-0.9695;
1157.7000;0.1359;-0.9721;
1158.0000;0.1376;-0.9721;
1158.3000;0.1351;-0.9821;
1158.6000;0.1327;-0.9922;
1158.9000;0.1359;-0.9771;
1159.2000;0.1294;-0.9896;
1159.5000;0.1286;-0.9972;
1159.8000;0.1327;-0.9922;
1160.1000;0.1286;-1.0097;
1160.4000;0.1343;-0.9947;
1160.7000;0.1351;-0.9871;
1161.0000;0.1302;-0.9896;
1161.3000;0.1368;-0.9695;
1161.6000;0.1335;-0.9796;
1161.9000;0.1319;-0.9922;
1162.2000;0.1319;-1.0022;
1162.5000;0.1278;-1.0022;
1162.8000;0.1311;-0.9846;
1163.1000;0.1441;-0.9545;
1163.4000;0.1294;-0.9972;
1163.7000;0.1408;-0.9620;
1164.0000;0.1392;-0.9670;
1164.3000;0.1343;-0.9796;
1164.6000;0.1311;-0.9972;
1164.9000;0.1335;-0.9997;
1165.2000;0.1327;-1.0122;
1165.5000;0.1302;-1.0122;
1165.8000;0.1327;-1.0047;
1166.1000;0.1319;-1.0097;
1166.4000;0.1327;-1.0072;
1166.7000;0.1302;-1.0072;
1167.0000;0.1327;-1.0097;
1167.3000;0.1335;-1.0072;
1167.6000;0.1359;-1.0072;
1167.9000;0.1335;-1.0047;
1168.2000;0.1441;-0.9670;
1168.5000;0.1343;-0.9896;
1168.8000;0.1319;-0.9896;
1169.1000;0.1335;-0.9871;
1169.4000;0.1335;-0.9871;
1169.7000;0.1311;-0.9871;
1170.0000;0.1319;-0.9771;
1170.3000;0.1327;-0.9796;
1170.6000;0.1286;-0.9972;
1170.9000;0.1343;-0.9871;
1171.2000;0.1359;-0.9695;
1171.5000;0.1327;-0.9721;
1171.8000;0.1351;-0.9670;
1172.1000;0.1335;-0.9771;
1172.4000;0.1327;-0.9746;
1172.7000;0.1368;-0.9645;
1173.0000;0.1335;-0.9695;
1173.3000;0.1343;-0.9620;
1173.6000;0.1286;-0.9721;
1173.9000;0.1351;-0.9645;
1174.2000;0.1343;-0.9670;
1174.5000;0.1327;-0.9721;
1174.8000;0.1278;-0.9821;
1175.1000;0.1392;-0.9645;
1175.4000;0.1335;-0.9821;
1175.7000;0.1343;-0.9871;
1176.0000;0.1392;-0.9796;
1176.3000;0.1351;-0.9896;
1176.6000;0.1351;-0.9821;
1176.9000;0.1327;-0.9796;
1177.2000;0.1327;-0.9846;
1177.5000;0.1343;-0.9896;
1177.8000;0.1335;-0.9871;
1178.1000;0.1359;-0.9821;
1178.4000;0.1368;-0.9695;
1178.7000;0.1311;-0.9771;
1179.0000;0.1335;-0.9746;
1179.3000;0.1343;-0.9670;
1179.6000;0.1335;-0.9721;
1179.9000;0.1335;-0.9746;
1180.2000;0.1351;-0.9746;
1180.5000;0.1302;-0.9947;
1180.8000;0.1359;-0.9846;
1181.1000;0.1384;-0.9721;
1181.4000;0.1351;-0.9796;
1181.7000;0.1294;-0.9947;
1182.0000;0.1351;-0.9821;
1182.3000;0.1311;-0.9972;
1182.6000;0.1351;-0.9846;
1182.9000;0.1343;-0.9871;
1183.2000;0.1351;-0.9972;
1183.5000;0.1327;-1.0047;
1183.8000;0.1351;-0.9947;
1184.1000;0.1400;-0.9846;
1184.4000;0.1343;-1.0022;
1184.7000;0.1351;-1.0072;
1185.0000;0.1359;-1.0072;
1185.3000;0.1384;-0.9997;
1185.6000;0.1335;-1.0072;
1185.9000;0.1335;-1.0122;
1186.2000;0.1351;-1.0022;
1186.5000;0.1368;-1.0047;
1186.8000;0.1343;-0.9997;
1187.1000;0.1327;-0.9997;
1187.4000;0.1400;-0.9821;
1187.7000;0.1376;-0.9846;
1188.0000;0.1343;-0.9947;
1188.3000;0.1359;-0.9922;
1188.6000;0.1343;-0.9997;
1188.9000;0.1368;-0.9997;
1189.2000;0.1343;-0.9997;
1189.5000;0.1400;-0.9846;
1189.8000;0.1351;-0.9947;
1190.1000;0.1351;-0.9972;
1190.4000;0.1311;-1.0047;
1190.7000;0.1343;-0.9972;
1191.0000;0.1319;-1.0022;
1191.3000;0.1294;-1.0122;
1191.6000;0.1343;-1.0022;
1191.9000;0.1359;-1.0022;
1192.2000;0.1359;-1.0022;
1192.5000;0.1376;-0.9922;
1192.8000;0.1351;-0.9972;
1193.1000;0.1376;-0.9896;
1193.4000;0.1335;-0.9997;
1193.7000;0.1368;-0.9896;
1194.0000;0.1343;-0.9871;
1194.3000;0.1245;-1.0122;
1194.6000;0.1351;-0.9871;
1194.9000;0.1327;-0.9947;
1195.2000;0.1327;-0.9997;
1195.5000;0.1359;-0.9896;
1195.8000;0.1359;-0.9972;
1196.1000;0.1335;-0.9972;
1196.4000;0.1335;-0.9997;
1196.7000;0.1311;-1.0072;
1197.0000;0.1359;-0.9947;
1197.3000;0.1359;-0.9846;
1197.6000;0.1311;-1.0047;
1197.9000;0.1319;-1.0047;
1198.2000;0.1327;-1.0022;
1198.5000;0.1327;-0.9997;
1198.8000;0.1335;-0.9871;
1199.1000;0.1376;-0.9796;
1199.4000;0.1351;-0.9922;
1199.7000;0.1335;-1.0047;
1200.0000;0.1221;-1.0273;
1200.3000;0.1335;-0.9972;
1200.6000;0.1335;-0.9997;
1200.9000;0.1262;-1.0173;
1201.2000;0.1343;-1.0022;
1201.5000;0.1335;-1.0022;
1201.8000;0.1335;-0.9947;
1202.1000;0.1327;-0.9896;
1202.4000;0.1327;-0.9896;
1202.7000;0.1327;-0.9947;
1203.0000;0.1343;-0.9871;
1203.3000;0.1343;-0.9821;
1203.6000;0.1343;-0.9846;
1203.9000;0.1343;-0.9922;
1204.2000;0.1359;-0.9947;
1204.5000;0.1351;-0.9922;
1204.8000;0.1343;-0.9972;
1205.1000;0.1359;-0.9972;
1205.4000;0.1343;-0.9972;
1205.7000;0.1368;-0.9846;
1206.0000;0.1335;-1.0047;
1206.3000;0.1343;-1.0122;
1206.6000;0.1343;-1.0072;
1206.9000;0.1351;-1.0047;
1207.2000;0.1335;-1.0022;
1207.5000;0.1351;-0.9947;
1207.8000;0.1335;-1.0022;
1208.1000;0.1286;-1.0148;
1208.4000;0.1359;-0.9972;
1208.7000;0.1327;-0.9972;
1209.0000;0.1319;-0.9972;
1209.3000;0.1359;-0.9846;
1209.6000;0.1343;-0.9947;
1209.9000;0.1335;-1.0097;
1210.2000;0.1327;-1.0047;
1210.5000;0.1376;-0.9821;
1210.8000;0.1351;-0.9846;
1211.1000;0.1343;-0.9871;
1211.4000;0.1286;-1.0072;
1211.7000;0.1327;-0.9972;
1212.0000;0.1335;-0.9997;
1212.3000;0.1335;-0.9972;
1212.6000;0.1343;-0.9947;
1212.9000;0.1351;-0.9896;
1213.2000;0.1368;-0.9871;
1213.5000;0.1343;-0.9846;
1213.8000;0.1335;-0.9796;
1214.1000;0.1351;-0.9746;
1214.4000;0.1343;-0.9821;
1214.7000;0.1335;-0.9771;
1215.0000;0.1343;-0.9746;
1215.3000;0.1319;-0.9771;
1215.6000;0.1335;-0.9670;
1215.9000;0.1335;-0.9670;
1216.2000;0.1327;-0.9771;
1216.5000;0.1351;-0.9721;
1216.8000;0.1408;-0.9595;
1217.1000;0.1351;-0.9821;
1217.4000;0.1327;-0.9947;
1217.7000;0.1351;-0.9922;
1218.0000;0.1359;-0.9821;
1218.3000;0.1359;-0.9746;
1218.6000;0.1343;-0.9721;
1218.9000;0.1359;-0.9670;
1219.2000;0.1351;-0.9645;
1219.5000;0.1343;-0.9695;
1219.8000;0.1327;-0.9670;
1220.1000;0.1343;-0.9620;
1220.4000;0.1343;-0.9771;
1220.7000;0.1359;-0.9746;
1221.0000;0.1319;-0.9796;
1221.3000;0.1335;-0.9771;
1221.6000;0.1335;-0.9746;
1221.9000;0.1343;-0.9670;
1222.2000;0.1359;-0.9695;
1222.5000;0.1376;-0.9595;
1222.8000;0.1351;-0.9620;
1223.1000;0.1351;-0.9620;
1223.4000;0.1376;-0.9570;
1223.7000;0.1343;-0.9746;
1224.0000;0.1270;-0.9947;
1224.3000;0.1343;-0.9821;
1224.6000;0.1351;-0.9796;
1224.9000;0.1343;-0.9796;
1225.2000;0.1335;-0.9821;
1225.5000;0.1359;-0.9771;
1225.8000;0.1343;-0.9695;
1226.1000;0.1351;-0.9721;
1226.4000;0.1335;-0.9771;
1226.7000;0.1343;-0.9796;
1227.0000;0.1351;-0.9796;
1227.3000;0.1376;-0.9896;
1227.6000;0.1343;-0.9947;
1227.9000;0.1351;-0.9896;
1228.2000;0.1327;-0.9821;
1228.5000;0.1359;-0.9670;
1228.8000;0.1335;-0.9796;
1229.1000;0.1351;-0.9771;
1229.4000;0.1351;-0.9796;
1229.7000;0.1376;-0.9821;
1230.0000;0.1359;-0.9846;
1230.3000;0.1351;-0.9922;
1230.6000;0.1351;-0.9922;
1230.9000;0.1343;-0.9871;
1231.2000;0.1359;-0.9846;
1231.5000;0.1351;-0.9771;
1231.8000;0.1351;-0.9695;
1232.1000;0.1278;-0.9846;
1232.4000;0.1335;-0.9695;
1232.7000;0.1359;-0.9721;
1233.0000;0.1351;-0.9746;
1233.3000;0.1359;-0.9721;
1233.6000;0.1262;-0.9871;
1233.9000;0.1351;-0.9645;
1234.2000;0.1327;-0.9721;
1234.5000;0.1359;-0.9721;
1234.8000;0.1351;-0.9771;
1235.1000;0.1351;-0.9896;
1235.4000;0.1335;-0.9972;
1235.7000;0.1327;-0.9972;
1236.0000;0.1351;-0.9947;
1236.3000;0.1335;-1.0097;
1236.6000;0.1335;-1.0047;
1236.9000;0.1351;-1.0047;
1237.2000;0.1319;-1.0047;
1237.5000;0.1368;-0.9871;
1237.8000;0.1343;-0.9821;
1238.1000;0.1335;-0.9846;
1238.4000;0.1327;-0.9846;
1238.7000;0.1359;-0.9821;
1239.0000;0.1351;-0.9821;
1239.3000;0.1400;-0.9670;
1239.6000;0.1327;-0.9871;
1239.9000;0.1327;-0.9947;
1240.2000;0.1359;-0.9871;
1240.5000;0.1343;-0.9846;
1240.8000;0.1351;-0.9846;
1241.1000;0.1351;-0.9871;
1241.4000;0.1359;-0.9922;
1241.7000;0.1351;-0.9972;
1242.0000;0.1335;-1.0022;
1242.3000;0.1376;-0.9821;
1242.6000;0.1351;-0.9821;
1242.9000;0.1359;-0.9670;
1243.2000;0.1343;-0.9721;
1243.5000;0.1351;-0.9670;
1243.8000;0.1368;-0.9695;
1244.1000;0.1351;-0.9746;
1244.4000;0.1343;-0.9796;
1244.7000;0.1335;-0.9821;
1245.0000;0.1351;-0.9846;
1245.3000;0.1343;-0.9922;
1245.6000;0.1335;-0.9896;
1245.9000;0.1368;-0.9871;
1246.2000;0.1335;-0.9972;
1246.5000;0.1343;-1.0072;
1246.8000;0.1351;-1.0047;
1247.1000;0.1327;-1.0072;
1247.4000;0.1351;-1.0022;
1247.7000;0.1343;-1.0047;
1248.0000;0.1343;-1.0047;
1248.3000;0.1343;-1.0072;
1248.6000;0.1343;-1.0097;
1248.9000;0.1351;-1.0072;
1249.2000;0.1351;-1.0148;
1249.5000;0.1359;-1.0097;
1249.8000;0.1335;-1.0223;
1250.1000;0.1359;-1.0173;
1250.4000;0.1359;-1.0148;
1250.7000;0.1343;-1.0173;
1251.0000;0.1343;-1.0173;
1251.3000;0.1335;-1.0047;
1251.6000;0.1327;-1.0173;
1251.9000;0.1319;-1.0173;
1252.2000;0.1327;-1.0148;
1252.5000;0.1376;-1.0022;
1252.8000;0.1343;-1.0072;
1253.1000;0.1278;-1.0223;
1253.4000;0.1359;-0.9972;
1253.7000;0.1392;-0.9846;
1254.0000;0.1359;-0.9922;
1254.3000;0.1359;-1.0022;
1254.6000;0.1262;-1.0223;
1254.9000;0.1245;-1.0248;
1255.2000;0.1335;-1.0047;
1255.5000;0.1400;-0.9796;
1255.8000;0.1311;-1.0047;
1256.1000;0.1254;-1.0223;
1256.4000;0.1286;-1.0072;
1256.7000;0.1335;-0.9896;
1257.0000;0.1343;-0.9796;
1257.3000;0.1343;-0.9796;
1257.6000;0.1351;-0.9746;
1257.9000;0.1278;-0.9871;
1258.2000;0.1359;-0.9695;
1258.5000;0.1335;-0.9821;
1258.8000;0.1343;-0.9796;
1259.1000;0.1327;-0.9771;
1259.4000;0.1368;-0.9670;
1259.7000;0.1359;-0.9695;
1260.0000;0.1335;-0.9746;
1260.3000;0.1408;-0.9620;
1260.6000;0.1408;-0.9670;
1260.9000;0.1359;-0.9871;
1261.2000;0.1343;-0.9972;
1261.5000;0.1343;-0.9922;
1261.8000;0.1335;-0.9922;
1262.1000;0.1335;-0.9896;
1262.4000;0.1343;-0.9972;
1262.7000;0.1351;-0.9947;
1263.0000;0.1351;-0.9896;
1263.3000;0.1343;-0.9922;
1263.6000;0.1351;-0.9821;
1263.9000;0.1335;-0.9846;
1264.2000;0.1343;-0.9972;
1264.5000;0.1359;-0.9947;
1264.8000;0.1343;-0.9871;
1265.1000;0.1319;-0.9972;
1265.4000;0.1343;-0.9821;
1265.7000;0.1335;-0.9896;
1266.0000;0.1335;-1.0072;
1266.3000;0.1351;-0.9947;
1266.6000;0.1286;-1.0173;
1266.9000;0.1335;-0.9947;
1267.2000;0.1343;-0.9846;
1267.5000;0.1368;-0.9746;
1267.8000;0.1335;-0.9796;
1268.1000;0.1311;-0.9972;
1268.4000;0.1327;-0.9896;
1268.7000;0.1343;-0.9947;
1269.0000;0.1311;-1.0022;
1269.3000;0.1343;-0.9972;
1269.6000;0.1351;-1.0022;
1269.9000;0.1327;-1.0097;
1270.2000;0.1343;-0.9972;
1270.5000;0.1343;-0.9922;
1270.8000;0.1343;-0.9846;
1271.1000;0.1270;-1.0097;
1271.4000;0.1319;-0.9972;
1271.7000;0.1319;-0.9922;
1272.0000;0.1270;-1.0097;
1272.3000;0.1351;-0.9947;
1272.6000;0.1359;-0.9871;
1272.9000;0.1343;-0.9871;
1273.2000;0.1351;-0.9796;
1273.5000;0.1351;-0.9695;
1273.8000;0.1302;-0.9796;
1274.1000;0.1327;-0.9796;
1274.4000;0.1343;-0.9846;
1274.7000;0.1351;-0.9871;
1275.0000;0.1311;-0.9972;
1275.3000;0.1311;-0.9997;
1275.6000;0.1343;-0.9896;
1275.9000;0.1335;-0.9871;
1276.2000;0.1319;-0.9821;
1276.5000;0.1359;-0.9670;
1276.8000;0.1343;-0.9695;
1277.1000;0.1416;-0.9570;
1277.4000;0.1359;-0.9796;
1277.7000;0.1359;-0.9796;
1278.0000;0.1335;-0.9771;
1278.3000;0.1311;-0.9821;
1278.6000;0.1335;-0.9771;
1278.9000;0.1319;-0.9821;
1279.2000;0.1335;-0.9796;
1279.5000;0.1351;-0.9796;
1279.8000;0.1392;-0.9620;
1280.1000;0.1408;-0.9645;
1280.4000;0.1319;-0.9846;
1280.7000;0.1254;-1.0022;
1281.0000;0.1343;-0.9796;
1281.3000;0.1376;-0.9771;
1281.6000;0.1335;-0.9947;
1281.9000;0.1343;-0.9871;
1282.2000;0.1327;-0.9821;
1282.5000;0.1294;-0.9947;
1282.8000;0.1335;-0.9746;
1283.1000;0.1343;-0.9695;
1283.4000;0.1335;-0.9645;
1283.7000;0.1400;-0.9444;
1284.0000;0.1319;-0.9645;
1284.3000;0.1368;-0.9570;
1284.6000;0.1359;-0.9595;
1284.9000;0.1351;-0.9595;
1285.2000;0.1343;-0.9570;
1285.5000;0.1327;-0.9595;
1285.8000;0.1294;-0.9746;
1286.1000;0.1351;-0.9721;
1286.4000;0.1343;-0.9771;
1286.7000;0.1343;-0.9796;
1287.0000;0.1343;-0.9695;
1287.3000;0.1392;-0.9545;
1287.6000;0.1319;-0.9721;
1287.9000;0.1327;-0.9670;
1288.2000;0.1433;-0.9419;
1288.5000;0.1351;-0.9695;
1288.8000;0.1408;-0.9595;
1289.1000;0.1311;-0.9896;
1289.4000;0.1343;-0.9796;
1289.7000;0.1351;-0.9746;
1290.0000;0.1343;-0.9746;
1290.3000;0.1351;-0.9721;
1290.6000;0.1351;-0.9721;
1290.9000;0.1359;-0.9620;
1291.2000;0.1343;-0.9695;
1291.5000;0.1335;-0.9771;
1291.8000;0.1368;-0.9721;
1292.1000;0.1351;-0.9896;
1292.4000;0.1359;-0.9947;
1292.7000;0.1343;-1.0047;
1293.0000;0.1376;-0.9997;
1293.3000;0.1351;-1.0022;
1293.6000;0.1416;-0.9796;
1293.9000;0.1384;-0.9896;
1294.2000;0.1351;-0.9896;
1294.5000;0.1359;-0.9871;
1294.8000;0.1343;-0.9922;
1295.1000;0.1343;-1.0022;
1295.4000;0.1359;-1.0022;
1295.7000;0.1343;-0.9972;
1296.0000;0.1359;-0.9896;
1296.3000;0.1343;-0.9972;
1296.6000;0.1343;-0.9896;
1296.9000;0.1319;-0.9922;
1297.2000;0.1343;-1.0022;
1297.5000;0.1359;-1.0097;
1297.8000;0.1335;-1.0148;
1298.1000;0.1327;-1.0148;
1298.4000;0.1351;-1.0148;
1298.7000;0.1327;-1.0173;
1299.0000;0.1335;-1.0148;
1299.3000;0.1343;-1.0122;
1299.6000;0.1359;-1.0097;
1299.9000;0.1384;-1.0047;
1300.2000;0.1262;-1.0323;
1300.5000;0.1343;-1.0173;
1300.8000;0.1343;-1.0173;
1301.1000;0.1319;-1.0248;
1301.4000;0.1327;-1.0223;
1301.7000;0.1359;-1.0148;
1302.0000;0.1351;-1.0198;
1302.3000;0.1302;-1.0349;
1302.6000;0.1384;-1.0097;
1302.9000;0.1319;-1.0223;
1303.2000;0.1335;-1.0148;
1303.5000;0.1245;-1.0273;
1303.8000;0.1343;-0.9896;
1304.1000;0.1351;-0.9871;
1304.4000;0.1294;-0.9972;
1304.7000;0.1359;-0.9746;
1305.0000;0.1359;-0.9796;
1305.3000;0.1343;-0.9896;
1305.6000;0.1335;-0.9922;
1305.9000;0.1335;-0.9871;
1306.2000;0.1327;-0.9947;
1306.5000;0.1302;-1.0072;
1306.8000;0.1335;-0.9922;
1307.1000;0.1343;-0.9846;
1307.4000;0.1335;-0.9922;
1307.7000;0.1384;-0.9821;
1308.0000;0.1351;-0.9896;
1308.3000;0.1359;-0.9922;
1308.6000;0.1335;-1.0022;
1308.9000;0.1343;-1.0097;
1309.2000;0.1302;-1.0248;
1309.5000;0.1319;-1.0022;
1309.8000;0.1319;-0.9947;
1310.1000;0.1343;-0.9922;
1310.4000;0.1392;-0.9771;
1310.7000;0.1433;-0.9695;
1311.0000;0.1343;-0.9972;
1311.3000;0.1343;-0.9997;
1311.6000;0.1311;-1.0072;
1311.9000;0.1319;-1.0072;
1312.2000;0.1319;-1.0047;
1312.5000;0.1351;-0.9997;
1312.8000;0.1311;-1.0173;
1313.1000;0.1359;-0.9922;
1313.4000;0.1319;-0.9871;
1313.7000;0.1311;-0.9871;
1314.0000;0.1343;-0.9922;
1314.3000;0.1335;-1.0022;
1314.6000;0.1376;-0.9972;
1314.9000;0.1278;-1.0223;
1315.2000;0.1351;-1.0047;
1315.5000;0.1376;-0.9972;
1315.8000;0.1327;-1.0122;
1316.1000;0.1351;-1.0072;
1316.4000;0.1327;-1.0298;
1316.7000;0.1311;-1.0374;
1317.0000;0.1319;-1.0374;
1317.3000;0.1335;-1.0223;
1317.6000;0.1294;-1.0248;
1317.9000;0.1335;-1.0148;
1318.2000;0.1343;-1.0148;
1318.5000;0.1359;-1.0047;
1318.8000;0.1319;-1.0122;
1319.1000;0.1311;-1.0148;
1319.4000;0.1343;-1.0072;
1319.7000;0.1343;-1.0148;
1320.0000;0.1351;-1.0148;
1320.3000;0.1343;-1.0097;
1320.6000;0.1351;-1.0072;
1320.9000;0.1343;-1.0122;
1321.2000;0.1351;-1.0122;
1321.5000;0.1343;-1.0047;
1321.8000;0.1351;-0.9997;
1322.1000;0.1343;-0.9947;
1322.4000;0.1351;-0.9846;
1322.7000;0.1351;-0.9796;
1323.0000;0.1335;-0.9721;
1323.3000;0.1343;-0.9746;
1323.6000;0.1343;-0.9796;
1323.9000;0.1351;-0.9695;
1324.2000;0.1368;-0.9721;
1324.5000;0.1286;-0.9972;
1324.8000;0.1376;-0.9771;
1325.1000;0.1343;-0.9871;
1325.4000;0.1327;-0.9896;
1325.7000;0.1311;-0.9922;
1326.0000;0.1343;-0.9821;
1326.3000;0.1384;-0.9846;
1326.6000;0.1351;-0.9871;
1326.9000;0.1351;-0.9796;
1327.2000;0.1286;-0.9896;
1327.5000;0.1359;-0.9796;
1327.8000;0.1343;-0.9796;
1328.1000;0.1351;-0.9771;
1328.4000;0.1343;-0.9796;
1328.7000;0.1335;-0.9796;
1329.0000;0.1359;-0.9796;
1329.3000;0.1384;-0.9771;
1329.6000;0.1343;-0.9746;
1329.9000;0.1327;-0.9871;
1330.2000;0.1343;-0.9896;
1330.5000;0.1311;-0.9922;
1330.8000;0.1359;-0.9771;
1331.1000;0.1343;-0.9871;
1331.4000;0.1319;-0.9846;
1331.7000;0.1343;-0.9846;
1332.0000;0.1343;-0.9746;
1332.3000;0.1351;-0.9746;
1332.6000;0.1359;-0.9771;
1332.9000;0.1408;-0.9746;
1333.2000;0.1449;-0.9545;
1333.5000;0.1319;-0.9821;
1333.8000;0.1359;-0.9746;
1334.1000;0.1359;-0.9796;
1334.4000;0.1327;-0.9871;
1334.7000;0.1343;-0.9846;
1335.0000;0.1327;-0.9896;
1335.3000;0.1343;-0.9821;
1335.6000;0.1319;-0.9846;
1335.9000;0.1351;-0.9846;
1336.2000;0.1343;-0.9922;
1336.5000;0.1368;-0.9871;
1336.8000;0.1335;-0.9871;
1337.1000;0.1351;-0.9922;
1337.4000;0.1351;-0.9947;
1337.7000;0.1335;-0.9947;
1338.0000;0.1343;-0.9972;
1338.3000;0.1327;-1.0022;
1338.6000;0.1302;-1.0047;
1338.9000;0.1343;-0.9922;
1339.2000;0.1343;-0.9947;
1339.5000;0.1343;-0.9871;
1339.8000;0.1351;-0.9972;
1340.1000;0.1343;-0.9997;
1340.4000;0.1351;-0.9997;
1340.7000;0.1311;-1.0047;
1341.0000;0.1359;-0.9947;
1341.3000;0.1359;-0.9997;
1341.6000;0.1368;-0.9947;
1341.9000;0.1384;-0.9947;
1342.2000;0.1327;-1.0072;
1342.5000;0.1335;-1.0022;
1342.8000;0.1343;-0.9997;
1343.1000;0.1359;-0.9922;
1343.4000;0.1335;-0.9972;
1343.7000;0.1343;-0.9947;
1344.0000;0.1335;-0.9947;
1344.3000;0.1376;-0.9796;
1344.6000;0.1351;-0.9896;
1344.9000;0.1351;-0.9896;
1345.2000;0.1311;-1.0022;
1345.5000;0.1327;-0.9997;
1345.8000;0.1343;-0.9972;
1346.1000;0.1327;-1.0047;
1346.4000;0.1335;-0.9997;
1346.7000;0.1335;-1.0022;
1347.0000;0.1351;-0.9972;
1347.3000;0.1400;-0.9771;
1347.6000;0.1335;-0.9922;
1347.9000;0.1335;-0.9972;
1348.2000;0.1392;-0.9746;
1348.5000;0.1384;-0.9796;
1348.8000;0.1327;-0.9922;
1349.1000;0.1343;-0.9796;
1349.4000;0.1343;-0.9871;
1349.7000;0.1343;-0.9821;
1350.0000;0.1343;-0.9896;
1350.3000;0.1294;-1.0097;
1350.6000;0.1343;-1.0022;
1350.9000;0.1351;-0.9997;
1351.2000;0.1319;-1.0072;
1351.5000;0.1335;-1.0047;
1351.8000;0.1351;-0.9997;
1352.1000;0.1351;-0.9871;
1352.4000;0.1351;-0.9922;
1352.7000;0.1335;-0.9922;
1353.0000;0.1343;-0.9896;
1353.3000;0.1416;-0.9620;
1353.6000;0.1359;-0.9771;
1353.9000;0.1343;-0.9771;
1354.2000;0.1327;-0.9670;
1354.5000;0.1351;-0.9645;
1354.8000;0.1343;-0.9645;
1355.1000;0.1359;-0.9746;
1355.4000;0.1359;-0.9746;
1355.7000;0.1335;-0.9746;
1356.0000;0.1351;-0.9771;
1356.3000;0.1335;-0.9846;
1356.6000;0.1327;-0.9922;
1356.9000;0.1351;-0.9821;
1357.2000;0.1311;-0.9846;
1357.5000;0.1351;-0.9821;
1357.8000;0.1343;-0.9871;
1358.1000;0.1359;-0.9922;
1358.4000;0.1343;-0.9997;
1358.7000;0.1351;-0.9972;
1359.0000;0.1368;-0.9922;
1359.3000;0.1343;-1.0022;
1359.6000;0.1368;-0.9947;
1359.9000;0.1254;-1.0097;
1360.2000;0.1327;-0.9821;
1360.5000;0.1351;-0.9821;
1360.8000;0.1302;-0.9972;
1361.1000;0.1343;-0.9947;
1361.4000;0.1343;-1.0022;
1361.7000;0.1343;-0.9972;
1362.0000;0.1359;-0.9796;
1362.3000;0.1343;-0.9821;
1362.6000;0.1351;-0.9796;
1362.9000;0.1335;-0.9896;
1363.2000;0.1351;-0.9871;
1363.5000;0.1343;-0.9922;
1363.8000;0.1294;-0.9997;
1364.1000;0.1351;-0.9871;
1364.4000;0.1359;-0.9846;
1364.7000;0.1351;-0.9821;
1365.0000;0.1351;-0.9771;
1365.3000;0.1351;-0.9821;
1365.6000;0.1343;-0.9896;
1365.9000;0.1343;-0.9972;
1366.2000;0.1327;-0.9997;
1366.5000;0.1343;-0.9947;
1366.8000;0.1343;-0.9871;
1367.1000;0.1335;-0.9896;
1367.4000;0.1368;-0.9846;
1367.7000;0.1335;-0.9871;
1368.0000;0.1368;-0.9796;
1368.3000;0.1376;-0.9746;
1368.6000;0.1368;-0.9846;
1368.9000;0.1351;-0.9896;
1369.2000;0.1351;-0.9796;
1369.5000;0.1368;-0.9746;
1369.8000;0.1359;-0.9771;
1370.1000;0.1384;-0.9721;
1370.4000;0.1343;-0.9846;
1370.7000;0.1351;-0.9821;
1371.0000;0.1359;-0.9846;
1371.3000;0.1327;-0.9997;
1371.6000;0.1327;-1.0022;
1371.9000;0.1351;-0.9922;
1372.2000;0.1294;-0.9972;
1372.5000;0.1416;-0.9620;
1372.8000;0.1359;-0.9771;
1373.1000;0.1408;-0.9695;
1373.4000;0.1359;-0.9821;
1373.7000;0.1335;-0.9871;
1374.0000;0.1351;-0.9821;
1374.3000;0.1319;-0.9871;
1374.6000;0.1327;-0.9846;
1374.9000;0.1311;-0.9922;
1375.2000;0.1343;-0.9896;
1375.5000;0.1327;-0.9922;
1375.8000;0.1327;-0.9821;
1376.1000;0.1343;-0.9721;
1376.4000;0.1343;-0.9771;
1376.7000;0.1359;-0.9796;
1377.0000;0.1351;-0.9746;
1377.3000;0.1392;-0.9595;
1377.6000;0.1294;-0.9846;
1377.9000;0.1351;-0.9721;
1378.2000;0.1343;-0.9796;
1378.5000;0.1343;-0.9796;
1378.8000;0.1311;-0.9972;
1379.1000;0.1327;-0.9871;
1379.4000;0.1351;-0.9796;
1379.7000;0.1351;-0.9746;
1380.0000;0.1327;-0.9695;
1380.3000;0.1351;-0.9620;
1380.6000;0.1343;-0.9620;
1380.9000;0.1343;-0.9595;
1381.2000;0.1368;-0.9545;
1381.5000;0.1327;-0.9695;
1381.8000;0.1335;-0.9821;
1382.1000;0.1343;-0.9896;
1382.4000;0.1343;-0.9947;
1382.7000;0.1335;-0.9922;
1383.0000;0.1359;-0.9821;
1383.3000;0.1368;-0.9846;
1383.6000;0.1359;-0.9746;
1383.9000;0.1351;-0.9821;
1384.2000;0.1319;-0.9871;
1384.5000;0.1343;-0.9796;
1384.8000;0.1351;-0.9821;
1385.1000;0.1441;-0.9695;
1385.4000;0.1351;-0.9947;
1385.7000;0.1327;-0.9871;
1386.0000;0.1335;-0.9947;
1386.3000;0.1351;-0.9846;
1386.6000;0.1343;-0.9922;
1386.9000;0.1327;-0.9997;
1387.2000;0.1351;-1.0022;
1387.5000;0.1343;-0.9947;
1387.8000;0.1343;-0.9846;
1388.1000;0.1351;-0.9871;
1388.4000;0.1343;-0.9947;
1388.7000;0.1351;-0.9947;
1389.0000;0.1351;-0.9972;
1389.3000;0.1327;-1.0097;
1389.6000;0.1351;-1.0022;
1389.9000;0.1351;-0.9947;
1390.2000;0.1368;-0.9947;
1390.5000;0.1335;-0.9972;
1390.8000;0.1327;-0.9871;
1391.1000;0.1343;-0.9821;
1391.4000;0.1359;-0.9670;
1391.7000;0.1359;-0.9620;
1392.0000;0.1335;-0.9746;
1392.3000;0.1368;-0.9721;
1392.6000;0.1359;-0.9771;
1392.9000;0.1351;-0.9746;
1393.2000;0.1351;-0.9796;
1393.5000;0.1335;-0.9821;
1393.8000;0.1351;-0.9821;
1394.1000;0.1343;-0.9821;
1394.4000;0.1359;-0.9846;
1394.7000;0.1359;-0.9796;
1395.0000;0.1359;-0.9721;
1395.3000;0.1368;-0.9721;
1395.6000;0.1359;-0.9721;
1395.9000;0.1319;-0.9871;
1396.2000;0.1343;-0.9796;
1396.5000;0.1359;-0.9821;
1396.8000;0.1335;-0.9871;
1397.1000;0.1327;-0.9922;
1397.4000;0.1359;-0.9846;
1397.7000;0.1359;-0.9846;
1398.0000;0.1343;-0.9871;
1398.3000;0.1351;-0.9821;
1398.6000;0.1351;-0.9771;
1398.9000;0.1376;-0.9721;
1399.2000;0.1359;-0.9695;
1399.5000;0.1343;-0.9670;
1399.8000;0.1351;-0.9721;
