time/ms;Fluo/V;P700 deltaI/I x10³;
-199.8000;0.1351;-0.9620;
-199.5000;0.1335;-0.9645;
-199.2000;0.1319;-0.9796;
-198.9000;0.1359;-0.9721;
-198.6000;0.1376;-0.9670;
-198.3000;0.1376;-0.9645;
-198.0000;0.1359;-0.9620;
-197.7000;0.1343;-0.9495;
-197.4000;0.1392;-0.9419;
-197.1000;0.1368;-0.9570;
-196.8000;0.1368;-0.9570;
-196.5000;0.1351;-0.9721;
-196.2000;0.1335;-0.9771;
-195.9000;0.1368;-0.9771;
-195.6000;0.1343;-0.9796;
-195.3000;0.1335;-0.9796;
-195.0000;0.1335;-0.9771;
-194.7000;0.1359;-0.9645;
-194.4000;0.1351;-0.9595;
-194.1000;0.1359;-0.9545;
-193.8000;0.1311;-0.9670;
-193.5000;0.1335;-0.9595;
-193.2000;0.1359;-0.9595;
-192.9000;0.1359;-0.9695;
-192.6000;0.1335;-0.9721;
-192.3000;0.1351;-0.9821;
-192.0000;0.1384;-0.9746;
-191.7000;0.1359;-0.9771;
-191.4000;0.1359;-0.9796;
-191.1000;0.1368;-0.9796;
-190.8000;0.1351;-0.9771;
-190.5000;0.1351;-0.9746;
-190.2000;0.1335;-0.9721;
-189.9000;0.1343;-0.9771;
-189.6000;0.1368;-0.9721;
-189.3000;0.1359;-0.9846;
-189.0000;0.1351;-0.9846;
-188.7000;0.1368;-0.9746;
-188.4000;0.1351;-0.9721;
-188.1000;0.1368;-0.9721;
-187.8000;0.1343;-0.9645;
-187.5000;0.1335;-0.9670;
-187.2000;0.1351;-0.9545;
-186.9000;0.1286;-0.9695;
-186.6000;0.1359;-0.9520;
-186.3000;0.1376;-0.9444;
-186.0000;0.1368;-0.9419;
-185.7000;0.1343;-0.9444;
-185.4000;0.1327;-0.9444;
-185.1000;0.1343;-0.9469;
-184.8000;0.1351;-0.9545;
-184.5000;0.1359;-0.9495;
-184.2000;0.1368;-0.9520;
-183.9000;0.1351;-0.9570;
-183.6000;0.1376;-0.9545;
-183.3000;0.1343;-0.9545;
-183.0000;0.1368;-0.9419;
-182.7000;0.1433;-0.9268;
-182.4000;0.1327;-0.9469;
-182.1000;0.1359;-0.9369;
-181.8000;0.1384;-0.9394;
-181.5000;0.1351;-0.9570;
-181.2000;0.1351;-0.9645;
-180.9000;0.1384;-0.9620;
-180.6000;0.1359;-0.9570;
-180.3000;0.1359;-0.9645;
-180.0000;0.1343;-0.9620;
-179.7000;0.1384;-0.9570;
-179.4000;0.1294;-0.9746;
-179.1000;0.1351;-0.9545;
-178.8000;0.1343;-0.9595;
-178.5000;0.1384;-0.9469;
-178.2000;0.1351;-0.9520;
-177.9000;0.1335;-0.9570;
-177.6000;0.1351;-0.9495;
-177.3000;0.1368;-0.9394;
-177.0000;0.1335;-0.9419;
-176.7000;0.1392;-0.9319;
-176.4000;0.1368;-0.9369;
-176.1000;0.1351;-0.9394;
-175.8000;0.1343;-0.9369;
-175.5000;0.1425;-0.9193;
-175.2000;0.1368;-0.9444;
-174.9000;0.1359;-0.9469;
-174.6000;0.1351;-0.9495;
-174.3000;0.1359;-0.9495;
-174.0000;0.1359;-0.9520;
-173.7000;0.1351;-0.9595;
-173.4000;0.1384;-0.9545;
-173.1000;0.1359;-0.9545;
-172.8000;0.1359;-0.9444;
-172.5000;0.1376;-0.9394;
-172.2000;0.1335;-0.9495;
-171.9000;0.1351;-0.9495;
-171.6000;0.1343;-0.9545;
-171.3000;0.1408;-0.9369;
-171.0000;0.1343;-0.9645;
-170.7000;0.1368;-0.9570;
-170.4000;0.1359;-0.9645;
-170.1000;0.1384;-0.9620;
-169.8000;0.1294;-0.9796;
-169.5000;0.1351;-0.9620;
-169.2000;0.1376;-0.9545;
-168.9000;0.1335;-0.9595;
-168.6000;0.1343;-0.9520;
-168.3000;0.1237;-0.9846;
-168.0000;0.1359;-0.9670;
-167.7000;0.1359;-0.9645;
-167.4000;0.1343;-0.9721;
-167.1000;0.1343;-0.9771;
-166.8000;0.1359;-0.9721;
-166.5000;0.1359;-0.9645;
-166.2000;0.1278;-0.9871;
-165.9000;0.1359;-0.9746;
-165.6000;0.1343;-0.9721;
-165.3000;0.1335;-0.9721;
-165.0000;0.1368;-0.9721;
-164.7000;0.1335;-0.9670;
-164.4000;0.1343;-0.9645;
-164.1000;0.1351;-0.9645;
-163.8000;0.1368;-0.9620;
-163.5000;0.1376;-0.9620;
-163.2000;0.1368;-0.9620;
-162.9000;0.1359;-0.9721;
-162.6000;0.1327;-0.9721;
-162.3000;0.1368;-0.9620;
-162.0000;0.1351;-0.9570;
-161.7000;0.1351;-0.9545;
-161.4000;0.1400;-0.9369;
-161.1000;0.1294;-0.9695;
-160.8000;0.1351;-0.9570;
-160.5000;0.1359;-0.9495;
-160.2000;0.1408;-0.9344;
-159.9000;0.1335;-0.9495;
-159.6000;0.1368;-0.9344;
-159.3000;0.1351;-0.9369;
-159.0000;0.1319;-0.9419;
-158.7000;0.1351;-0.9319;
-158.4000;0.1351;-0.9294;
-158.1000;0.1376;-0.9294;
-157.8000;0.1359;-0.9394;
-157.5000;0.1351;-0.9444;
-157.2000;0.1343;-0.9444;
-156.9000;0.1311;-0.9419;
-156.6000;0.1368;-0.9344;
-156.3000;0.1335;-0.9369;
-156.0000;0.1416;-0.9118;
-155.7000;0.1294;-0.9394;
-155.4000;0.1319;-0.9394;
-155.1000;0.1335;-0.9469;
-154.8000;0.1351;-0.9419;
-154.5000;0.1384;-0.9419;
-154.2000;0.1343;-0.9444;
-153.9000;0.1457;-0.9143;
-153.6000;0.1327;-0.9520;
-153.3000;0.1359;-0.9469;
-153.0000;0.1351;-0.9419;
-152.7000;0.1384;-0.9344;
-152.4000;0.1335;-0.9444;
-152.1000;0.1351;-0.9369;
-151.8000;0.1327;-0.9444;
-151.5000;0.1327;-0.9545;
-151.2000;0.1351;-0.9495;
-150.9000;0.1319;-0.9595;
-150.6000;0.1376;-0.9469;
-150.3000;0.1359;-0.9570;
-150.0000;0.1335;-0.9645;
-149.7000;0.1335;-0.9721;
-149.4000;0.1343;-0.9771;
-149.1000;0.1368;-0.9670;
-148.8000;0.1359;-0.9595;
-148.5000;0.1368;-0.9620;
-148.2000;0.1368;-0.9645;
-147.9000;0.1368;-0.9620;
-147.6000;0.1376;-0.9469;
-147.3000;0.1343;-0.9520;
-147.0000;0.1278;-0.9771;
-146.7000;0.1351;-0.9620;
-146.4000;0.1351;-0.9645;
-146.1000;0.1351;-0.9570;
-145.8000;0.1335;-0.9670;
-145.5000;0.1351;-0.9545;
-145.2000;0.1368;-0.9469;
-144.9000;0.1327;-0.9444;
-144.6000;0.1335;-0.9419;
-144.3000;0.1343;-0.9469;
-144.0000;0.1359;-0.9495;
-143.7000;0.1319;-0.9570;
-143.4000;0.1368;-0.9444;
-143.1000;0.1359;-0.9495;
-142.8000;0.1376;-0.9595;
-142.5000;0.1376;-0.9570;
-142.2000;0.1351;-0.9721;
-141.9000;0.1376;-0.9645;
-141.6000;0.1335;-0.9746;
-141.3000;0.1343;-0.9746;
-141.0000;0.1376;-0.9620;
-140.7000;0.1351;-0.9695;
-140.4000;0.1343;-0.9695;
-140.1000;0.1359;-0.9721;
-139.8000;0.1343;-0.9721;
-139.5000;0.1408;-0.9595;
-139.2000;0.1278;-0.9922;
-138.9000;0.1351;-0.9821;
-138.6000;0.1359;-0.9796;
-138.3000;0.1376;-0.9670;
-138.0000;0.1359;-0.9620;
-137.7000;0.1319;-0.9746;
-137.4000;0.1343;-0.9796;
-137.1000;0.1408;-0.9721;
-136.8000;0.1425;-0.9570;
-136.5000;0.1343;-0.9746;
-136.2000;0.1359;-0.9771;
-135.9000;0.1351;-0.9846;
-135.6000;0.1335;-0.9896;
-135.3000;0.1359;-0.9796;
-135.0000;0.1327;-0.9846;
-134.7000;0.1335;-0.9796;
-134.4000;0.1327;-0.9721;
-134.1000;0.1359;-0.9645;
-133.8000;0.1343;-0.9595;
-133.5000;0.1335;-0.9545;
-133.2000;0.1327;-0.9595;
-132.9000;0.1343;-0.9570;
-132.6000;0.1408;-0.9520;
-132.3000;0.1351;-0.9620;
-132.0000;0.1359;-0.9695;
-131.7000;0.1376;-0.9721;
-131.4000;0.1327;-0.9771;
-131.1000;0.1368;-0.9570;
-130.8000;0.1359;-0.9520;
-130.5000;0.1359;-0.9595;
-130.2000;0.1368;-0.9620;
-129.9000;0.1343;-0.9570;
-129.6000;0.1351;-0.9620;
-129.3000;0.1359;-0.9595;
-129.0000;0.1359;-0.9695;
-128.7000;0.1392;-0.9469;
-128.4000;0.1343;-0.9645;
-128.1000;0.1302;-0.9821;
-127.8000;0.1368;-0.9570;
-127.5000;0.1376;-0.9545;
-127.2000;0.1359;-0.9495;
-126.9000;0.1343;-0.9595;
-126.6000;0.1351;-0.9620;
-126.3000;0.1351;-0.9545;
-126.0000;0.1254;-0.9746;
-125.7000;0.1384;-0.9394;
-125.4000;0.1319;-0.9595;
-125.1000;0.1351;-0.9595;
-124.8000;0.1319;-0.9645;
-124.5000;0.1359;-0.9670;
-124.2000;0.1343;-0.9695;
-123.9000;0.1351;-0.9645;
-123.6000;0.1359;-0.9620;
-123.3000;0.1368;-0.9595;
-123.0000;0.1311;-0.9721;
-122.7000;0.1359;-0.9620;
-122.4000;0.1319;-0.9695;
-122.1000;0.1335;-0.9771;
-121.8000;0.1351;-0.9620;
-121.5000;0.1327;-0.9771;
-121.2000;0.1335;-0.9645;
-120.9000;0.1359;-0.9595;
-120.6000;0.1359;-0.9545;
-120.3000;0.1343;-0.9595;
-120.0000;0.1327;-0.9645;
-119.7000;0.1433;-0.9545;
-119.4000;0.1359;-0.9620;
-119.1000;0.1368;-0.9670;
-118.8000;0.1294;-0.9871;
-118.5000;0.1351;-0.9746;
-118.2000;0.1359;-0.9670;
-117.9000;0.1351;-0.9670;
-117.6000;0.1351;-0.9670;
-117.3000;0.1368;-0.9545;
-117.0000;0.1359;-0.9595;
-116.7000;0.1351;-0.9570;
-116.4000;0.1359;-0.9570;
-116.1000;0.1368;-0.9595;
-115.8000;0.1359;-0.9595;
-115.5000;0.1376;-0.9620;
-115.2000;0.1335;-0.9670;
-114.9000;0.1384;-0.9670;
-114.6000;0.1351;-0.9695;
-114.3000;0.1359;-0.9595;
-114.0000;0.1311;-0.9620;
-113.7000;0.1278;-0.9595;
-113.4000;0.1327;-0.9444;
-113.1000;0.1359;-0.9369;
-112.8000;0.1368;-0.9344;
-112.5000;0.1327;-0.9444;
-112.2000;0.1343;-0.9570;
-111.9000;0.1343;-0.9695;
-111.6000;0.1335;-0.9670;
-111.3000;0.1327;-0.9645;
-111.0000;0.1327;-0.9620;
-110.7000;0.1359;-0.9570;
-110.4000;0.1351;-0.9595;
-110.1000;0.1376;-0.9620;
-109.8000;0.1351;-0.9645;
-109.5000;0.1335;-0.9721;
-109.2000;0.1343;-0.9670;
-108.9000;0.1327;-0.9620;
-108.6000;0.1327;-0.9570;
-108.3000;0.1376;-0.9369;
-108.0000;0.1343;-0.9469;
-107.7000;0.1457;-0.9268;
-107.4000;0.1319;-0.9495;
-107.1000;0.1359;-0.9319;
-106.8000;0.1359;-0.9394;
-106.5000;0.1384;-0.9520;
-106.2000;0.1335;-0.9595;
-105.9000;0.1376;-0.9444;
-105.6000;0.1262;-0.9771;
-105.3000;0.1351;-0.9495;
-105.0000;0.1327;-0.9670;
-104.7000;0.1343;-0.9570;
-104.4000;0.1368;-0.9520;
-104.1000;0.1294;-0.9721;
-103.8000;0.1319;-0.9670;
-103.5000;0.1343;-0.9595;
-103.2000;0.1368;-0.9469;
-102.9000;0.1376;-0.9495;
-102.6000;0.1351;-0.9595;
-102.3000;0.1343;-0.9595;
-102.0000;0.1400;-0.9419;
-101.7000;0.1343;-0.9595;
-101.4000;0.1335;-0.9645;
-101.1000;0.1335;-0.9721;
-100.8000;0.1343;-0.9721;
-100.5000;0.1384;-0.9595;
-100.2000;0.1368;-0.9620;
-99.9000;0.1343;-0.9746;
-99.6000;0.1351;-0.9771;
-99.3000;0.1376;-0.9670;
-99.0000;0.1368;-0.9620;
-98.7000;0.1368;-0.9595;
-98.4000;0.1343;-0.9721;
-98.1000;0.1343;-0.9695;
-97.8000;0.1343;-0.9746;
-97.5000;0.1335;-0.9670;
-97.2000;0.1359;-0.9670;
-96.9000;0.1368;-0.9721;
-96.6000;0.1351;-0.9695;
-96.3000;0.1319;-0.9771;
-96.0000;0.1359;-0.9721;
-95.7000;0.1351;-0.9721;
-95.4000;0.1351;-0.9695;
-95.1000;0.1327;-0.9821;
-94.8000;0.1311;-0.9821;
-94.5000;0.1351;-0.9620;
-94.2000;0.1351;-0.9595;
-93.9000;0.1351;-0.9620;
-93.6000;0.1351;-0.9721;
-93.3000;0.1359;-0.9695;
-93.0000;0.1359;-0.9695;
-92.7000;0.1376;-0.9645;
-92.4000;0.1368;-0.9670;
-92.1000;0.1376;-0.9520;
-91.8000;0.1416;-0.9469;
-91.5000;0.1335;-0.9620;
-91.2000;0.1392;-0.9469;
-90.9000;0.1359;-0.9595;
-90.6000;0.1319;-0.9771;
-90.3000;0.1351;-0.9695;
-90.0000;0.1376;-0.9721;
-89.7000;0.1359;-0.9721;
-89.4000;0.1343;-0.9771;
-89.1000;0.1302;-0.9947;
-88.8000;0.1384;-0.9645;
-88.5000;0.1327;-0.9796;
-88.2000;0.1319;-0.9821;
-87.9000;0.1343;-0.9821;
-87.6000;0.1351;-0.9896;
-87.3000;0.1343;-0.9947;
-87.0000;0.1368;-0.9922;
-86.7000;0.1368;-0.9922;
-86.4000;0.1302;-1.0148;
-86.1000;0.1302;-1.0122;
-85.8000;0.1343;-1.0022;
-85.5000;0.1400;-0.9746;
-85.2000;0.1351;-0.9846;
-84.9000;0.1351;-0.9771;
-84.6000;0.1302;-0.9821;
-84.3000;0.1335;-0.9721;
-84.0000;0.1343;-0.9645;
-83.7000;0.1351;-0.9746;
-83.4000;0.1311;-0.9821;
-83.1000;0.1359;-0.9746;
-82.8000;0.1359;-0.9771;
-82.5000;0.1400;-0.9695;
-82.2000;0.1343;-0.9846;
-81.9000;0.1335;-0.9947;
-81.6000;0.1400;-0.9721;
-81.3000;0.1327;-0.9922;
-81.0000;0.1368;-0.9871;
-80.7000;0.1368;-0.9771;
-80.4000;0.1368;-0.9695;
-80.1000;0.1368;-0.9746;
-79.8000;0.1376;-0.9721;
-79.5000;0.1335;-0.9796;
-79.2000;0.1359;-0.9821;
-78.9000;0.1343;-0.9796;
-78.6000;0.1335;-0.9771;
-78.3000;0.1359;-0.9721;
-78.0000;0.1359;-0.9545;
-77.7000;0.1327;-0.9545;
-77.4000;0.1368;-0.9369;
-77.1000;0.1359;-0.9419;
-76.8000;0.1359;-0.9419;
-76.5000;0.1286;-0.9645;
-76.2000;0.1425;-0.9344;
-75.9000;0.1335;-0.9570;
-75.6000;0.1351;-0.9670;
-75.3000;0.1425;-0.9419;
-75.0000;0.1327;-0.9645;
-74.7000;0.1302;-0.9620;
-74.4000;0.1368;-0.9419;
-74.1000;0.1376;-0.9394;
-73.8000;0.1302;-0.9620;
-73.5000;0.1359;-0.9469;
-73.2000;0.1327;-0.9620;
-72.9000;0.1335;-0.9595;
-72.6000;0.1376;-0.9620;
-72.3000;0.1311;-0.9771;
-72.0000;0.1351;-0.9670;
-71.7000;0.1351;-0.9595;
-71.4000;0.1359;-0.9495;
-71.1000;0.1368;-0.9595;
-70.8000;0.1359;-0.9495;
-70.5000;0.1359;-0.9469;
-70.2000;0.1351;-0.9570;
-69.9000;0.1359;-0.9570;
-69.6000;0.1311;-0.9721;
-69.3000;0.1319;-0.9771;
-69.0000;0.1368;-0.9620;
-68.7000;0.1351;-0.9620;
-68.4000;0.1327;-0.9595;
-68.1000;0.1392;-0.9469;
-67.8000;0.1416;-0.9545;
-67.5000;0.1392;-0.9620;
-67.2000;0.1351;-0.9796;
-66.9000;0.1351;-0.9821;
-66.6000;0.1359;-0.9771;
-66.3000;0.1319;-0.9896;
-66.0000;0.1351;-0.9620;
-65.7000;0.1368;-0.9570;
-65.4000;0.1343;-0.9620;
-65.1000;0.1416;-0.9444;
-64.8000;0.1368;-0.9545;
-64.5000;0.1319;-0.9670;
-64.2000;0.1270;-0.9695;
-63.9000;0.1359;-0.9645;
-63.6000;0.1311;-0.9846;
-63.3000;0.1343;-0.9645;
-63.0000;0.1351;-0.9595;
-62.7000;0.1327;-0.9670;
-62.4000;0.1351;-0.9595;
-62.1000;0.1311;-0.9746;
-61.8000;0.1327;-0.9645;
-61.5000;0.1335;-0.9469;
-61.2000;0.1335;-0.9495;
-60.9000;0.1335;-0.9520;
-60.6000;0.1327;-0.9469;
-60.3000;0.1327;-0.9394;
-60.0000;0.1343;-0.9444;
-59.7000;0.1351;-0.9495;
-59.4000;0.1327;-0.9620;
-59.1000;0.1327;-0.9670;
-58.8000;0.1343;-0.9570;
-58.5000;0.1359;-0.9570;
-58.2000;0.1343;-0.9645;
-57.9000;0.1351;-0.9595;
-57.6000;0.1351;-0.9570;
-57.3000;0.1384;-0.9520;
-57.0000;0.1368;-0.9570;
-56.7000;0.1441;-0.9344;
-56.4000;0.1359;-0.9520;
-56.1000;0.1359;-0.9495;
-55.8000;0.1327;-0.9570;
-55.5000;0.1351;-0.9645;
-55.2000;0.1343;-0.9695;
-54.9000;0.1343;-0.9620;
-54.6000;0.1319;-0.9645;
-54.3000;0.1335;-0.9520;
-54.0000;0.1327;-0.9620;
-53.7000;0.1351;-0.9545;
-53.4000;0.1343;-0.9570;
-53.1000;0.1351;-0.9495;
-52.8000;0.1319;-0.9495;
-52.5000;0.1392;-0.9394;
-52.2000;0.1359;-0.9570;
-51.9000;0.1351;-0.9695;
-51.6000;0.1343;-0.9771;
-51.3000;0.1368;-0.9695;
-51.0000;0.1343;-0.9796;
-50.7000;0.1343;-0.9695;
-50.4000;0.1359;-0.9771;
-50.1000;0.1351;-0.9796;
-49.8000;0.1368;-0.9695;
-49.5000;0.1343;-0.9695;
-49.2000;0.1335;-0.9721;
-48.9000;0.1319;-0.9746;
-48.6000;0.1343;-0.9695;
-48.3000;0.1449;-0.9294;
-48.0000;0.1327;-0.9695;
-47.7000;0.1343;-0.9670;
-47.4000;0.1351;-0.9695;
-47.1000;0.1327;-0.9721;
-46.8000;0.1351;-0.9670;
-46.5000;0.1343;-0.9645;
-46.2000;0.1368;-0.9645;
-45.9000;0.1376;-0.9645;
-45.6000;0.1351;-0.9721;
-45.3000;0.1368;-0.9721;
-45.0000;0.1351;-0.9796;
-44.7000;0.1408;-0.9721;
-44.4000;0.1359;-0.9695;
-44.1000;0.1327;-0.9695;
-43.8000;0.1335;-0.9670;
-43.5000;0.1416;-0.9444;
-43.2000;0.1319;-0.9695;
-42.9000;0.1351;-0.9545;
-42.6000;0.1359;-0.9520;
-42.3000;0.1311;-0.9721;
-42.0000;0.1343;-0.9645;
-41.7000;0.1351;-0.9520;
-41.4000;0.1368;-0.9495;
-41.1000;0.1351;-0.9444;
-40.8000;0.1351;-0.9444;
-40.5000;0.1343;-0.9495;
-40.2000;0.1368;-0.9369;
-39.9000;0.1286;-0.9645;
-39.6000;0.1351;-0.9495;
-39.3000;0.1359;-0.9394;
-39.0000;0.1351;-0.9444;
-38.7000;0.1351;-0.9369;
-38.4000;0.1359;-0.9419;
-38.1000;0.1351;-0.9394;
-37.8000;0.1376;-0.9319;
-37.5000;0.1335;-0.9394;
-37.2000;0.1359;-0.9344;
-36.9000;0.1343;-0.9419;
-36.6000;0.1359;-0.9394;
-36.3000;0.1343;-0.9369;
-36.0000;0.1351;-0.9419;
-35.7000;0.1376;-0.9344;
-35.4000;0.1376;-0.9369;
-35.1000;0.1351;-0.9495;
-34.8000;0.1343;-0.9570;
-34.5000;0.1343;-0.9520;
-34.2000;0.1351;-0.9469;
-33.9000;0.1351;-0.9469;
-33.6000;0.1351;-0.9520;
-33.3000;0.1351;-0.9495;
-33.0000;0.1343;-0.9570;
-32.7000;0.1359;-0.9545;
-32.4000;0.1351;-0.9545;
-32.1000;0.1368;-0.9570;
-31.8000;0.1368;-0.9595;
-31.5000;0.1327;-0.9620;
-31.2000;0.1351;-0.9419;
-30.9000;0.1359;-0.9469;
-30.6000;0.1351;-0.9545;
-30.3000;0.1376;-0.9495;
-30.0000;0.1351;-0.9520;
-29.7000;0.1343;-0.9545;
-29.4000;0.1376;-0.9469;
-29.1000;0.1343;-0.9595;
-28.8000;0.1343;-0.9620;
-28.5000;0.1343;-0.9695;
-28.2000;0.1351;-0.9721;
-27.9000;0.1351;-0.9595;
-27.6000;0.1368;-0.9469;
-27.3000;0.1327;-0.9495;
-27.0000;0.1335;-0.9570;
-26.7000;0.1343;-0.9545;
-26.4000;0.1343;-0.9469;
-26.1000;0.1376;-0.9469;
-25.8000;0.1368;-0.9545;
-25.5000;0.1351;-0.9695;
-25.2000;0.1343;-0.9670;
-24.9000;0.1327;-0.9721;
-24.6000;0.1319;-0.9821;
-24.3000;0.1343;-0.9746;
-24.0000;0.1359;-0.9796;
-23.7000;0.1359;-0.9796;
-23.4000;0.1343;-0.9846;
-23.1000;0.1368;-0.9771;
-22.8000;0.1359;-0.9746;
-22.5000;0.1351;-0.9821;
-22.2000;0.1335;-0.9771;
-21.9000;0.1384;-0.9746;
-21.6000;0.1368;-0.9721;
-21.3000;0.1368;-0.9620;
-21.0000;0.1359;-0.9645;
-20.7000;0.1343;-0.9645;
-20.4000;0.1384;-0.9620;
-20.1000;0.1359;-0.9645;
-19.8000;0.1351;-0.9595;
-19.5000;0.1359;-0.9645;
-19.2000;0.1376;-0.9595;
-18.9000;0.1351;-0.9620;
-18.6000;0.1311;-0.9721;
-18.3000;0.1302;-0.9771;
-18.0000;0.1343;-0.9721;
-17.7000;0.1359;-0.9721;
-17.4000;0.1351;-0.9746;
-17.1000;0.1335;-0.9746;
-16.8000;0.1376;-0.9670;
-16.5000;0.1335;-0.9746;
-16.2000;0.1343;-0.9721;
-15.9000;0.1343;-0.9796;
-15.6000;0.1449;-0.9469;
-15.3000;0.1335;-0.9746;
-15.0000;0.1351;-0.9695;
-14.7000;0.1343;-0.9695;
-14.4000;0.1351;-0.9645;
-14.1000;0.1368;-0.9620;
-13.8000;0.1343;-0.9670;
-13.5000;0.1343;-0.9695;
-13.2000;0.1368;-0.9670;
-12.9000;0.1351;-0.9645;
-12.6000;0.1311;-0.9695;
-12.3000;0.1351;-0.9570;
-12.0000;0.1351;-0.9545;
-11.7000;0.1335;-0.9570;
-11.4000;0.1335;-0.9570;
-11.1000;0.1343;-0.9570;
-10.8000;0.1368;-0.9545;
-10.5000;0.1327;-0.9670;
-10.2000;0.1351;-0.9545;
-9.9000;0.1359;-0.9419;
-9.6000;0.1359;-0.9444;
-9.3000;0.1351;-0.9444;
-9.0000;0.1359;-0.9319;
-8.7000;0.1327;-0.9369;
-8.4000;0.1335;-0.9469;
-8.1000;0.1359;-0.9394;
-7.8000;0.1359;-0.9394;
-7.5000;0.1343;-0.9344;
-7.2000;0.1294;-0.9520;
-6.9000;0.1351;-0.9419;
-6.6000;0.1359;-0.9419;
-6.3000;0.1327;-0.9444;
-6.0000;0.1351;-0.9319;
-5.7000;0.1327;-0.9495;
-5.4000;0.1473;-0.9118;
-5.1000;0.1359;-0.9369;
-4.8000;0.1327;-0.9419;
-4.5000;0.1335;-0.9444;
-4.2000;0.1335;-0.9444;
-3.9000;0.1351;-0.9419;
-3.6000;0.1351;-0.9419;
-3.3000;0.1286;-0.9620;
-3.0000;0.1351;-0.9469;
-2.7000;0.1359;-0.9369;
-2.4000;0.1351;-0.9469;
-2.1000;0.1343;-0.9545;
-1.8000;0.1343;-0.9645;
-1.5000;0.1368;-0.9545;
-1.2000;0.1335;-0.9570;
-0.9000;0.1335;-0.9469;
-0.6000;0.1351;-0.9469;
-0.3000;0.1343;-0.9495;
0.0000;0.1343;-0.9495;
0.3000;0.1343;-0.9570;
0.6000;0.1376;-0.9344;
0.9000;0.1392;-0.9268;
1.2000;0.1408;-0.8967;
1.5000;0.1408;-0.8716;
1.8000;0.1433;-0.8490;
2.1000;0.1449;-0.8138;
2.4000;0.1465;-0.7937;
2.7000;0.1465;-0.7736;
3.0000;0.1481;-0.7586;
3.3000;0.1498;-0.7460;
3.6000;0.1571;-0.7033;
3.9000;0.1433;-0.7360;
4.2000;0.1514;-0.7058;
4.5000;0.1530;-0.6958;
4.8000;0.1498;-0.6933;
5.1000;0.1490;-0.6882;
5.4000;0.1506;-0.6882;
5.7000;0.1481;-0.6857;
6.0000;0.1481;-0.6807;
6.3000;0.1522;-0.6631;
6.6000;0.1506;-0.6706;
6.9000;0.1416;-0.7033;
7.2000;0.1481;-0.6857;
7.5000;0.1571;-0.6656;
7.8000;0.1498;-0.6983;
8.1000;0.1506;-0.6907;
8.4000;0.1490;-0.6933;
8.7000;0.1498;-0.6933;
9.0000;0.1522;-0.6933;
9.3000;0.1498;-0.6958;
9.6000;0.1498;-0.6958;
9.9000;0.1490;-0.6907;
10.2000;0.1506;-0.6857;
10.5000;0.1514;-0.6958;
10.8000;0.1506;-0.7033;
11.1000;0.1490;-0.7184;
11.4000;0.1555;-0.6958;
11.7000;0.1498;-0.7033;
12.0000;0.1506;-0.7033;
12.3000;0.1506;-0.6933;
12.6000;0.1514;-0.6857;
12.9000;0.1506;-0.6807;
13.2000;0.1481;-0.6857;
13.5000;0.1490;-0.6832;
13.8000;0.1490;-0.6933;
14.1000;0.1522;-0.6857;
14.4000;0.1555;-0.6832;
14.7000;0.1506;-0.7008;
15.0000;0.1514;-0.7008;
15.3000;0.1555;-0.7008;
15.6000;0.1514;-0.7083;
15.9000;0.1490;-0.7209;
16.2000;0.1514;-0.7209;
16.5000;0.1530;-0.7083;
16.8000;0.1481;-0.7108;
17.1000;0.1514;-0.7033;
17.4000;0.1506;-0.7033;
17.7000;0.1522;-0.7008;
18.0000;0.1530;-0.7008;
18.3000;0.1498;-0.7083;
18.6000;0.1514;-0.7133;
18.9000;0.1555;-0.7008;
19.2000;0.1522;-0.7008;
19.5000;0.1514;-0.7108;
19.8000;0.1498;-0.7309;
20.1000;0.1490;-0.7309;
20.4000;0.1490;-0.7284;
20.7000;0.1490;-0.7284;
21.0000;0.1498;-0.7259;
21.3000;0.1449;-0.7284;
21.6000;0.1514;-0.7033;
21.9000;0.1514;-0.6958;
22.2000;0.1522;-0.6983;
22.5000;0.1530;-0.6983;
22.8000;0.1506;-0.6958;
23.1000;0.1522;-0.6907;
23.4000;0.1490;-0.6933;
23.7000;0.1530;-0.6757;
24.0000;0.1522;-0.6757;
24.3000;0.1530;-0.6757;
24.6000;0.1506;-0.6807;
24.9000;0.1498;-0.6832;
25.2000;0.1506;-0.6782;
25.5000;0.1498;-0.6757;
25.8000;0.1530;-0.6732;
26.1000;0.1457;-0.6857;
26.4000;0.1490;-0.6757;
26.7000;0.1514;-0.6706;
27.0000;0.1506;-0.6782;
27.3000;0.1530;-0.6732;
27.6000;0.1498;-0.6681;
27.9000;0.1555;-0.6581;
28.2000;0.1498;-0.6782;
28.5000;0.1522;-0.6656;
28.8000;0.1506;-0.6681;
29.1000;0.1498;-0.6732;
29.4000;0.1506;-0.6832;
29.7000;0.1473;-0.7008;
30.0000;0.1620;-0.6656;
30.3000;0.1522;-0.6958;
30.6000;0.1514;-0.7008;
30.9000;0.1506;-0.7033;
31.2000;0.1563;-0.6782;
31.5000;0.1498;-0.6782;
31.8000;0.1530;-0.6732;
32.1000;0.1530;-0.6732;
32.4000;0.1514;-0.6807;
32.7000;0.1506;-0.6732;
33.0000;0.1498;-0.6782;
33.3000;0.1579;-0.6656;
33.6000;0.1514;-0.6907;
33.9000;0.1481;-0.6907;
34.2000;0.1522;-0.6882;
34.5000;0.1522;-0.6907;
34.8000;0.1522;-0.6832;
35.1000;0.1498;-0.6907;
35.4000;0.1506;-0.6882;
35.7000;0.1530;-0.6782;
36.0000;0.1490;-0.6907;
36.3000;0.1498;-0.6807;
36.6000;0.1522;-0.6757;
36.9000;0.1530;-0.6681;
37.2000;0.1530;-0.6656;
37.5000;0.1490;-0.6732;
37.8000;0.1514;-0.6782;
38.1000;0.1530;-0.6681;
38.4000;0.1506;-0.6782;
38.7000;0.1571;-0.6631;
39.0000;0.1506;-0.6807;
39.3000;0.1457;-0.6907;
39.6000;0.1490;-0.6732;
39.9000;0.1514;-0.6782;
40.2000;0.1522;-0.6732;
40.5000;0.1490;-0.6732;
40.8000;0.1571;-0.6581;
41.1000;0.1441;-0.7008;
41.4000;0.1457;-0.6983;
41.7000;0.1506;-0.6882;
42.0000;0.1449;-0.7133;
42.3000;0.1506;-0.7008;
42.6000;0.1579;-0.6933;
42.9000;0.1506;-0.7108;
43.2000;0.1449;-0.7259;
43.5000;0.1498;-0.7008;
43.8000;0.1506;-0.6832;
44.1000;0.1498;-0.6857;
44.4000;0.1449;-0.7083;
44.7000;0.1490;-0.6958;
45.0000;0.1498;-0.6882;
45.3000;0.1514;-0.6857;
45.6000;0.1490;-0.6907;
45.9000;0.1490;-0.6857;
46.2000;0.1465;-0.6958;
46.5000;0.1473;-0.7033;
46.8000;0.1547;-0.6882;
47.1000;0.1514;-0.6782;
47.4000;0.1506;-0.6907;
47.7000;0.1506;-0.6907;
48.0000;0.1538;-0.6832;
48.3000;0.1514;-0.6958;
48.6000;0.1506;-0.6983;
48.9000;0.1506;-0.6933;
49.2000;0.1506;-0.6933;
49.5000;0.1530;-0.6882;
49.8000;0.1514;-0.6958;
50.1000;0.1522;-0.6958;
50.4000;0.1538;-0.6807;
50.7000;0.1522;-0.6832;
51.0000;0.1506;-0.6882;
51.3000;0.1506;-0.6882;
51.6000;0.1547;-0.6732;
51.9000;0.1473;-0.7008;
52.2000;0.1522;-0.6933;
52.5000;0.1425;-0.7184;
52.8000;0.1522;-0.6882;
53.1000;0.1490;-0.6958;
53.4000;0.1547;-0.6857;
53.7000;0.1481;-0.6983;
54.0000;0.1506;-0.6907;
54.3000;0.1481;-0.6933;
54.6000;0.1498;-0.6907;
54.9000;0.1506;-0.6882;
55.2000;0.1408;-0.7159;
55.5000;0.1514;-0.6907;
55.8000;0.1514;-0.6782;
56.1000;0.1490;-0.6807;
56.4000;0.1530;-0.6681;
56.7000;0.1522;-0.6732;
57.0000;0.1506;-0.6757;
57.3000;0.1514;-0.6807;
57.6000;0.1514;-0.6832;
57.9000;0.1514;-0.6807;
58.2000;0.1514;-0.6732;
58.5000;0.1530;-0.6656;
58.8000;0.1538;-0.6656;
59.1000;0.1530;-0.6757;
59.4000;0.1530;-0.6782;
59.7000;0.1530;-0.6882;
60.0000;0.1538;-0.6832;
60.3000;0.1514;-0.6882;
60.6000;0.1506;-0.6757;
60.9000;0.1522;-0.6732;
61.2000;0.1538;-0.6656;
61.5000;0.1514;-0.6732;
61.8000;0.1498;-0.6782;
62.1000;0.1530;-0.6706;
62.4000;0.1514;-0.6732;
62.7000;0.1506;-0.6782;
63.0000;0.1547;-0.6706;
63.3000;0.1498;-0.6782;
63.6000;0.1530;-0.6656;
63.9000;0.1498;-0.6807;
64.2000;0.1498;-0.6933;
64.5000;0.1498;-0.6983;
64.8000;0.1506;-0.6958;
65.1000;0.1530;-0.6882;
65.4000;0.1514;-0.6882;
65.7000;0.1538;-0.6782;
66.0000;0.1522;-0.6706;
66.3000;0.1538;-0.6581;
66.6000;0.1506;-0.6706;
66.9000;0.1498;-0.6681;
67.2000;0.1498;-0.6681;
67.5000;0.1506;-0.6706;
67.8000;0.1522;-0.6706;
68.1000;0.1522;-0.6782;
68.4000;0.1514;-0.6757;
68.7000;0.1425;-0.6983;
69.0000;0.1571;-0.6556;
69.3000;0.1587;-0.6531;
69.6000;0.1514;-0.6681;
69.9000;0.1563;-0.6681;
70.2000;0.1514;-0.6656;
70.5000;0.1506;-0.6706;
70.8000;0.1538;-0.6681;
71.1000;0.1506;-0.6882;
71.4000;0.1498;-0.6958;
71.7000;0.1514;-0.6907;
72.0000;0.1490;-0.6882;
72.3000;0.1522;-0.6732;
72.6000;0.1530;-0.6706;
72.9000;0.1522;-0.6732;
73.2000;0.1547;-0.6581;
73.5000;0.1522;-0.6631;
73.8000;0.1538;-0.6656;
74.1000;0.1465;-0.6732;
74.4000;0.1514;-0.6581;
74.7000;0.1522;-0.6656;
75.0000;0.1498;-0.6782;
75.3000;0.1506;-0.6907;
75.6000;0.1498;-0.6933;
75.9000;0.1506;-0.6882;
76.2000;0.1506;-0.6907;
76.5000;0.1498;-0.6832;
76.8000;0.1408;-0.7108;
77.1000;0.1506;-0.6882;
77.4000;0.1514;-0.6807;
77.7000;0.1522;-0.6782;
78.0000;0.1514;-0.6807;
78.3000;0.1498;-0.6933;
78.6000;0.1506;-0.6857;
78.9000;0.1522;-0.6757;
79.2000;0.1522;-0.6732;
79.5000;0.1506;-0.6757;
79.8000;0.1522;-0.6757;
80.1000;0.1522;-0.6782;
80.4000;0.1490;-0.6832;
80.7000;0.1498;-0.6857;
81.0000;0.1514;-0.6782;
81.3000;0.1498;-0.6782;
81.6000;0.1506;-0.6757;
81.9000;0.1498;-0.6782;
82.2000;0.1481;-0.6857;
82.5000;0.1514;-0.6882;
82.8000;0.1498;-0.6958;
83.1000;0.1506;-0.7008;
83.4000;0.1514;-0.7058;
83.7000;0.1538;-0.7008;
84.0000;0.1628;-0.6807;
84.3000;0.1498;-0.7159;
84.6000;0.1425;-0.7284;
84.9000;0.1514;-0.7058;
85.2000;0.1538;-0.6983;
85.5000;0.1498;-0.7033;
85.8000;0.1498;-0.7058;
86.1000;0.1506;-0.7008;
86.4000;0.1514;-0.7083;
86.7000;0.1473;-0.7108;
87.0000;0.1514;-0.7033;
87.3000;0.1498;-0.6983;
87.6000;0.1481;-0.7058;
87.9000;0.1490;-0.7008;
88.2000;0.1530;-0.6907;
88.5000;0.1498;-0.7058;
88.8000;0.1514;-0.7033;
89.1000;0.1498;-0.7033;
89.4000;0.1506;-0.6958;
89.7000;0.1473;-0.7058;
90.0000;0.1514;-0.6983;
90.3000;0.1514;-0.7033;
90.6000;0.1522;-0.6958;
90.9000;0.1498;-0.7008;
91.2000;0.1506;-0.6983;
91.5000;0.1522;-0.6933;
91.8000;0.1514;-0.6907;
92.1000;0.1522;-0.6933;
92.4000;0.1498;-0.7033;
92.7000;0.1522;-0.6983;
93.0000;0.1530;-0.7008;
93.3000;0.1530;-0.7133;
93.6000;0.1514;-0.7133;
93.9000;0.1530;-0.7133;
94.2000;0.1530;-0.7083;
94.5000;0.1473;-0.7008;
94.8000;0.1506;-0.6933;
95.1000;0.1506;-0.6933;
95.4000;0.1514;-0.6907;
95.7000;0.1498;-0.6882;
96.0000;0.1506;-0.6882;
96.3000;0.1514;-0.6857;
96.6000;0.1530;-0.6807;
96.9000;0.1506;-0.6807;
97.2000;0.1498;-0.6882;
97.5000;0.1522;-0.6857;
97.8000;0.1514;-0.6857;
98.1000;0.1498;-0.6907;
98.4000;0.1506;-0.6832;
98.7000;0.1490;-0.6832;
99.0000;0.1506;-0.6757;
99.3000;0.1514;-0.6757;
99.6000;0.1490;-0.6832;
99.9000;0.1490;-0.6807;
100.2000;0.1514;-0.6732;
100.5000;0.1514;-0.6757;
100.8000;0.1490;-0.6732;
101.1000;0.1506;-0.6656;
101.4000;0.1514;-0.6732;
101.7000;0.1506;-0.6807;
102.0000;0.1506;-0.6882;
102.3000;0.1498;-0.6882;
102.6000;0.1498;-0.6832;
102.9000;0.1506;-0.6807;
103.2000;0.1473;-0.6882;
103.5000;0.1514;-0.6832;
103.8000;0.1498;-0.6907;
104.1000;0.1514;-0.6857;
104.4000;0.1530;-0.6782;
104.7000;0.1530;-0.6757;
105.0000;0.1506;-0.6882;
105.3000;0.1571;-0.6857;
105.6000;0.1530;-0.7008;
105.9000;0.1506;-0.7008;
106.2000;0.1506;-0.7058;
106.5000;0.1514;-0.6832;
106.8000;0.1538;-0.6832;
107.1000;0.1514;-0.6933;
107.4000;0.1514;-0.6958;
107.7000;0.1481;-0.7083;
108.0000;0.1506;-0.7033;
108.3000;0.1465;-0.7108;
108.6000;0.1408;-0.7184;
108.9000;0.1498;-0.6933;
109.2000;0.1498;-0.6983;
109.5000;0.1473;-0.7033;
109.8000;0.1538;-0.6882;
110.1000;0.1481;-0.6958;
110.4000;0.1457;-0.7058;
110.7000;0.1457;-0.6983;
111.0000;0.1498;-0.6857;
111.3000;0.1457;-0.6958;
111.6000;0.1506;-0.6706;
111.9000;0.1514;-0.6656;
112.2000;0.1522;-0.6732;
112.5000;0.1506;-0.6832;
112.8000;0.1498;-0.6907;
113.1000;0.1481;-0.6857;
113.4000;0.1547;-0.6581;
113.7000;0.1481;-0.6782;
114.0000;0.1506;-0.6832;
114.3000;0.1522;-0.6933;
114.6000;0.1522;-0.6907;
114.9000;0.1473;-0.7033;
115.2000;0.1514;-0.7033;
115.5000;0.1506;-0.7033;
115.8000;0.1498;-0.7033;
116.1000;0.1555;-0.6882;
116.4000;0.1498;-0.7058;
116.7000;0.1514;-0.6983;
117.0000;0.1490;-0.6882;
117.3000;0.1506;-0.6807;
117.6000;0.1514;-0.6983;
117.9000;0.1481;-0.7083;
118.2000;0.1522;-0.7008;
118.5000;0.1514;-0.6983;
118.8000;0.1506;-0.7058;
119.1000;0.1530;-0.7008;
119.4000;0.1506;-0.7008;
119.7000;0.1522;-0.7008;
120.0000;0.1677;-0.6606;
120.3000;0.1563;-0.6958;
120.6000;0.1530;-0.7133;
120.9000;0.1555;-0.7033;
121.2000;0.1506;-0.7108;
121.5000;0.1530;-0.6882;
121.8000;0.1506;-0.6983;
122.1000;0.1514;-0.6933;
122.4000;0.1490;-0.7033;
122.7000;0.1506;-0.6933;
123.0000;0.1506;-0.6933;
123.3000;0.1514;-0.7008;
123.6000;0.1514;-0.7058;
123.9000;0.1506;-0.7083;
124.2000;0.1506;-0.6958;
124.5000;0.1522;-0.6933;
124.8000;0.1587;-0.6706;
125.1000;0.1498;-0.6907;
125.4000;0.1522;-0.6832;
125.7000;0.1522;-0.6807;
126.0000;0.1514;-0.6807;
126.3000;0.1498;-0.6857;
126.6000;0.1498;-0.6706;
126.9000;0.1506;-0.6656;
127.2000;0.1514;-0.6732;
127.5000;0.1490;-0.6882;
127.8000;0.1498;-0.6757;
128.1000;0.1498;-0.6782;
128.4000;0.1530;-0.6757;
128.7000;0.1522;-0.6782;
129.0000;0.1498;-0.6807;
129.3000;0.1530;-0.6782;
129.6000;0.1514;-0.6757;
129.9000;0.1514;-0.6631;
130.2000;0.1514;-0.6631;
130.5000;0.1522;-0.6531;
130.8000;0.1522;-0.6606;
131.1000;0.1498;-0.6631;
131.4000;0.1538;-0.6631;
131.7000;0.1506;-0.6732;
132.0000;0.1506;-0.6732;
132.3000;0.1514;-0.6656;
132.6000;0.1506;-0.6631;
132.9000;0.1514;-0.6681;
133.2000;0.1530;-0.6681;
133.5000;0.1514;-0.6732;
133.8000;0.1514;-0.6857;
134.1000;0.1481;-0.6857;
134.4000;0.1498;-0.6857;
134.7000;0.1498;-0.6832;
135.0000;0.1506;-0.6732;
135.3000;0.1449;-0.6882;
135.6000;0.1481;-0.6782;
135.9000;0.1481;-0.6832;
136.2000;0.1481;-0.6832;
136.5000;0.1473;-0.6807;
136.8000;0.1490;-0.6757;
137.1000;0.1490;-0.6757;
137.4000;0.1473;-0.6832;
137.7000;0.1498;-0.6807;
138.0000;0.1498;-0.6832;
138.3000;0.1538;-0.6782;
138.6000;0.1522;-0.6857;
138.9000;0.1498;-0.6882;
139.2000;0.1530;-0.6933;
139.5000;0.1514;-0.6933;
139.8000;0.1465;-0.7008;
140.1000;0.1587;-0.6656;
140.4000;0.1514;-0.6857;
140.7000;0.1498;-0.7033;
141.0000;0.1514;-0.6933;
141.3000;0.1490;-0.6907;
141.6000;0.1498;-0.6857;
141.9000;0.1473;-0.6907;
142.2000;0.1514;-0.6832;
142.5000;0.1514;-0.6832;
142.8000;0.1473;-0.6983;
143.1000;0.1514;-0.6832;
143.4000;0.1498;-0.6882;
143.7000;0.1628;-0.6531;
144.0000;0.1538;-0.6882;
144.3000;0.1522;-0.7058;
144.6000;0.1530;-0.7058;
144.9000;0.1514;-0.7008;
145.2000;0.1506;-0.6983;
145.5000;0.1506;-0.6933;
145.8000;0.1416;-0.7133;
146.1000;0.1498;-0.6983;
146.4000;0.1530;-0.6983;
146.7000;0.1498;-0.7008;
147.0000;0.1498;-0.7008;
147.3000;0.1490;-0.7083;
147.6000;0.1498;-0.7184;
147.9000;0.1490;-0.7360;
148.2000;0.1481;-0.7309;
148.5000;0.1514;-0.7259;
148.8000;0.1530;-0.7259;
149.1000;0.1498;-0.7360;
149.4000;0.1490;-0.7360;
149.7000;0.1522;-0.7209;
150.0000;0.1530;-0.7033;
150.3000;0.1514;-0.7133;
150.6000;0.1514;-0.7234;
150.9000;0.1498;-0.7209;
151.2000;0.1514;-0.7108;
151.5000;0.1506;-0.7159;
151.8000;0.1514;-0.7159;
152.1000;0.1514;-0.7108;
152.4000;0.1506;-0.7133;
152.7000;0.1490;-0.7184;
153.0000;0.1514;-0.7209;
153.3000;0.1498;-0.7209;
153.6000;0.1514;-0.7159;
153.9000;0.1538;-0.7058;
154.2000;0.1514;-0.7083;
154.5000;0.1522;-0.7108;
154.8000;0.1490;-0.7184;
155.1000;0.1522;-0.7108;
155.4000;0.1481;-0.7058;
155.7000;0.1506;-0.7008;
156.0000;0.1498;-0.7033;
156.3000;0.1473;-0.7133;
156.6000;0.1522;-0.7108;
156.9000;0.1481;-0.7159;
157.2000;0.1506;-0.7033;
157.5000;0.1522;-0.6933;
157.8000;0.1433;-0.7083;
158.1000;0.1506;-0.6832;
158.4000;0.1555;-0.6681;
158.7000;0.1522;-0.6732;
159.0000;0.1514;-0.6782;
159.3000;0.1473;-0.6907;
159.6000;0.1490;-0.6782;
159.9000;0.1506;-0.6706;
160.2000;0.1514;-0.6681;
160.5000;0.1514;-0.6706;
160.8000;0.1612;-0.6531;
161.1000;0.1473;-0.6933;
161.4000;0.1473;-0.6882;
161.7000;0.1457;-0.6933;
162.0000;0.1498;-0.6857;
162.3000;0.1530;-0.6807;
162.6000;0.1498;-0.6907;
162.9000;0.1498;-0.6958;
163.2000;0.1571;-0.6757;
163.5000;0.1473;-0.7008;
163.8000;0.1514;-0.6882;
164.1000;0.1522;-0.6857;
164.4000;0.1506;-0.6933;
164.7000;0.1465;-0.6882;
165.0000;0.1506;-0.6782;
165.3000;0.1514;-0.6807;
165.6000;0.1473;-0.6807;
165.9000;0.1449;-0.6857;
166.2000;0.1514;-0.6857;
166.5000;0.1514;-0.6958;
166.8000;0.1522;-0.6933;
167.1000;0.1481;-0.7008;
167.4000;0.1506;-0.6933;
167.7000;0.1530;-0.6757;
168.0000;0.1514;-0.6832;
168.3000;0.1571;-0.6732;
168.6000;0.1514;-0.6907;
168.9000;0.1514;-0.6907;
169.2000;0.1506;-0.6882;
169.5000;0.1490;-0.6958;
169.8000;0.1506;-0.7008;
170.1000;0.1498;-0.6983;
170.4000;0.1498;-0.6958;
170.7000;0.1506;-0.6958;
171.0000;0.1506;-0.7033;
171.3000;0.1506;-0.7108;
171.6000;0.1506;-0.7033;
171.9000;0.1498;-0.7083;
172.2000;0.1498;-0.7083;
172.5000;0.1514;-0.7058;
172.8000;0.1506;-0.7033;
173.1000;0.1481;-0.7033;
173.4000;0.1498;-0.7008;
173.7000;0.1498;-0.7008;
174.0000;0.1498;-0.7033;
174.3000;0.1498;-0.7008;
174.6000;0.1506;-0.6983;
174.9000;0.1506;-0.7008;
175.2000;0.1506;-0.6983;
175.5000;0.1514;-0.6983;
175.8000;0.1490;-0.7058;
176.1000;0.1547;-0.6958;
176.4000;0.1506;-0.7108;
176.7000;0.1506;-0.7133;
177.0000;0.1457;-0.7159;
177.3000;0.1449;-0.7133;
177.6000;0.1506;-0.7008;
177.9000;0.1514;-0.7108;
178.2000;0.1498;-0.7033;
178.5000;0.1506;-0.6907;
178.8000;0.1506;-0.7008;
179.1000;0.1612;-0.6857;
179.4000;0.1530;-0.6907;
179.7000;0.1547;-0.6857;
180.0000;0.1514;-0.6907;
180.3000;0.1514;-0.6907;
180.6000;0.1506;-0.7008;
180.9000;0.1506;-0.7159;
181.2000;0.1506;-0.7133;
181.5000;0.1522;-0.7058;
181.8000;0.1538;-0.7033;
182.1000;0.1498;-0.7008;
182.4000;0.1433;-0.7159;
182.7000;0.1506;-0.6983;
183.0000;0.1514;-0.6983;
183.3000;0.1506;-0.7108;
183.6000;0.1481;-0.7159;
183.9000;0.1449;-0.7309;
184.2000;0.1498;-0.7209;
184.5000;0.1514;-0.7159;
184.8000;0.1498;-0.7159;
185.1000;0.1490;-0.7234;
185.4000;0.1514;-0.7234;
185.7000;0.1506;-0.7209;
186.0000;0.1498;-0.7234;
186.3000;0.1490;-0.7184;
186.6000;0.1514;-0.7209;
186.9000;0.1498;-0.7234;
187.2000;0.1538;-0.7008;
187.5000;0.1465;-0.7159;
187.8000;0.1498;-0.7159;
188.1000;0.1538;-0.7133;
188.4000;0.1506;-0.7133;
188.7000;0.1522;-0.7083;
189.0000;0.1498;-0.7058;
189.3000;0.1522;-0.6983;
189.6000;0.1522;-0.6983;
189.9000;0.1490;-0.7033;
190.2000;0.1506;-0.6958;
190.5000;0.1498;-0.6933;
190.8000;0.1514;-0.6933;
191.1000;0.1522;-0.6958;
191.4000;0.1498;-0.7058;
191.7000;0.1514;-0.7083;
192.0000;0.1555;-0.7033;
192.3000;0.1506;-0.7108;
192.6000;0.1433;-0.7259;
192.9000;0.1514;-0.7058;
193.2000;0.1514;-0.7083;
193.5000;0.1514;-0.7133;
193.8000;0.1514;-0.7159;
194.1000;0.1514;-0.7159;
194.4000;0.1498;-0.7184;
194.7000;0.1506;-0.7083;
195.0000;0.1490;-0.7083;
195.3000;0.1538;-0.6857;
195.6000;0.1498;-0.6958;
195.9000;0.1514;-0.6857;
196.2000;0.1530;-0.6933;
196.5000;0.1481;-0.7008;
196.8000;0.1498;-0.7033;
197.1000;0.1514;-0.6983;
197.4000;0.1498;-0.6983;
197.7000;0.1514;-0.6907;
198.0000;0.1498;-0.6958;
198.3000;0.1506;-0.6983;
198.6000;0.1506;-0.7033;
198.9000;0.1514;-0.7008;
199.2000;0.1400;-0.7309;
199.5000;0.1514;-0.7058;
199.8000;0.1538;-0.7008;
200.1000;0.1506;-0.6983;
200.4000;0.1481;-0.7058;
200.7000;0.1449;-0.7259;
201.0000;0.1498;-0.7133;
201.3000;0.1416;-0.7360;
201.6000;0.1465;-0.7209;
201.9000;0.1498;-0.7184;
202.2000;0.1530;-0.7133;
202.5000;0.1514;-0.7309;
202.8000;0.1514;-0.7309;
203.1000;0.1538;-0.7284;
203.4000;0.1530;-0.7334;
203.7000;0.1530;-0.7209;
204.0000;0.1514;-0.7334;
204.3000;0.1522;-0.7334;
204.6000;0.1506;-0.7284;
204.9000;0.1506;-0.7209;
205.2000;0.1498;-0.7234;
205.5000;0.1514;-0.7209;
205.8000;0.1506;-0.7184;
206.1000;0.1514;-0.7108;
206.4000;0.1595;-0.6882;
206.7000;0.1433;-0.7334;
207.0000;0.1473;-0.7184;
207.3000;0.1490;-0.7184;
207.6000;0.1481;-0.7184;
207.9000;0.1498;-0.7133;
208.2000;0.1498;-0.7083;
208.5000;0.1498;-0.7133;
208.8000;0.1490;-0.7159;
209.1000;0.1530;-0.6983;
209.4000;0.1490;-0.7108;
209.7000;0.1490;-0.7033;
210.0000;0.1538;-0.6907;
210.3000;0.1498;-0.7083;
210.6000;0.1490;-0.7033;
210.9000;0.1506;-0.7108;
211.2000;0.1457;-0.7259;
211.5000;0.1498;-0.7058;
211.8000;0.1490;-0.7108;
212.1000;0.1498;-0.7108;
212.4000;0.1506;-0.7083;
212.7000;0.1506;-0.7133;
213.0000;0.1481;-0.7259;
213.3000;0.1514;-0.7159;
213.6000;0.1547;-0.7133;
213.9000;0.1514;-0.7259;
214.2000;0.1490;-0.7259;
214.5000;0.1506;-0.7259;
214.8000;0.1498;-0.7259;
215.1000;0.1538;-0.7133;
215.4000;0.1490;-0.7234;
215.7000;0.1506;-0.7234;
216.0000;0.1416;-0.7385;
216.3000;0.1490;-0.7209;
216.6000;0.1498;-0.7159;
216.9000;0.1457;-0.7209;
217.2000;0.1498;-0.7108;
217.5000;0.1506;-0.7083;
217.8000;0.1473;-0.7209;
218.1000;0.1473;-0.7259;
218.4000;0.1506;-0.7108;
218.7000;0.1522;-0.7083;
219.0000;0.1433;-0.7184;
219.3000;0.1498;-0.7058;
219.6000;0.1506;-0.7058;
219.9000;0.1530;-0.7008;
220.2000;0.1498;-0.7133;
220.5000;0.1490;-0.7108;
220.8000;0.1481;-0.7234;
221.1000;0.1506;-0.7159;
221.4000;0.1522;-0.7209;
221.7000;0.1498;-0.7259;
222.0000;0.1490;-0.7184;
222.3000;0.1506;-0.7259;
222.6000;0.1498;-0.7284;
222.9000;0.1538;-0.7209;
223.2000;0.1498;-0.7209;
223.5000;0.1481;-0.7259;
223.8000;0.1506;-0.7284;
224.1000;0.1514;-0.7184;
224.4000;0.1547;-0.7133;
224.7000;0.1473;-0.7259;
225.0000;0.1538;-0.7033;
225.3000;0.1498;-0.7033;
225.6000;0.1538;-0.6907;
225.9000;0.1498;-0.6983;
226.2000;0.1538;-0.7083;
226.5000;0.1595;-0.6857;
226.8000;0.1506;-0.7184;
227.1000;0.1498;-0.7234;
227.4000;0.1473;-0.7334;
227.7000;0.1522;-0.7209;
228.0000;0.1498;-0.7334;
228.3000;0.1514;-0.7234;
228.6000;0.1514;-0.7209;
228.9000;0.1530;-0.7184;
229.2000;0.1498;-0.7284;
229.5000;0.1514;-0.7184;
229.8000;0.1514;-0.7234;
230.1000;0.1522;-0.7159;
230.4000;0.1498;-0.7159;
230.7000;0.1498;-0.7058;
231.0000;0.1498;-0.7008;
231.3000;0.1530;-0.7058;
231.6000;0.1514;-0.7159;
231.9000;0.1514;-0.7184;
232.2000;0.1490;-0.7108;
232.5000;0.1490;-0.7058;
232.8000;0.1498;-0.7008;
233.1000;0.1400;-0.7259;
233.4000;0.1498;-0.6958;
233.7000;0.1490;-0.6933;
234.0000;0.1498;-0.7058;
234.3000;0.1498;-0.7083;
234.6000;0.1498;-0.7159;
234.9000;0.1538;-0.6958;
235.2000;0.1514;-0.6983;
235.5000;0.1481;-0.6983;
235.8000;0.1514;-0.6857;
236.1000;0.1506;-0.6958;
236.4000;0.1506;-0.7058;
236.7000;0.1490;-0.7058;
237.0000;0.1506;-0.7033;
237.3000;0.1506;-0.7058;
237.6000;0.1506;-0.6983;
237.9000;0.1522;-0.7008;
238.2000;0.1473;-0.7133;
238.5000;0.1498;-0.7058;
238.8000;0.1506;-0.7058;
239.1000;0.1506;-0.7058;
239.4000;0.1490;-0.7058;
239.7000;0.1547;-0.6958;
240.0000;0.1490;-0.7008;
240.3000;0.1563;-0.6857;
240.6000;0.1522;-0.7008;
240.9000;0.1506;-0.7058;
241.2000;0.1522;-0.7058;
241.5000;0.1498;-0.7108;
241.8000;0.1506;-0.6958;
242.1000;0.1506;-0.6832;
242.4000;0.1490;-0.6857;
242.7000;0.1506;-0.6782;
243.0000;0.1490;-0.6857;
243.3000;0.1473;-0.6933;
243.6000;0.1490;-0.6907;
243.9000;0.1481;-0.6882;
244.2000;0.1441;-0.6983;
244.5000;0.1498;-0.6907;
244.8000;0.1530;-0.6933;
245.1000;0.1506;-0.7058;
245.4000;0.1490;-0.6983;
245.7000;0.1506;-0.6983;
246.0000;0.1498;-0.7008;
246.3000;0.1449;-0.7133;
246.6000;0.1522;-0.6933;
246.9000;0.1506;-0.7033;
247.2000;0.1506;-0.7083;
247.5000;0.1473;-0.7083;
247.8000;0.1498;-0.6983;
248.1000;0.1506;-0.7008;
248.4000;0.1506;-0.7058;
248.7000;0.1490;-0.7033;
249.0000;0.1498;-0.7008;
249.3000;0.1490;-0.7058;
249.6000;0.1498;-0.7033;
249.9000;0.1506;-0.6907;
250.2000;0.1514;-0.6907;
250.5000;0.1498;-0.6933;
250.8000;0.1522;-0.6857;
251.1000;0.1490;-0.6958;
251.4000;0.1490;-0.6983;
251.7000;0.1490;-0.7133;
252.0000;0.1498;-0.7159;
252.3000;0.1530;-0.7008;
252.6000;0.1506;-0.7159;
252.9000;0.1514;-0.7108;
253.2000;0.1506;-0.7033;
253.5000;0.1473;-0.7008;
253.8000;0.1498;-0.6983;
254.1000;0.1506;-0.6983;
254.4000;0.1457;-0.7133;
254.7000;0.1498;-0.7108;
255.0000;0.1506;-0.7083;
255.3000;0.1506;-0.7108;
255.6000;0.1514;-0.7159;
255.9000;0.1465;-0.7309;
256.2000;0.1604;-0.6882;
256.5000;0.1506;-0.7083;
256.8000;0.1498;-0.7159;
257.1000;0.1490;-0.7209;
257.4000;0.1490;-0.7209;
257.7000;0.1490;-0.7209;
258.0000;0.1506;-0.7234;
258.3000;0.1514;-0.7159;
258.6000;0.1506;-0.7159;
258.9000;0.1538;-0.7058;
259.2000;0.1506;-0.7033;
259.5000;0.1563;-0.6907;
259.8000;0.1538;-0.7008;
260.1000;0.1522;-0.7083;
260.4000;0.1522;-0.7058;
260.7000;0.1506;-0.7133;
261.0000;0.1498;-0.7108;
261.3000;0.1498;-0.7083;
261.6000;0.1449;-0.7209;
261.9000;0.1506;-0.7184;
262.2000;0.1490;-0.7259;
262.5000;0.1490;-0.7259;
262.8000;0.1498;-0.7209;
263.1000;0.1522;-0.7159;
263.4000;0.1538;-0.7058;
263.7000;0.1498;-0.7209;
264.0000;0.1498;-0.7259;
264.3000;0.1506;-0.7133;
264.6000;0.1514;-0.7133;
264.9000;0.1498;-0.6983;
265.2000;0.1473;-0.7108;
265.5000;0.1481;-0.7133;
265.8000;0.1498;-0.7033;
266.1000;0.1514;-0.7033;
266.4000;0.1506;-0.7058;
266.7000;0.1506;-0.7108;
267.0000;0.1522;-0.7083;
267.3000;0.1514;-0.6983;
267.6000;0.1481;-0.7008;
267.9000;0.1481;-0.7058;
268.2000;0.1465;-0.7083;
268.5000;0.1490;-0.7008;
268.8000;0.1506;-0.6983;
269.1000;0.1465;-0.7133;
269.4000;0.1481;-0.7083;
269.7000;0.1473;-0.7159;
270.0000;0.1514;-0.7133;
270.3000;0.1506;-0.7184;
270.6000;0.1506;-0.7083;
270.9000;0.1579;-0.6857;
271.2000;0.1457;-0.7234;
271.5000;0.1498;-0.7033;
271.8000;0.1498;-0.6907;
272.1000;0.1506;-0.6907;
272.4000;0.1514;-0.6907;
272.7000;0.1465;-0.6983;
273.0000;0.1481;-0.6958;
273.3000;0.1481;-0.6983;
273.6000;0.1498;-0.6958;
273.9000;0.1465;-0.6958;
274.2000;0.1506;-0.6882;
274.5000;0.1506;-0.6882;
274.8000;0.1465;-0.6983;
275.1000;0.1498;-0.6782;
275.4000;0.1498;-0.6807;
275.7000;0.1514;-0.6832;
276.0000;0.1473;-0.6958;
276.3000;0.1506;-0.6907;
276.6000;0.1514;-0.6933;
276.9000;0.1498;-0.6983;
277.2000;0.1490;-0.6983;
277.5000;0.1481;-0.7033;
277.8000;0.1473;-0.6983;
278.1000;0.1481;-0.6983;
278.4000;0.1490;-0.7033;
278.7000;0.1506;-0.7008;
279.0000;0.1490;-0.7058;
279.3000;0.1481;-0.6983;
279.6000;0.1490;-0.6958;
279.9000;0.1465;-0.7108;
280.2000;0.1498;-0.6958;
280.5000;0.1498;-0.6933;
280.8000;0.1490;-0.6983;
281.1000;0.1538;-0.7008;
281.4000;0.1498;-0.7184;
281.7000;0.1506;-0.7184;
282.0000;0.1506;-0.7108;
282.3000;0.1490;-0.7033;
282.6000;0.1481;-0.7058;
282.9000;0.1522;-0.6933;
283.2000;0.1490;-0.6983;
283.5000;0.1498;-0.6983;
283.8000;0.1490;-0.7008;
284.1000;0.1514;-0.6907;
284.4000;0.1498;-0.6958;
284.7000;0.1563;-0.6832;
285.0000;0.1481;-0.7033;
285.3000;0.1498;-0.7033;
285.6000;0.1425;-0.7209;
285.9000;0.1498;-0.7108;
286.2000;0.1498;-0.7083;
286.5000;0.1498;-0.7058;
286.8000;0.1490;-0.7133;
287.1000;0.1547;-0.7033;
287.4000;0.1506;-0.6933;
287.7000;0.1506;-0.6933;
288.0000;0.1481;-0.6882;
288.3000;0.1506;-0.6907;
288.6000;0.1498;-0.6933;
288.9000;0.1514;-0.6933;
289.2000;0.1522;-0.6958;
289.5000;0.1506;-0.7133;
289.8000;0.1506;-0.7058;
290.1000;0.1498;-0.7133;
290.4000;0.1514;-0.7033;
290.7000;0.1490;-0.7083;
291.0000;0.1490;-0.7108;
291.3000;0.1604;-0.6857;
291.6000;0.1514;-0.7033;
291.9000;0.1514;-0.7058;
292.2000;0.1530;-0.7008;
292.5000;0.1506;-0.7033;
292.8000;0.1514;-0.7033;
293.1000;0.1498;-0.7209;
293.4000;0.1490;-0.7209;
293.7000;0.1498;-0.7133;
294.0000;0.1506;-0.7008;
294.3000;0.1530;-0.6857;
294.6000;0.1530;-0.6757;
294.9000;0.1522;-0.6782;
295.2000;0.1498;-0.6933;
295.5000;0.1506;-0.6933;
295.8000;0.1522;-0.6807;
296.1000;0.1538;-0.6807;
296.4000;0.1490;-0.6832;
296.7000;0.1498;-0.6757;
297.0000;0.1506;-0.6832;
297.3000;0.1457;-0.6882;
297.6000;0.1555;-0.6656;
297.9000;0.1538;-0.6681;
298.2000;0.1498;-0.6807;
298.5000;0.1490;-0.6807;
298.8000;0.1555;-0.6757;
299.1000;0.1563;-0.6782;
299.4000;0.1498;-0.7008;
299.7000;0.1547;-0.6882;
300.0000;0.1514;-0.6907;
300.3000;0.1506;-0.6832;
300.6000;0.1514;-0.6907;
300.9000;0.1490;-0.7033;
301.2000;0.1498;-0.6983;
301.5000;0.1506;-0.7008;
301.8000;0.1498;-0.7008;
302.1000;0.1498;-0.7008;
302.4000;0.1490;-0.7008;
302.7000;0.1514;-0.6958;
303.0000;0.1490;-0.6933;
303.3000;0.1522;-0.6832;
303.6000;0.1490;-0.6882;
303.9000;0.1506;-0.6757;
304.2000;0.1506;-0.6832;
304.5000;0.1506;-0.6832;
304.8000;0.1490;-0.6907;
305.1000;0.1498;-0.6933;
305.4000;0.1498;-0.6958;
305.7000;0.1490;-0.6983;
306.0000;0.1506;-0.7108;
306.3000;0.1506;-0.7083;
306.6000;0.1506;-0.7008;
306.9000;0.1514;-0.6958;
307.2000;0.1490;-0.6983;
307.5000;0.1490;-0.6983;
307.8000;0.1473;-0.6958;
308.1000;0.1490;-0.6933;
308.4000;0.1490;-0.6882;
308.7000;0.1514;-0.6857;
309.0000;0.1498;-0.6983;
309.3000;0.1490;-0.7033;
309.6000;0.1506;-0.6958;
309.9000;0.1514;-0.6907;
310.2000;0.1490;-0.6857;
310.5000;0.1530;-0.6832;
310.8000;0.1514;-0.6882;
311.1000;0.1449;-0.7058;
311.4000;0.1481;-0.6933;
311.7000;0.1498;-0.6933;
312.0000;0.1473;-0.6907;
312.3000;0.1465;-0.6907;
312.6000;0.1449;-0.6907;
312.9000;0.1481;-0.6857;
313.2000;0.1490;-0.6832;
313.5000;0.1490;-0.6857;
313.8000;0.1522;-0.6857;
314.1000;0.1538;-0.6832;
314.4000;0.1514;-0.6907;
314.7000;0.1498;-0.6958;
315.0000;0.1498;-0.6933;
315.3000;0.1555;-0.6782;
315.6000;0.1514;-0.6933;
315.9000;0.1506;-0.7008;
316.2000;0.1514;-0.6933;
316.5000;0.1514;-0.6832;
316.8000;0.1514;-0.6857;
317.1000;0.1498;-0.6882;
317.4000;0.1457;-0.6958;
317.7000;0.1498;-0.6857;
318.0000;0.1530;-0.6757;
318.3000;0.1571;-0.6656;
318.6000;0.1449;-0.7033;
318.9000;0.1481;-0.6933;
319.2000;0.1506;-0.6757;
319.5000;0.1433;-0.7033;
319.8000;0.1490;-0.6958;
320.1000;0.1506;-0.7058;
320.4000;0.1506;-0.7058;
320.7000;0.1498;-0.7083;
321.0000;0.1490;-0.7159;
321.3000;0.1481;-0.7259;
321.6000;0.1506;-0.7108;
321.9000;0.1490;-0.7184;
322.2000;0.1506;-0.7133;
322.5000;0.1498;-0.7033;
322.8000;0.1473;-0.7008;
323.1000;0.1498;-0.6933;
323.4000;0.1481;-0.6907;
323.7000;0.1506;-0.6882;
324.0000;0.1506;-0.6732;
324.3000;0.1441;-0.6958;
324.6000;0.1490;-0.6907;
324.9000;0.1457;-0.6983;
325.2000;0.1522;-0.6732;
325.5000;0.1498;-0.6832;
325.8000;0.1547;-0.6757;
326.1000;0.1522;-0.6857;
326.4000;0.1490;-0.6933;
326.7000;0.1506;-0.6907;
327.0000;0.1506;-0.6983;
327.3000;0.1473;-0.7108;
327.6000;0.1473;-0.7133;
327.9000;0.1490;-0.7133;
328.2000;0.1490;-0.7033;
328.5000;0.1465;-0.7058;
328.8000;0.1465;-0.7058;
329.1000;0.1498;-0.6907;
329.4000;0.1490;-0.6958;
329.7000;0.1498;-0.6933;
330.0000;0.1498;-0.6907;
330.3000;0.1481;-0.6983;
330.6000;0.1506;-0.6933;
330.9000;0.1514;-0.6907;
331.2000;0.1490;-0.6933;
331.5000;0.1587;-0.6656;
331.8000;0.1498;-0.6907;
332.1000;0.1506;-0.6958;
332.4000;0.1490;-0.7008;
332.7000;0.1555;-0.6958;
333.0000;0.1498;-0.7008;
333.3000;0.1481;-0.7033;
333.6000;0.1425;-0.7184;
333.9000;0.1473;-0.7033;
334.2000;0.1481;-0.7083;
334.5000;0.1498;-0.7033;
334.8000;0.1457;-0.7133;
335.1000;0.1473;-0.6983;
335.4000;0.1506;-0.6933;
335.7000;0.1490;-0.6933;
336.0000;0.1490;-0.6832;
336.3000;0.1498;-0.6832;
336.6000;0.1481;-0.6882;
336.9000;0.1490;-0.6933;
337.2000;0.1498;-0.6933;
337.5000;0.1465;-0.6983;
337.8000;0.1481;-0.6907;
338.1000;0.1530;-0.6857;
338.4000;0.1530;-0.6832;
338.7000;0.1498;-0.6857;
339.0000;0.1490;-0.6807;
339.3000;0.1473;-0.6958;
339.6000;0.1506;-0.6857;
339.9000;0.1498;-0.6958;
340.2000;0.1400;-0.7234;
340.5000;0.1498;-0.6907;
340.8000;0.1514;-0.6807;
341.1000;0.1514;-0.6807;
341.4000;0.1547;-0.6631;
341.7000;0.1490;-0.6857;
342.0000;0.1514;-0.6857;
342.3000;0.1530;-0.6757;
342.6000;0.1473;-0.6882;
342.9000;0.1506;-0.6857;
343.2000;0.1481;-0.6983;
343.5000;0.1481;-0.7083;
343.8000;0.1530;-0.6882;
344.1000;0.1506;-0.6907;
344.4000;0.1506;-0.6958;
344.7000;0.1530;-0.6882;
345.0000;0.1498;-0.7058;
345.3000;0.1490;-0.7008;
345.6000;0.1514;-0.6907;
345.9000;0.1498;-0.6882;
346.2000;0.1498;-0.6983;
346.5000;0.1498;-0.6882;
346.8000;0.1449;-0.7008;
347.1000;0.1522;-0.6907;
347.4000;0.1490;-0.6958;
347.7000;0.1522;-0.6933;
348.0000;0.1490;-0.6958;
348.3000;0.1441;-0.7108;
348.6000;0.1490;-0.7033;
348.9000;0.1547;-0.6958;
349.2000;0.1563;-0.6907;
349.5000;0.1498;-0.7083;
349.8000;0.1522;-0.7008;
350.1000;0.1473;-0.7159;
350.4000;0.1490;-0.7108;
350.7000;0.1498;-0.7008;
351.0000;0.1514;-0.6857;
351.3000;0.1490;-0.6958;
351.6000;0.1490;-0.6958;
351.9000;0.1481;-0.6882;
352.2000;0.1530;-0.6832;
352.5000;0.1490;-0.7058;
352.8000;0.1506;-0.7184;
353.1000;0.1473;-0.7209;
353.4000;0.1481;-0.7159;
353.7000;0.1498;-0.7058;
354.0000;0.1506;-0.7058;
354.3000;0.1498;-0.7108;
354.6000;0.1490;-0.7159;
354.9000;0.1514;-0.7108;
355.2000;0.1441;-0.7209;
355.5000;0.1514;-0.7008;
355.8000;0.1514;-0.6933;
356.1000;0.1498;-0.6983;
356.4000;0.1514;-0.7008;
356.7000;0.1416;-0.7259;
357.0000;0.1506;-0.7033;
357.3000;0.1538;-0.6882;
357.6000;0.1490;-0.6907;
357.9000;0.1506;-0.6857;
358.2000;0.1490;-0.6832;
358.5000;0.1514;-0.6807;
358.8000;0.1490;-0.6907;
359.1000;0.1498;-0.6882;
359.4000;0.1498;-0.6882;
359.7000;0.1522;-0.6832;
360.0000;0.1465;-0.6907;
360.3000;0.1473;-0.6907;
360.6000;0.1473;-0.6882;
360.9000;0.1563;-0.6631;
361.2000;0.1465;-0.6807;
361.5000;0.1506;-0.6757;
361.8000;0.1490;-0.6832;
362.1000;0.1506;-0.6807;
362.4000;0.1514;-0.6857;
362.7000;0.1481;-0.7083;
363.0000;0.1514;-0.7159;
363.3000;0.1498;-0.7209;
363.6000;0.1506;-0.7133;
363.9000;0.1506;-0.7133;
364.2000;0.1514;-0.7083;
364.5000;0.1490;-0.7234;
364.8000;0.1490;-0.7309;
365.1000;0.1604;-0.6933;
365.4000;0.1498;-0.7184;
365.7000;0.1490;-0.7159;
366.0000;0.1506;-0.7159;
366.3000;0.1498;-0.7108;
366.6000;0.1433;-0.7184;
366.9000;0.1481;-0.7058;
367.2000;0.1490;-0.6958;
367.5000;0.1498;-0.6958;
367.8000;0.1449;-0.7083;
368.1000;0.1498;-0.6958;
368.4000;0.1538;-0.6832;
368.7000;0.1481;-0.6958;
369.0000;0.1481;-0.6882;
369.3000;0.1490;-0.6933;
369.6000;0.1465;-0.6983;
369.9000;0.1522;-0.6857;
370.2000;0.1473;-0.6983;
370.5000;0.1506;-0.6933;
370.8000;0.1473;-0.7033;
371.1000;0.1473;-0.7008;
371.4000;0.1384;-0.7209;
371.7000;0.1490;-0.6958;
372.0000;0.1522;-0.6907;
372.3000;0.1481;-0.7033;
372.6000;0.1530;-0.6857;
372.9000;0.1441;-0.7083;
373.2000;0.1481;-0.6983;
373.5000;0.1490;-0.6983;
373.8000;0.1498;-0.7058;
374.1000;0.1498;-0.7108;
374.4000;0.1473;-0.7008;
374.7000;0.1490;-0.6958;
375.0000;0.1498;-0.6933;
375.3000;0.1506;-0.6933;
375.6000;0.1498;-0.6983;
375.9000;0.1506;-0.6983;
376.2000;0.1498;-0.6983;
376.5000;0.1506;-0.6832;
376.8000;0.1506;-0.6832;
377.1000;0.1498;-0.6832;
377.4000;0.1506;-0.6907;
377.7000;0.1498;-0.6983;
378.0000;0.1506;-0.7033;
378.3000;0.1490;-0.7008;
378.6000;0.1506;-0.6983;
378.9000;0.1506;-0.7033;
379.2000;0.1498;-0.6983;
379.5000;0.1498;-0.6958;
379.8000;0.1481;-0.6983;
380.1000;0.1506;-0.6907;
380.4000;0.1506;-0.6907;
380.7000;0.1490;-0.6907;
381.0000;0.1506;-0.6933;
381.3000;0.1506;-0.6882;
381.6000;0.1490;-0.6907;
381.9000;0.1498;-0.6907;
382.2000;0.1498;-0.6933;
382.5000;0.1490;-0.6983;
382.8000;0.1490;-0.7008;
383.1000;0.1506;-0.6933;
383.4000;0.1481;-0.6933;
383.7000;0.1514;-0.6983;
384.0000;0.1490;-0.7083;
384.3000;0.1490;-0.7033;
384.6000;0.1481;-0.7008;
384.9000;0.1481;-0.7083;
385.2000;0.1506;-0.7058;
385.5000;0.1498;-0.7033;
385.8000;0.1498;-0.7033;
386.1000;0.1498;-0.7033;
386.4000;0.1498;-0.7033;
386.7000;0.1473;-0.7159;
387.0000;0.1514;-0.7083;
387.3000;0.1522;-0.7033;
387.6000;0.1506;-0.7083;
387.9000;0.1506;-0.7033;
388.2000;0.1498;-0.6958;
388.5000;0.1514;-0.6958;
388.8000;0.1498;-0.6983;
389.1000;0.1498;-0.6958;
389.4000;0.1506;-0.6958;
389.7000;0.1490;-0.6983;
390.0000;0.1490;-0.6933;
390.3000;0.1514;-0.6857;
390.6000;0.1498;-0.7008;
390.9000;0.1473;-0.7133;
391.2000;0.1522;-0.7033;
391.5000;0.1506;-0.7008;
391.8000;0.1425;-0.7159;
392.1000;0.1425;-0.7033;
392.4000;0.1441;-0.7058;
392.7000;0.1490;-0.7008;
393.0000;0.1514;-0.6958;
393.3000;0.1465;-0.7033;
393.6000;0.1506;-0.7008;
393.9000;0.1522;-0.6983;
394.2000;0.1465;-0.7159;
394.5000;0.1498;-0.7133;
394.8000;0.1465;-0.7133;
395.1000;0.1490;-0.7058;
395.4000;0.1441;-0.7309;
395.7000;0.1563;-0.6857;
396.0000;0.1490;-0.7033;
396.3000;0.1506;-0.7058;
396.6000;0.1530;-0.6983;
396.9000;0.1506;-0.7033;
397.2000;0.1498;-0.6983;
397.5000;0.1490;-0.7008;
397.8000;0.1490;-0.6907;
398.1000;0.1498;-0.6832;
398.4000;0.1490;-0.6958;
398.7000;0.1490;-0.6958;
399.0000;0.1490;-0.6983;
399.3000;0.1481;-0.7058;
399.6000;0.1506;-0.7008;
399.9000;0.1498;-0.7133;
400.2000;0.1498;-0.7133;
400.5000;0.1514;-0.7058;
400.8000;0.1498;-0.7083;
401.1000;0.1481;-0.7083;
401.4000;0.1498;-0.6933;
401.7000;0.1433;-0.7033;
402.0000;0.1490;-0.6933;
402.3000;0.1506;-0.6983;
402.6000;0.1473;-0.7008;
402.9000;0.1514;-0.6933;
403.2000;0.1514;-0.6933;
403.5000;0.1506;-0.7008;
403.8000;0.1506;-0.6983;
404.1000;0.1498;-0.6958;
404.4000;0.1490;-0.6933;
404.7000;0.1481;-0.6983;
405.0000;0.1481;-0.7008;
405.3000;0.1481;-0.7184;
405.6000;0.1506;-0.7234;
405.9000;0.1514;-0.7234;
406.2000;0.1522;-0.7133;
406.5000;0.1490;-0.7133;
406.8000;0.1498;-0.7033;
407.1000;0.1514;-0.7058;
407.4000;0.1506;-0.7083;
407.7000;0.1465;-0.7133;
408.0000;0.1490;-0.7083;
408.3000;0.1514;-0.6983;
408.6000;0.1473;-0.7108;
408.9000;0.1490;-0.7108;
409.2000;0.1473;-0.7108;
409.5000;0.1506;-0.7033;
409.8000;0.1538;-0.6933;
410.1000;0.1498;-0.7033;
410.4000;0.1498;-0.7008;
410.7000;0.1522;-0.6782;
411.0000;0.1506;-0.6807;
411.3000;0.1498;-0.6832;
411.6000;0.1490;-0.6807;
411.9000;0.1506;-0.6782;
412.2000;0.1514;-0.6832;
412.5000;0.1506;-0.6958;
412.8000;0.1538;-0.6857;
413.1000;0.1547;-0.6882;
413.4000;0.1514;-0.6983;
413.7000;0.1506;-0.7058;
414.0000;0.1506;-0.7033;
414.3000;0.1514;-0.6983;
414.6000;0.1514;-0.7033;
414.9000;0.1490;-0.7108;
415.2000;0.1481;-0.7184;
415.5000;0.1506;-0.7083;
415.8000;0.1498;-0.7058;
416.1000;0.1490;-0.7108;
416.4000;0.1530;-0.7033;
416.7000;0.1506;-0.7083;
417.0000;0.1514;-0.7108;
417.3000;0.1506;-0.7159;
417.6000;0.1506;-0.7058;
417.9000;0.1498;-0.7083;
418.2000;0.1506;-0.7108;
418.5000;0.1506;-0.7184;
418.8000;0.1604;-0.6983;
419.1000;0.1490;-0.7360;
419.4000;0.1506;-0.7234;
419.7000;0.1522;-0.7184;
420.0000;0.1473;-0.7334;
420.3000;0.1498;-0.7209;
420.6000;0.1498;-0.7234;
420.9000;0.1514;-0.7259;
421.2000;0.1506;-0.7309;
421.5000;0.1490;-0.7284;
421.8000;0.1506;-0.7209;
422.1000;0.1522;-0.7184;
422.4000;0.1506;-0.7159;
422.7000;0.1490;-0.7159;
423.0000;0.1514;-0.6983;
423.3000;0.1506;-0.6882;
423.6000;0.1514;-0.6933;
423.9000;0.1490;-0.6857;
424.2000;0.1498;-0.6807;
424.5000;0.1506;-0.6782;
424.8000;0.1506;-0.6807;
425.1000;0.1498;-0.6832;
425.4000;0.1481;-0.6882;
425.7000;0.1563;-0.6857;
426.0000;0.1498;-0.7033;
426.3000;0.1506;-0.7108;
426.6000;0.1473;-0.7209;
426.9000;0.1522;-0.7058;
427.2000;0.1498;-0.7058;
427.5000;0.1490;-0.7083;
427.8000;0.1490;-0.7058;
428.1000;0.1490;-0.7008;
428.4000;0.1465;-0.6958;
428.7000;0.1514;-0.6807;
429.0000;0.1506;-0.6757;
429.3000;0.1490;-0.6782;
429.6000;0.1490;-0.6807;
429.9000;0.1498;-0.6732;
430.2000;0.1506;-0.6681;
430.5000;0.1473;-0.6807;
430.8000;0.1514;-0.6732;
431.1000;0.1481;-0.6857;
431.4000;0.1490;-0.6983;
431.7000;0.1514;-0.6933;
432.0000;0.1498;-0.6958;
432.3000;0.1465;-0.7083;
432.6000;0.1498;-0.7008;
432.9000;0.1498;-0.7058;
433.2000;0.1490;-0.7108;
433.5000;0.1498;-0.7033;
433.8000;0.1498;-0.6958;
434.1000;0.1490;-0.6907;
434.4000;0.1506;-0.6807;
434.7000;0.1481;-0.6857;
435.0000;0.1490;-0.6857;
435.3000;0.1571;-0.6681;
435.6000;0.1498;-0.6857;
435.9000;0.1514;-0.6958;
436.2000;0.1514;-0.7033;
436.5000;0.1522;-0.6933;
436.8000;0.1514;-0.6882;
437.1000;0.1465;-0.7008;
437.4000;0.1514;-0.6958;
437.7000;0.1465;-0.7033;
438.0000;0.1514;-0.6907;
438.3000;0.1490;-0.7058;
438.6000;0.1498;-0.7083;
438.9000;0.1490;-0.7083;
439.2000;0.1490;-0.7058;
439.5000;0.1490;-0.7008;
439.8000;0.1498;-0.7008;
440.1000;0.1514;-0.7008;
440.4000;0.1498;-0.7083;
440.7000;0.1465;-0.7058;
441.0000;0.1563;-0.6832;
441.3000;0.1441;-0.7108;
441.6000;0.1506;-0.7033;
441.9000;0.1506;-0.7008;
442.2000;0.1498;-0.6907;
442.5000;0.1498;-0.6983;
442.8000;0.1498;-0.7008;
443.1000;0.1481;-0.7008;
443.4000;0.1490;-0.7008;
443.7000;0.1490;-0.6933;
444.0000;0.1506;-0.6807;
444.3000;0.1490;-0.6782;
444.6000;0.1490;-0.6757;
444.9000;0.1506;-0.6732;
445.2000;0.1498;-0.6782;
445.5000;0.1498;-0.6857;
445.8000;0.1481;-0.6907;
446.1000;0.1481;-0.7133;
446.4000;0.1514;-0.7083;
446.7000;0.1498;-0.6983;
447.0000;0.1490;-0.6933;
447.3000;0.1490;-0.6857;
447.6000;0.1498;-0.6832;
447.9000;0.1514;-0.6907;
448.2000;0.1498;-0.7008;
448.5000;0.1514;-0.6907;
448.8000;0.1506;-0.6882;
449.1000;0.1498;-0.6857;
449.4000;0.1498;-0.6832;
449.7000;0.1498;-0.6807;
450.0000;0.1498;-0.6807;
450.3000;0.1506;-0.6782;
450.6000;0.1514;-0.6782;
450.9000;0.1514;-0.6832;
451.2000;0.1522;-0.6782;
451.5000;0.1514;-0.6782;
451.8000;0.1490;-0.6857;
452.1000;0.1506;-0.6882;
452.4000;0.1514;-0.6782;
452.7000;0.1506;-0.6832;
453.0000;0.1514;-0.6807;
453.3000;0.1498;-0.6782;
453.6000;0.1473;-0.6882;
453.9000;0.1506;-0.6857;
454.2000;0.1498;-0.6807;
454.5000;0.1506;-0.6857;
454.8000;0.1490;-0.6958;
455.1000;0.1530;-0.6857;
455.4000;0.1498;-0.6983;
455.7000;0.1506;-0.6983;
456.0000;0.1490;-0.7008;
456.3000;0.1441;-0.7133;
456.6000;0.1506;-0.6958;
456.9000;0.1522;-0.6983;
457.2000;0.1498;-0.7083;
457.5000;0.1506;-0.7008;
457.8000;0.1522;-0.6882;
458.1000;0.1481;-0.6907;
458.4000;0.1490;-0.6983;
458.7000;0.1538;-0.6907;
459.0000;0.1514;-0.6983;
459.3000;0.1473;-0.7108;
459.6000;0.1498;-0.7133;
459.9000;0.1514;-0.6933;
460.2000;0.1498;-0.6882;
460.5000;0.1506;-0.6907;
460.8000;0.1498;-0.6933;
461.1000;0.1351;-0.7284;
461.4000;0.1490;-0.6983;
461.7000;0.1506;-0.7058;
462.0000;0.1506;-0.7083;
462.3000;0.1490;-0.7108;
462.6000;0.1506;-0.7083;
462.9000;0.1498;-0.7083;
463.2000;0.1498;-0.7159;
463.5000;0.1498;-0.7108;
463.8000;0.1457;-0.7234;
464.1000;0.1498;-0.7184;
464.4000;0.1506;-0.7184;
464.7000;0.1514;-0.7108;
465.0000;0.1473;-0.7334;
465.3000;0.1522;-0.7133;
465.6000;0.1506;-0.7083;
465.9000;0.1604;-0.6807;
466.2000;0.1506;-0.6983;
466.5000;0.1506;-0.7008;
466.8000;0.1595;-0.6807;
467.1000;0.1514;-0.6983;
467.4000;0.1506;-0.6958;
467.7000;0.1498;-0.6933;
468.0000;0.1514;-0.6857;
468.3000;0.1506;-0.6882;
468.6000;0.1522;-0.6933;
468.9000;0.1506;-0.6983;
469.2000;0.1514;-0.6907;
469.5000;0.1498;-0.6933;
469.8000;0.1506;-0.6958;
470.1000;0.1498;-0.6882;
470.4000;0.1498;-0.6933;
470.7000;0.1498;-0.6933;
471.0000;0.1514;-0.6882;
471.3000;0.1514;-0.6933;
471.6000;0.1498;-0.6907;
471.9000;0.1514;-0.6882;
472.2000;0.1506;-0.6882;
472.5000;0.1498;-0.6983;
472.8000;0.1522;-0.6983;
473.1000;0.1514;-0.6983;
473.4000;0.1498;-0.6983;
473.7000;0.1425;-0.7209;
474.0000;0.1490;-0.7008;
474.3000;0.1481;-0.7008;
474.6000;0.1506;-0.7008;
474.9000;0.1481;-0.7108;
475.2000;0.1522;-0.6983;
475.5000;0.1498;-0.6983;
475.8000;0.1498;-0.6882;
476.1000;0.1530;-0.6958;
476.4000;0.1490;-0.7083;
476.7000;0.1498;-0.6933;
477.0000;0.1498;-0.6933;
477.3000;0.1498;-0.6907;
477.6000;0.1490;-0.6958;
477.9000;0.1473;-0.6983;
478.2000;0.1522;-0.6907;
478.5000;0.1490;-0.6933;
478.8000;0.1490;-0.7008;
479.1000;0.1490;-0.7033;
479.4000;0.1498;-0.7108;
479.7000;0.1490;-0.7209;
480.0000;0.1514;-0.7083;
480.3000;0.1490;-0.7108;
480.6000;0.1506;-0.7083;
480.9000;0.1481;-0.7033;
481.2000;0.1441;-0.7259;
481.5000;0.1490;-0.7309;
481.8000;0.1514;-0.7234;
482.1000;0.1481;-0.7309;
482.4000;0.1506;-0.7284;
482.7000;0.1449;-0.7284;
483.0000;0.1498;-0.7133;
483.3000;0.1506;-0.7108;
483.6000;0.1514;-0.7083;
483.9000;0.1514;-0.6933;
484.2000;0.1481;-0.7033;
484.5000;0.1481;-0.6933;
484.8000;0.1498;-0.6933;
485.1000;0.1490;-0.7008;
485.4000;0.1490;-0.6958;
485.7000;0.1555;-0.6807;
486.0000;0.1490;-0.6933;
486.3000;0.1433;-0.7083;
486.6000;0.1490;-0.6857;
486.9000;0.1514;-0.6782;
487.2000;0.1498;-0.6882;
487.5000;0.1490;-0.7008;
487.8000;0.1433;-0.7209;
488.1000;0.1490;-0.6983;
488.4000;0.1514;-0.6983;
488.7000;0.1498;-0.7108;
489.0000;0.1498;-0.7108;
489.3000;0.1498;-0.7159;
489.6000;0.1490;-0.7108;
489.9000;0.1498;-0.7083;
490.2000;0.1490;-0.7083;
490.5000;0.1490;-0.6983;
490.8000;0.1481;-0.6958;
491.1000;0.1530;-0.6907;
491.4000;0.1498;-0.7033;
491.7000;0.1498;-0.7058;
492.0000;0.1563;-0.6958;
492.3000;0.1514;-0.7133;
492.6000;0.1490;-0.7133;
492.9000;0.1473;-0.7058;
493.2000;0.1490;-0.7008;
493.5000;0.1490;-0.7008;
493.8000;0.1498;-0.6983;
494.1000;0.1498;-0.6983;
494.4000;0.1490;-0.7033;
494.7000;0.1481;-0.7133;
495.0000;0.1498;-0.7083;
495.3000;0.1498;-0.7083;
495.6000;0.1498;-0.7083;
495.9000;0.1514;-0.7033;
496.2000;0.1498;-0.7108;
496.5000;0.1506;-0.7108;
496.8000;0.1498;-0.7133;
497.1000;0.1506;-0.7108;
497.4000;0.1498;-0.7008;
497.7000;0.1490;-0.7083;
498.0000;0.1506;-0.7033;
498.3000;0.1530;-0.6958;
498.6000;0.1490;-0.7008;
498.9000;0.1490;-0.6983;
499.2000;0.1506;-0.6958;
499.5000;0.1481;-0.7058;
499.8000;0.1481;-0.7058;
500.1000;0.1498;-0.7083;
500.4000;0.1457;-0.7133;
500.7000;0.1481;-0.7033;
501.0000;0.1400;-0.7184;
501.3000;0.1490;-0.6983;
501.6000;0.1498;-0.7008;
501.9000;0.1490;-0.7058;
502.2000;0.1538;-0.7058;
502.5000;0.1498;-0.7133;
502.8000;0.1457;-0.7209;
503.1000;0.1538;-0.6958;
503.4000;0.1481;-0.7058;
503.7000;0.1506;-0.7008;
504.0000;0.1473;-0.7033;
504.3000;0.1408;-0.7234;
504.6000;0.1498;-0.6933;
504.9000;0.1514;-0.6907;
505.2000;0.1498;-0.6958;
505.5000;0.1514;-0.6958;
505.8000;0.1490;-0.6958;
506.1000;0.1514;-0.6958;
506.4000;0.1522;-0.6958;
506.7000;0.1465;-0.7108;
507.0000;0.1498;-0.7033;
507.3000;0.1522;-0.6983;
507.6000;0.1506;-0.7008;
507.9000;0.1498;-0.7033;
508.2000;0.1522;-0.6983;
508.5000;0.1514;-0.6882;
508.8000;0.1506;-0.6907;
509.1000;0.1579;-0.6782;
509.4000;0.1514;-0.7058;
509.7000;0.1481;-0.7033;
510.0000;0.1506;-0.6933;
510.3000;0.1506;-0.7033;
510.6000;0.1490;-0.7058;
510.9000;0.1481;-0.7058;
511.2000;0.1514;-0.6907;
511.5000;0.1498;-0.6983;
511.8000;0.1506;-0.6933;
512.1000;0.1433;-0.7259;
512.4000;0.1498;-0.7108;
512.7000;0.1506;-0.7058;
513.0000;0.1498;-0.7184;
513.3000;0.1514;-0.7133;
513.6000;0.1498;-0.7108;
513.9000;0.1506;-0.7108;
514.2000;0.1481;-0.7209;
514.5000;0.1490;-0.7209;
514.8000;0.1490;-0.7159;
515.1000;0.1498;-0.7083;
515.4000;0.1498;-0.7108;
515.7000;0.1481;-0.7058;
516.0000;0.1481;-0.7008;
516.3000;0.1490;-0.6983;
516.6000;0.1498;-0.7008;
516.9000;0.1498;-0.7058;
517.2000;0.1490;-0.7033;
517.5000;0.1538;-0.6907;
517.8000;0.1514;-0.7008;
518.1000;0.1490;-0.6983;
518.4000;0.1506;-0.6958;
518.7000;0.1571;-0.6706;
519.0000;0.1514;-0.6907;
519.3000;0.1530;-0.6907;
519.6000;0.1408;-0.7284;
519.9000;0.1490;-0.7033;
520.2000;0.1498;-0.6983;
520.5000;0.1498;-0.6958;
520.8000;0.1506;-0.6933;
521.1000;0.1498;-0.6933;
521.4000;0.1506;-0.7008;
521.7000;0.1498;-0.6983;
522.0000;0.1530;-0.7033;
522.3000;0.1481;-0.7184;
522.6000;0.1514;-0.7108;
522.9000;0.1490;-0.7159;
523.2000;0.1506;-0.7133;
523.5000;0.1498;-0.7209;
523.8000;0.1514;-0.7209;
524.1000;0.1563;-0.7033;
524.4000;0.1522;-0.7108;
524.7000;0.1498;-0.7209;
525.0000;0.1530;-0.7234;
525.3000;0.1522;-0.7234;
525.6000;0.1498;-0.7259;
525.9000;0.1506;-0.7284;
526.2000;0.1498;-0.7309;
526.5000;0.1506;-0.7259;
526.8000;0.1538;-0.7209;
527.1000;0.1522;-0.7209;
527.4000;0.1498;-0.7234;
527.7000;0.1530;-0.7159;
528.0000;0.1498;-0.7284;
528.3000;0.1579;-0.7058;
528.6000;0.1587;-0.6907;
528.9000;0.1506;-0.7033;
529.2000;0.1522;-0.7008;
529.5000;0.1490;-0.7033;
529.8000;0.1441;-0.7234;
530.1000;0.1498;-0.6983;
530.4000;0.1514;-0.6933;
530.7000;0.1514;-0.6933;
531.0000;0.1481;-0.7108;
531.3000;0.1506;-0.7058;
531.6000;0.1514;-0.7033;
531.9000;0.1522;-0.7133;
532.2000;0.1506;-0.7184;
532.5000;0.1514;-0.7159;
532.8000;0.1506;-0.7159;
533.1000;0.1481;-0.7234;
533.4000;0.1490;-0.7209;
533.7000;0.1506;-0.7209;
534.0000;0.1514;-0.7234;
534.3000;0.1490;-0.7334;
534.6000;0.1506;-0.7334;
534.9000;0.1498;-0.7259;
535.2000;0.1514;-0.7083;
535.5000;0.1514;-0.6983;
535.8000;0.1490;-0.7108;
536.1000;0.1506;-0.7159;
536.4000;0.1498;-0.7184;
536.7000;0.1498;-0.7133;
537.0000;0.1490;-0.7133;
537.3000;0.1498;-0.7159;
537.6000;0.1465;-0.7209;
537.9000;0.1506;-0.7083;
538.2000;0.1506;-0.7159;
538.5000;0.1490;-0.7209;
538.8000;0.1490;-0.7159;
539.1000;0.1530;-0.6933;
539.4000;0.1506;-0.6958;
539.7000;0.1506;-0.7083;
540.0000;0.1425;-0.7259;
540.3000;0.1481;-0.7083;
540.6000;0.1498;-0.7083;
540.9000;0.1498;-0.7108;
541.2000;0.1481;-0.7133;
541.5000;0.1538;-0.7033;
541.8000;0.1490;-0.7133;
542.1000;0.1498;-0.7083;
542.4000;0.1506;-0.7108;
542.7000;0.1481;-0.7108;
543.0000;0.1449;-0.7159;
543.3000;0.1522;-0.6907;
543.6000;0.1498;-0.7008;
543.9000;0.1522;-0.7033;
544.2000;0.1514;-0.7033;
544.5000;0.1514;-0.7108;
544.8000;0.1514;-0.7108;
545.1000;0.1490;-0.7184;
545.4000;0.1481;-0.7184;
545.7000;0.1514;-0.7083;
546.0000;0.1473;-0.7184;
546.3000;0.1506;-0.7058;
546.6000;0.1514;-0.7108;
546.9000;0.1506;-0.7159;
547.2000;0.1481;-0.7309;
547.5000;0.1481;-0.7209;
547.8000;0.1522;-0.7083;
548.1000;0.1498;-0.7108;
548.4000;0.1571;-0.6857;
548.7000;0.1498;-0.7008;
549.0000;0.1490;-0.6983;
549.3000;0.1506;-0.6933;
549.6000;0.1498;-0.7033;
549.9000;0.1490;-0.7058;
550.2000;0.1498;-0.7108;
550.5000;0.1490;-0.7058;
550.8000;0.1522;-0.7033;
551.1000;0.1481;-0.7083;
551.4000;0.1457;-0.7108;
551.7000;0.1490;-0.7083;
552.0000;0.1490;-0.7159;
552.3000;0.1490;-0.7108;
552.6000;0.1433;-0.7209;
552.9000;0.1441;-0.7209;
553.2000;0.1490;-0.7133;
553.5000;0.1490;-0.7184;
553.8000;0.1498;-0.7159;
554.1000;0.1498;-0.7184;
554.4000;0.1498;-0.7184;
554.7000;0.1498;-0.7209;
555.0000;0.1490;-0.7133;
555.3000;0.1498;-0.7083;
555.6000;0.1514;-0.7083;
555.9000;0.1563;-0.6983;
556.2000;0.1514;-0.7033;
556.5000;0.1498;-0.7083;
556.8000;0.1433;-0.7259;
557.1000;0.1473;-0.7133;
557.4000;0.1530;-0.6958;
557.7000;0.1514;-0.7108;
558.0000;0.1514;-0.7033;
558.3000;0.1465;-0.7184;
558.6000;0.1506;-0.7108;
558.9000;0.1498;-0.7159;
559.2000;0.1498;-0.7133;
559.5000;0.1481;-0.7259;
559.8000;0.1490;-0.7284;
560.1000;0.1498;-0.7234;
560.4000;0.1490;-0.7259;
560.7000;0.1506;-0.7209;
561.0000;0.1506;-0.7259;
561.3000;0.1498;-0.7259;
561.6000;0.1506;-0.7083;
561.9000;0.1481;-0.7033;
562.2000;0.1522;-0.6882;
562.5000;0.1522;-0.6807;
562.8000;0.1498;-0.6933;
563.1000;0.1433;-0.7083;
563.4000;0.1498;-0.6832;
563.7000;0.1506;-0.6832;
564.0000;0.1514;-0.6706;
564.3000;0.1530;-0.6706;
564.6000;0.1490;-0.6732;
564.9000;0.1506;-0.6732;
565.2000;0.1506;-0.6782;
565.5000;0.1481;-0.6907;
565.8000;0.1498;-0.6933;
566.1000;0.1408;-0.7159;
566.4000;0.1481;-0.6958;
566.7000;0.1457;-0.6933;
567.0000;0.1522;-0.6782;
567.3000;0.1490;-0.6907;
567.6000;0.1498;-0.6933;
567.9000;0.1490;-0.6857;
568.2000;0.1490;-0.6857;
568.5000;0.1498;-0.6882;
568.8000;0.1473;-0.6882;
569.1000;0.1506;-0.6907;
569.4000;0.1498;-0.7033;
569.7000;0.1473;-0.7209;
570.0000;0.1506;-0.7184;
570.3000;0.1473;-0.7309;
570.6000;0.1498;-0.7259;
570.9000;0.1514;-0.7259;
571.2000;0.1506;-0.7284;
571.5000;0.1490;-0.7360;
571.8000;0.1498;-0.7284;
572.1000;0.1506;-0.7159;
572.4000;0.1563;-0.6857;
572.7000;0.1490;-0.7008;
573.0000;0.1530;-0.6882;
573.3000;0.1498;-0.7058;
573.6000;0.1514;-0.7033;
573.9000;0.1530;-0.7083;
574.2000;0.1498;-0.7234;
574.5000;0.1400;-0.7410;
574.8000;0.1490;-0.7184;
575.1000;0.1481;-0.7033;
575.4000;0.1498;-0.6958;
575.7000;0.1465;-0.6983;
576.0000;0.1481;-0.6882;
576.3000;0.1514;-0.6782;
576.6000;0.1457;-0.7008;
576.9000;0.1498;-0.7008;
577.2000;0.1490;-0.7058;
577.5000;0.1498;-0.7083;
577.8000;0.1457;-0.7184;
578.1000;0.1514;-0.7133;
578.4000;0.1481;-0.7234;
578.7000;0.1425;-0.7259;
579.0000;0.1490;-0.6933;
579.3000;0.1425;-0.7083;
579.6000;0.1506;-0.6983;
579.9000;0.1481;-0.7058;
580.2000;0.1522;-0.6958;
580.5000;0.1490;-0.7108;
580.8000;0.1547;-0.6933;
581.1000;0.1473;-0.7058;
581.4000;0.1530;-0.6882;
581.7000;0.1481;-0.7008;
582.0000;0.1498;-0.6983;
582.3000;0.1595;-0.6732;
582.6000;0.1473;-0.6933;
582.9000;0.1490;-0.6958;
583.2000;0.1498;-0.6907;
583.5000;0.1498;-0.6983;
583.8000;0.1498;-0.6907;
584.1000;0.1490;-0.6832;
584.4000;0.1465;-0.6933;
584.7000;0.1473;-0.6857;
585.0000;0.1498;-0.6832;
585.3000;0.1465;-0.6907;
585.6000;0.1481;-0.6857;
585.9000;0.1490;-0.6857;
586.2000;0.1481;-0.6857;
586.5000;0.1490;-0.6732;
586.8000;0.1490;-0.6757;
587.1000;0.1498;-0.6832;
587.4000;0.1498;-0.6882;
587.7000;0.1506;-0.6857;
588.0000;0.1473;-0.6933;
588.3000;0.1481;-0.6958;
588.6000;0.1498;-0.6983;
588.9000;0.1498;-0.6933;
589.2000;0.1490;-0.7108;
589.5000;0.1490;-0.7234;
589.8000;0.1506;-0.7159;
590.1000;0.1522;-0.7033;
590.4000;0.1490;-0.7133;
590.7000;0.1481;-0.7083;
591.0000;0.1490;-0.7083;
591.3000;0.1465;-0.7108;
591.6000;0.1481;-0.7058;
591.9000;0.1490;-0.6983;
592.2000;0.1465;-0.7058;
592.5000;0.1465;-0.7083;
592.8000;0.1490;-0.7033;
593.1000;0.1514;-0.6983;
593.4000;0.1522;-0.7033;
593.7000;0.1481;-0.7108;
594.0000;0.1514;-0.6983;
594.3000;0.1490;-0.7033;
594.6000;0.1490;-0.6983;
594.9000;0.1433;-0.7133;
595.2000;0.1490;-0.6958;
595.5000;0.1457;-0.7058;
595.8000;0.1498;-0.7058;
596.1000;0.1481;-0.7033;
596.4000;0.1538;-0.6807;
596.7000;0.1522;-0.6782;
597.0000;0.1490;-0.6857;
597.3000;0.1473;-0.7008;
597.6000;0.1506;-0.6832;
597.9000;0.1506;-0.6832;
598.2000;0.1514;-0.6882;
598.5000;0.1498;-0.6907;
598.8000;0.1530;-0.6782;
599.1000;0.1498;-0.6907;
599.4000;0.1457;-0.7033;
599.7000;0.1490;-0.7033;
600.0000;0.1498;-0.6983;
600.3000;0.1490;-0.7159;
600.6000;0.1441;-0.7360;
600.9000;0.1449;-0.7485;
601.2000;0.1465;-0.7535;
601.5000;0.1465;-0.7586;
601.8000;0.1481;-0.7636;
602.1000;0.1441;-0.7912;
602.4000;0.1433;-0.8038;
602.7000;0.1514;-0.7912;
603.0000;0.1433;-0.8188;
603.3000;0.1457;-0.8214;
603.6000;0.1433;-0.8440;
603.9000;0.1408;-0.8540;
604.2000;0.1416;-0.8615;
604.5000;0.1376;-0.8816;
604.8000;0.1327;-0.9042;
605.1000;0.1392;-0.8942;
605.4000;0.1359;-0.9093;
605.7000;0.1384;-0.9017;
606.0000;0.1376;-0.9042;
606.3000;0.1384;-0.9118;
606.6000;0.1376;-0.9319;
606.9000;0.1286;-0.9645;
607.2000;0.1343;-0.9545;
607.5000;0.1335;-0.9620;
607.8000;0.1351;-0.9620;
608.1000;0.1384;-0.9495;
608.4000;0.1359;-0.9545;
608.7000;0.1368;-0.9469;
609.0000;0.1351;-0.9495;
609.3000;0.1368;-0.9394;
609.6000;0.1359;-0.9419;
609.9000;0.1351;-0.9419;
610.2000;0.1359;-0.9419;
610.5000;0.1351;-0.9394;
610.8000;0.1319;-0.9444;
611.1000;0.1376;-0.9369;
611.4000;0.1351;-0.9545;
611.7000;0.1351;-0.9570;
612.0000;0.1343;-0.9570;
612.3000;0.1359;-0.9520;
612.6000;0.1343;-0.9595;
612.9000;0.1400;-0.9268;
613.2000;0.1359;-0.9243;
613.5000;0.1335;-0.9294;
613.8000;0.1368;-0.9268;
614.1000;0.1327;-0.9294;
614.4000;0.1351;-0.9218;
614.7000;0.1351;-0.9294;
615.0000;0.1376;-0.9243;
615.3000;0.1335;-0.9394;
615.6000;0.1368;-0.9369;
615.9000;0.1368;-0.9469;
616.2000;0.1335;-0.9595;
616.5000;0.1327;-0.9545;
616.8000;0.1351;-0.9419;
617.1000;0.1351;-0.9394;
617.4000;0.1302;-0.9469;
617.7000;0.1319;-0.9369;
618.0000;0.1351;-0.9344;
618.3000;0.1278;-0.9570;
618.6000;0.1359;-0.9369;
618.9000;0.1327;-0.9444;
619.2000;0.1359;-0.9520;
619.5000;0.1351;-0.9495;
619.8000;0.1327;-0.9495;
620.1000;0.1343;-0.9344;
620.4000;0.1286;-0.9495;
620.7000;0.1335;-0.9319;
621.0000;0.1335;-0.9319;
621.3000;0.1278;-0.9545;
621.6000;0.1327;-0.9444;
621.9000;0.1351;-0.9469;
622.2000;0.1351;-0.9595;
622.5000;0.1343;-0.9645;
622.8000;0.1351;-0.9595;
623.1000;0.1343;-0.9520;
623.4000;0.1335;-0.9545;
623.7000;0.1368;-0.9620;
624.0000;0.1327;-0.9796;
624.3000;0.1343;-0.9771;
624.6000;0.1359;-0.9796;
624.9000;0.1416;-0.9620;
625.2000;0.1343;-0.9796;
625.5000;0.1351;-0.9771;
625.8000;0.1294;-0.9922;
626.1000;0.1343;-0.9821;
626.4000;0.1319;-0.9896;
626.7000;0.1343;-0.9871;
627.0000;0.1335;-0.9896;
627.3000;0.1351;-0.9796;
627.6000;0.1327;-0.9846;
627.9000;0.1327;-0.9721;
628.2000;0.1351;-0.9620;
628.5000;0.1335;-0.9670;
628.8000;0.1400;-0.9520;
629.1000;0.1359;-0.9595;
629.4000;0.1343;-0.9595;
629.7000;0.1343;-0.9595;
630.0000;0.1294;-0.9670;
630.3000;0.1319;-0.9645;
630.6000;0.1319;-0.9620;
630.9000;0.1433;-0.9394;
631.2000;0.1368;-0.9695;
631.5000;0.1294;-0.9846;
631.8000;0.1294;-0.9871;
632.1000;0.1359;-0.9746;
632.4000;0.1335;-0.9771;
632.7000;0.1319;-0.9796;
633.0000;0.1351;-0.9670;
633.3000;0.1384;-0.9595;
633.6000;0.1335;-0.9670;
633.9000;0.1302;-0.9796;
634.2000;0.1425;-0.9545;
634.5000;0.1359;-0.9746;
634.8000;0.1351;-0.9670;
635.1000;0.1359;-0.9620;
635.4000;0.1351;-0.9721;
635.7000;0.1359;-0.9796;
636.0000;0.1311;-0.9997;
636.3000;0.1327;-0.9846;
636.6000;0.1343;-0.9871;
636.9000;0.1343;-0.9871;
637.2000;0.1368;-0.9896;
637.5000;0.1351;-0.9821;
637.8000;0.1343;-0.9846;
638.1000;0.1351;-0.9695;
638.4000;0.1368;-0.9670;
638.7000;0.1335;-0.9796;
639.0000;0.1351;-0.9796;
639.3000;0.1311;-0.9922;
639.6000;0.1343;-0.9922;
639.9000;0.1319;-0.9997;
640.2000;0.1335;-0.9871;
640.5000;0.1286;-0.9997;
640.8000;0.1327;-0.9896;
641.1000;0.1343;-0.9871;
641.4000;0.1327;-0.9896;
641.7000;0.1311;-0.9947;
642.0000;0.1327;-0.9846;
642.3000;0.1351;-0.9846;
642.6000;0.1343;-0.9846;
642.9000;0.1335;-0.9871;
643.2000;0.1343;-0.9821;
643.5000;0.1237;-1.0148;
643.8000;0.1335;-0.9771;
644.1000;0.1327;-0.9871;
644.4000;0.1311;-0.9922;
644.7000;0.1335;-0.9896;
645.0000;0.1343;-0.9896;
645.3000;0.1319;-0.9922;
645.6000;0.1327;-0.9871;
645.9000;0.1343;-0.9871;
646.2000;0.1335;-0.9846;
646.5000;0.1343;-0.9896;
646.8000;0.1343;-0.9947;
647.1000;0.1351;-0.9947;
647.4000;0.1335;-0.9972;
647.7000;0.1343;-0.9972;
648.0000;0.1343;-0.9972;
648.3000;0.1335;-0.9821;
648.6000;0.1351;-0.9821;
648.9000;0.1262;-1.0047;
649.2000;0.1335;-0.9972;
649.5000;0.1343;-0.9846;
649.8000;0.1343;-0.9746;
650.1000;0.1335;-0.9821;
650.4000;0.1335;-0.9896;
650.7000;0.1335;-0.9896;
651.0000;0.1335;-0.9922;
651.3000;0.1335;-0.9947;
651.6000;0.1311;-0.9972;
651.9000;0.1327;-0.9947;
652.2000;0.1351;-0.9922;
652.5000;0.1343;-0.9947;
652.8000;0.1327;-0.9972;
653.1000;0.1327;-1.0047;
653.4000;0.1384;-0.9871;
653.7000;0.1351;-0.9947;
654.0000;0.1351;-0.9972;
654.3000;0.1343;-0.9997;
654.6000;0.1351;-1.0072;
654.9000;0.1335;-1.0173;
655.2000;0.1343;-1.0047;
655.5000;0.1294;-1.0122;
655.8000;0.1368;-0.9821;
656.1000;0.1302;-0.9997;
656.4000;0.1319;-0.9997;
656.7000;0.1319;-1.0072;
657.0000;0.1302;-1.0047;
657.3000;0.1327;-1.0097;
657.6000;0.1368;-0.9922;
657.9000;0.1327;-0.9947;
658.2000;0.1351;-0.9896;
658.5000;0.1311;-0.9972;
658.8000;0.1327;-0.9896;
659.1000;0.1384;-0.9746;
659.4000;0.1327;-0.9771;
659.7000;0.1311;-0.9896;
660.0000;0.1351;-0.9796;
660.3000;0.1319;-0.9796;
660.6000;0.1311;-0.9796;
660.9000;0.1302;-0.9771;
661.2000;0.1335;-0.9645;
661.5000;0.1327;-0.9670;
661.8000;0.1327;-0.9595;
662.1000;0.1311;-0.9570;
662.4000;0.1311;-0.9595;
662.7000;0.1335;-0.9620;
663.0000;0.1327;-0.9721;
663.3000;0.1319;-0.9670;
663.6000;0.1351;-0.9620;
663.9000;0.1351;-0.9645;
664.2000;0.1335;-0.9645;
664.5000;0.1319;-0.9721;
664.8000;0.1343;-0.9695;
665.1000;0.1351;-0.9645;
665.4000;0.1311;-0.9746;
665.7000;0.1311;-0.9796;
666.0000;0.1335;-0.9721;
666.3000;0.1311;-0.9695;
666.6000;0.1335;-0.9570;
666.9000;0.1343;-0.9570;
667.2000;0.1343;-0.9645;
667.5000;0.1335;-0.9645;
667.8000;0.1319;-0.9595;
668.1000;0.1343;-0.9595;
668.4000;0.1327;-0.9645;
668.7000;0.1343;-0.9570;
669.0000;0.1351;-0.9444;
669.3000;0.1327;-0.9570;
669.6000;0.1343;-0.9645;
669.9000;0.1351;-0.9645;
670.2000;0.1351;-0.9570;
670.5000;0.1335;-0.9595;
670.8000;0.1327;-0.9620;
671.1000;0.1327;-0.9545;
671.4000;0.1319;-0.9645;
671.7000;0.1262;-0.9821;
672.0000;0.1376;-0.9645;
672.3000;0.1376;-0.9570;
672.6000;0.1343;-0.9620;
672.9000;0.1335;-0.9620;
673.2000;0.1327;-0.9620;
673.5000;0.1343;-0.9570;
673.8000;0.1327;-0.9620;
674.1000;0.1327;-0.9469;
674.4000;0.1294;-0.9595;
674.7000;0.1311;-0.9595;
675.0000;0.1343;-0.9545;
675.3000;0.1400;-0.9419;
675.6000;0.1343;-0.9495;
675.9000;0.1359;-0.9444;
676.2000;0.1319;-0.9645;
676.5000;0.1368;-0.9545;
676.8000;0.1408;-0.9419;
677.1000;0.1335;-0.9570;
677.4000;0.1376;-0.9545;
677.7000;0.1351;-0.9520;
678.0000;0.1368;-0.9520;
678.3000;0.1327;-0.9545;
678.6000;0.1319;-0.9670;
678.9000;0.1335;-0.9645;
679.2000;0.1368;-0.9595;
679.5000;0.1343;-0.9620;
679.8000;0.1302;-0.9746;
680.1000;0.1368;-0.9695;
680.4000;0.1343;-0.9645;
680.7000;0.1343;-0.9746;
681.0000;0.1319;-0.9821;
681.3000;0.1335;-0.9746;
681.6000;0.1384;-0.9545;
681.9000;0.1270;-0.9896;
682.2000;0.1319;-0.9721;
682.5000;0.1294;-0.9896;
682.8000;0.1368;-0.9645;
683.1000;0.1343;-0.9695;
683.4000;0.1335;-0.9721;
683.7000;0.1286;-0.9947;
684.0000;0.1351;-0.9821;
684.3000;0.1335;-0.9871;
684.6000;0.1311;-0.9871;
684.9000;0.1327;-0.9796;
685.2000;0.1343;-0.9796;
685.5000;0.1335;-0.9771;
685.8000;0.1343;-0.9796;
686.1000;0.1327;-0.9871;
686.4000;0.1319;-0.9771;
686.7000;0.1327;-0.9796;
687.0000;0.1311;-0.9821;
687.3000;0.1311;-0.9846;
687.6000;0.1335;-0.9746;
687.9000;0.1343;-0.9771;
688.2000;0.1335;-0.9796;
688.5000;0.1302;-0.9846;
688.8000;0.1343;-0.9746;
689.1000;0.1319;-0.9695;
689.4000;0.1384;-0.9495;
689.7000;0.1335;-0.9620;
690.0000;0.1327;-0.9595;
690.3000;0.1327;-0.9695;
690.6000;0.1335;-0.9771;
690.9000;0.1327;-0.9896;
691.2000;0.1335;-0.9922;
691.5000;0.1335;-0.9846;
691.8000;0.1351;-0.9846;
692.1000;0.1343;-0.9896;
692.4000;0.1335;-0.9896;
692.7000;0.1302;-0.9896;
693.0000;0.1335;-0.9771;
693.3000;0.1343;-0.9695;
693.6000;0.1384;-0.9595;
693.9000;0.1319;-0.9670;
694.2000;0.1327;-0.9721;
694.5000;0.1351;-0.9595;
694.8000;0.1286;-0.9746;
695.1000;0.1327;-0.9695;
695.4000;0.1319;-0.9746;
695.7000;0.1384;-0.9620;
696.0000;0.1335;-0.9871;
696.3000;0.1368;-0.9796;
696.6000;0.1327;-0.9846;
696.9000;0.1351;-0.9846;
697.2000;0.1327;-0.9796;
697.5000;0.1392;-0.9620;
697.8000;0.1327;-0.9796;
698.1000;0.1335;-0.9695;
698.4000;0.1302;-0.9796;
698.7000;0.1319;-0.9721;
699.0000;0.1327;-0.9695;
699.3000;0.1327;-0.9670;
699.6000;0.1343;-0.9595;
699.9000;0.1311;-0.9645;
700.2000;0.1311;-0.9595;
700.5000;0.1294;-0.9695;
700.8000;0.1335;-0.9670;
701.1000;0.1327;-0.9695;
701.4000;0.1294;-0.9771;
701.7000;0.1327;-0.9771;
702.0000;0.1319;-0.9821;
702.3000;0.1327;-0.9771;
702.6000;0.1319;-0.9771;
702.9000;0.1327;-0.9796;
703.2000;0.1376;-0.9670;
703.5000;0.1351;-0.9721;
703.8000;0.1327;-0.9721;
704.1000;0.1319;-0.9620;
704.4000;0.1343;-0.9570;
704.7000;0.1319;-0.9620;
705.0000;0.1351;-0.9645;
705.3000;0.1327;-0.9721;
705.6000;0.1327;-0.9721;
705.9000;0.1237;-0.9997;
706.2000;0.1335;-0.9771;
706.5000;0.1327;-0.9796;
706.8000;0.1351;-0.9896;
707.1000;0.1343;-0.9821;
707.4000;0.1311;-0.9896;
707.7000;0.1311;-0.9947;
708.0000;0.1327;-0.9922;
708.3000;0.1343;-0.9871;
708.6000;0.1327;-0.9896;
708.9000;0.1311;-0.9947;
709.2000;0.1245;-1.0148;
709.5000;0.1335;-0.9846;
709.8000;0.1319;-0.9846;
710.1000;0.1335;-0.9771;
710.4000;0.1384;-0.9670;
710.7000;0.1327;-0.9771;
711.0000;0.1351;-0.9695;
711.3000;0.1408;-0.9520;
711.6000;0.1327;-0.9695;
711.9000;0.1335;-0.9595;
712.2000;0.1351;-0.9620;
712.5000;0.1335;-0.9695;
712.8000;0.1335;-0.9721;
713.1000;0.1368;-0.9645;
713.4000;0.1327;-0.9670;
713.7000;0.1351;-0.9695;
714.0000;0.1335;-0.9796;
714.3000;0.1384;-0.9620;
714.6000;0.1343;-0.9721;
714.9000;0.1327;-0.9746;
715.2000;0.1327;-0.9796;
715.5000;0.1327;-0.9771;
715.8000;0.1343;-0.9721;
716.1000;0.1335;-0.9796;
716.4000;0.1311;-0.9746;
716.7000;0.1327;-0.9746;
717.0000;0.1294;-0.9771;
717.3000;0.1335;-0.9695;
717.6000;0.1343;-0.9695;
717.9000;0.1343;-0.9695;
718.2000;0.1351;-0.9670;
718.5000;0.1335;-0.9721;
718.8000;0.1278;-0.9821;
719.1000;0.1327;-0.9746;
719.4000;0.1319;-0.9746;
719.7000;0.1384;-0.9595;
720.0000;0.1327;-0.9721;
720.3000;0.1335;-0.9746;
720.6000;0.1368;-0.9695;
720.9000;0.1327;-0.9821;
721.2000;0.1335;-0.9695;
721.5000;0.1311;-0.9846;
721.8000;0.1286;-0.9846;
722.1000;0.1343;-0.9746;
722.4000;0.1343;-0.9721;
722.7000;0.1335;-0.9746;
723.0000;0.1351;-0.9746;
723.3000;0.1327;-0.9796;
723.6000;0.1327;-0.9771;
723.9000;0.1319;-0.9771;
724.2000;0.1327;-0.9721;
724.5000;0.1327;-0.9620;
724.8000;0.1343;-0.9545;
725.1000;0.1351;-0.9620;
725.4000;0.1311;-0.9670;
725.7000;0.1335;-0.9570;
726.0000;0.1343;-0.9545;
726.3000;0.1343;-0.9595;
726.6000;0.1343;-0.9620;
726.9000;0.1343;-0.9570;
727.2000;0.1335;-0.9595;
727.5000;0.1335;-0.9620;
727.8000;0.1343;-0.9670;
728.1000;0.1335;-0.9620;
728.4000;0.1335;-0.9771;
728.7000;0.1335;-0.9871;
729.0000;0.1327;-0.9846;
729.3000;0.1351;-0.9796;
729.6000;0.1343;-0.9821;
729.9000;0.1343;-0.9821;
730.2000;0.1343;-0.9746;
730.5000;0.1319;-0.9771;
730.8000;0.1335;-0.9721;
731.1000;0.1359;-0.9570;
731.4000;0.1335;-0.9595;
731.7000;0.1327;-0.9695;
732.0000;0.1351;-0.9695;
732.3000;0.1376;-0.9595;
732.6000;0.1319;-0.9771;
732.9000;0.1335;-0.9771;
733.2000;0.1294;-0.9871;
733.5000;0.1327;-0.9796;
733.8000;0.1278;-0.9871;
734.1000;0.1294;-0.9821;
734.4000;0.1319;-0.9746;
734.7000;0.1327;-0.9821;
735.0000;0.1368;-0.9721;
735.3000;0.1392;-0.9670;
735.6000;0.1311;-0.9821;
735.9000;0.1311;-0.9846;
736.2000;0.1376;-0.9570;
736.5000;0.1327;-0.9746;
736.8000;0.1319;-0.9821;
737.1000;0.1311;-0.9896;
737.4000;0.1335;-0.9922;
737.7000;0.1335;-0.9846;
738.0000;0.1319;-0.9972;
738.3000;0.1368;-0.9922;
738.6000;0.1343;-0.9871;
738.9000;0.1319;-0.9896;
739.2000;0.1327;-0.9771;
739.5000;0.1311;-0.9746;
739.8000;0.1327;-0.9746;
740.1000;0.1343;-0.9620;
740.4000;0.1343;-0.9545;
740.7000;0.1335;-0.9545;
741.0000;0.1351;-0.9495;
741.3000;0.1335;-0.9570;
741.6000;0.1319;-0.9670;
741.9000;0.1327;-0.9670;
742.2000;0.1327;-0.9620;
742.5000;0.1327;-0.9545;
742.8000;0.1335;-0.9595;
743.1000;0.1335;-0.9595;
743.4000;0.1319;-0.9595;
743.7000;0.1343;-0.9721;
744.0000;0.1376;-0.9670;
744.3000;0.1319;-0.9871;
744.6000;0.1302;-0.9947;
744.9000;0.1319;-0.9871;
745.2000;0.1335;-0.9821;
745.5000;0.1351;-0.9796;
745.8000;0.1335;-0.9896;
746.1000;0.1327;-0.9871;
746.4000;0.1335;-0.9821;
746.7000;0.1335;-0.9922;
747.0000;0.1335;-0.9972;
747.3000;0.1327;-0.9972;
747.6000;0.1335;-0.9771;
747.9000;0.1319;-0.9771;
748.2000;0.1319;-0.9746;
748.5000;0.1368;-0.9721;
748.8000;0.1319;-0.9846;
749.1000;0.1343;-0.9846;
749.4000;0.1335;-0.9821;
749.7000;0.1319;-0.9846;
750.0000;0.1302;-0.9846;
750.3000;0.1351;-0.9645;
750.6000;0.1384;-0.9444;
750.9000;0.1376;-0.9495;
751.2000;0.1327;-0.9645;
751.5000;0.1376;-0.9595;
751.8000;0.1335;-0.9721;
752.1000;0.1351;-0.9695;
752.4000;0.1351;-0.9922;
752.7000;0.1335;-1.0022;
753.0000;0.1335;-0.9972;
753.3000;0.1343;-0.9947;
753.6000;0.1384;-0.9846;
753.9000;0.1351;-0.9896;
754.2000;0.1400;-0.9721;
754.5000;0.1335;-0.9922;
754.8000;0.1270;-1.0097;
755.1000;0.1327;-1.0022;
755.4000;0.1319;-1.0022;
755.7000;0.1335;-1.0022;
756.0000;0.1327;-1.0122;
756.3000;0.1343;-1.0022;
756.6000;0.1335;-1.0097;
756.9000;0.1327;-1.0173;
757.2000;0.1319;-1.0072;
757.5000;0.1311;-1.0047;
757.8000;0.1335;-1.0072;
758.1000;0.1335;-1.0047;
758.4000;0.1359;-0.9922;
758.7000;0.1311;-1.0047;
759.0000;0.1327;-0.9896;
759.3000;0.1343;-0.9846;
759.6000;0.1335;-0.9846;
759.9000;0.1335;-0.9796;
760.2000;0.1327;-0.9846;
760.5000;0.1343;-0.9896;
760.8000;0.1351;-0.9796;
761.1000;0.1335;-0.9796;
761.4000;0.1335;-0.9796;
761.7000;0.1327;-0.9796;
762.0000;0.1351;-0.9871;
762.3000;0.1335;-0.9846;
762.6000;0.1359;-0.9746;
762.9000;0.1343;-0.9871;
763.2000;0.1319;-0.9846;
763.5000;0.1319;-0.9846;
763.8000;0.1327;-0.9821;
764.1000;0.1327;-0.9721;
764.4000;0.1327;-0.9670;
764.7000;0.1319;-0.9721;
765.0000;0.1351;-0.9620;
765.3000;0.1376;-0.9645;
765.6000;0.1335;-0.9846;
765.9000;0.1343;-0.9922;
766.2000;0.1335;-0.9846;
766.5000;0.1327;-0.9821;
766.8000;0.1351;-0.9821;
767.1000;0.1351;-0.9821;
767.4000;0.1335;-0.9871;
767.7000;0.1343;-0.9796;
768.0000;0.1441;-0.9645;
768.3000;0.1327;-0.9871;
768.6000;0.1335;-0.9871;
768.9000;0.1327;-0.9871;
769.2000;0.1327;-0.9846;
769.5000;0.1327;-0.9796;
769.8000;0.1335;-0.9771;
770.1000;0.1327;-0.9796;
770.4000;0.1335;-0.9771;
770.7000;0.1327;-0.9746;
771.0000;0.1327;-0.9771;
771.3000;0.1311;-0.9896;
771.6000;0.1327;-0.9972;
771.9000;0.1294;-1.0047;
772.2000;0.1327;-0.9947;
772.5000;0.1351;-0.9821;
772.8000;0.1327;-0.9796;
773.1000;0.1319;-0.9821;
773.4000;0.1343;-0.9796;
773.7000;0.1286;-0.9922;
774.0000;0.1408;-0.9595;
774.3000;0.1335;-0.9796;
774.6000;0.1294;-0.9947;
774.9000;0.1343;-0.9771;
775.2000;0.1319;-0.9796;
775.5000;0.1376;-0.9595;
775.8000;0.1351;-0.9670;
776.1000;0.1270;-0.9896;
776.4000;0.1343;-0.9746;
776.7000;0.1351;-0.9796;
777.0000;0.1319;-0.9846;
777.3000;0.1311;-0.9896;
777.6000;0.1327;-0.9821;
777.9000;0.1335;-0.9746;
778.2000;0.1327;-0.9771;
778.5000;0.1359;-0.9645;
778.8000;0.1335;-0.9746;
779.1000;0.1343;-0.9846;
779.4000;0.1335;-0.9846;
779.7000;0.1327;-0.9871;
780.0000;0.1327;-0.9821;
780.3000;0.1278;-0.9871;
780.6000;0.1351;-0.9796;
780.9000;0.1335;-0.9746;
781.2000;0.1327;-0.9721;
781.5000;0.1327;-0.9670;
781.8000;0.1319;-0.9645;
782.1000;0.1343;-0.9645;
782.4000;0.1311;-0.9695;
782.7000;0.1335;-0.9721;
783.0000;0.1351;-0.9670;
783.3000;0.1343;-0.9620;
783.6000;0.1335;-0.9620;
783.9000;0.1335;-0.9670;
784.2000;0.1343;-0.9721;
784.5000;0.1368;-0.9821;
784.8000;0.1351;-0.9695;
785.1000;0.1319;-0.9670;
785.4000;0.1335;-0.9645;
785.7000;0.1343;-0.9670;
786.0000;0.1335;-0.9746;
786.3000;0.1343;-0.9695;
786.6000;0.1327;-0.9771;
786.9000;0.1335;-0.9746;
787.2000;0.1311;-0.9771;
787.5000;0.1319;-0.9796;
787.8000;0.1319;-0.9846;
788.1000;0.1335;-0.9721;
788.4000;0.1327;-0.9670;
788.7000;0.1343;-0.9545;
789.0000;0.1270;-0.9645;
789.3000;0.1359;-0.9444;
789.6000;0.1335;-0.9469;
789.9000;0.1319;-0.9620;
790.2000;0.1343;-0.9595;
790.5000;0.1335;-0.9645;
790.8000;0.1335;-0.9645;
791.1000;0.1311;-0.9620;
791.4000;0.1335;-0.9570;
791.7000;0.1327;-0.9695;
792.0000;0.1327;-0.9746;
792.3000;0.1351;-0.9570;
792.6000;0.1327;-0.9695;
792.9000;0.1351;-0.9595;
793.2000;0.1335;-0.9595;
793.5000;0.1351;-0.9645;
793.8000;0.1327;-0.9796;
794.1000;0.1343;-0.9922;
794.4000;0.1368;-0.9846;
794.7000;0.1359;-0.9771;
795.0000;0.1327;-0.9796;
795.3000;0.1343;-0.9721;
795.6000;0.1319;-0.9670;
795.9000;0.1335;-0.9695;
796.2000;0.1376;-0.9570;
796.5000;0.1368;-0.9520;
796.8000;0.1278;-0.9746;
797.1000;0.1327;-0.9570;
797.4000;0.1335;-0.9620;
797.7000;0.1400;-0.9394;
798.0000;0.1319;-0.9620;
798.3000;0.1335;-0.9545;
798.6000;0.1351;-0.9520;
798.9000;0.1327;-0.9495;
799.2000;0.1335;-0.9419;
799.5000;0.1359;-0.9444;
799.8000;0.1392;-0.9444;
800.1000;0.1400;-0.9419;
800.4000;0.1286;-0.9670;
800.7000;0.1319;-0.9545;
801.0000;0.1392;-0.9344;
801.3000;0.1327;-0.9419;
801.6000;0.1343;-0.9520;
801.9000;0.1335;-0.9570;
802.2000;0.1327;-0.9645;
802.5000;0.1319;-0.9670;
802.8000;0.1351;-0.9645;
803.1000;0.1368;-0.9695;
803.4000;0.1319;-0.9771;
803.7000;0.1343;-0.9670;
804.0000;0.1351;-0.9620;
804.3000;0.1335;-0.9620;
804.6000;0.1327;-0.9670;
804.9000;0.1335;-0.9670;
805.2000;0.1335;-0.9721;
805.5000;0.1384;-0.9520;
805.8000;0.1351;-0.9570;
806.1000;0.1302;-0.9645;
806.4000;0.1359;-0.9469;
806.7000;0.1311;-0.9695;
807.0000;0.1270;-0.9821;
807.3000;0.1294;-0.9721;
807.6000;0.1327;-0.9645;
807.9000;0.1327;-0.9695;
808.2000;0.1311;-0.9771;
808.5000;0.1343;-0.9645;
808.8000;0.1351;-0.9645;
809.1000;0.1392;-0.9520;
809.4000;0.1335;-0.9670;
809.7000;0.1327;-0.9670;
810.0000;0.1335;-0.9620;
810.3000;0.1335;-0.9620;
810.6000;0.1335;-0.9620;
810.9000;0.1319;-0.9746;
811.2000;0.1335;-0.9695;
811.5000;0.1319;-0.9771;
811.8000;0.1376;-0.9620;
812.1000;0.1319;-0.9721;
812.4000;0.1311;-0.9695;
812.7000;0.1335;-0.9645;
813.0000;0.1311;-0.9796;
813.3000;0.1302;-0.9771;
813.6000;0.1335;-0.9721;
813.9000;0.1368;-0.9721;
814.2000;0.1311;-0.9796;
814.5000;0.1343;-0.9821;
814.8000;0.1327;-0.9821;
815.1000;0.1335;-0.9771;
815.4000;0.1327;-0.9846;
815.7000;0.1408;-0.9595;
816.0000;0.1343;-0.9746;
816.3000;0.1368;-0.9620;
816.6000;0.1335;-0.9695;
816.9000;0.1302;-0.9771;
817.2000;0.1335;-0.9620;
817.5000;0.1327;-0.9595;
817.8000;0.1335;-0.9520;
818.1000;0.1319;-0.9570;
818.4000;0.1351;-0.9595;
818.7000;0.1327;-0.9721;
819.0000;0.1327;-0.9721;
819.3000;0.1335;-0.9695;
819.6000;0.1343;-0.9645;
819.9000;0.1351;-0.9570;
820.2000;0.1343;-0.9595;
820.5000;0.1343;-0.9595;
820.8000;0.1327;-0.9746;
821.1000;0.1319;-0.9695;
821.4000;0.1335;-0.9620;
821.7000;0.1400;-0.9469;
822.0000;0.1294;-0.9721;
822.3000;0.1335;-0.9721;
822.6000;0.1327;-0.9746;
822.9000;0.1368;-0.9670;
823.2000;0.1286;-0.9871;
823.5000;0.1335;-0.9695;
823.8000;0.1270;-0.9846;
824.1000;0.1335;-0.9721;
824.4000;0.1351;-0.9595;
824.7000;0.1351;-0.9645;
825.0000;0.1408;-0.9469;
825.3000;0.1359;-0.9545;
825.6000;0.1343;-0.9645;
825.9000;0.1319;-0.9896;
826.2000;0.1351;-0.9821;
826.5000;0.1327;-0.9871;
826.8000;0.1343;-0.9871;
827.1000;0.1319;-0.9947;
827.4000;0.1302;-0.9947;
827.7000;0.1335;-0.9796;
828.0000;0.1400;-0.9620;
828.3000;0.1311;-0.9821;
828.6000;0.1327;-0.9771;
828.9000;0.1359;-0.9645;
829.2000;0.1335;-0.9746;
829.5000;0.1319;-0.9771;
829.8000;0.1351;-0.9695;
830.1000;0.1311;-0.9695;
830.4000;0.1368;-0.9620;
830.7000;0.1343;-0.9695;
831.0000;0.1327;-0.9645;
831.3000;0.1319;-0.9721;
831.6000;0.1327;-0.9695;
831.9000;0.1327;-0.9670;
832.2000;0.1335;-0.9771;
832.5000;0.1327;-0.9821;
832.8000;0.1335;-0.9821;
833.1000;0.1343;-0.9721;
833.4000;0.1327;-0.9796;
833.7000;0.1343;-0.9746;
834.0000;0.1343;-0.9670;
834.3000;0.1343;-0.9570;
834.6000;0.1359;-0.9595;
834.9000;0.1343;-0.9670;
835.2000;0.1335;-0.9695;
835.5000;0.1343;-0.9771;
835.8000;0.1343;-0.9821;
836.1000;0.1311;-0.9922;
836.4000;0.1335;-0.9821;
836.7000;0.1327;-0.9871;
837.0000;0.1343;-0.9821;
837.3000;0.1335;-0.9796;
837.6000;0.1335;-0.9746;
837.9000;0.1245;-0.9972;
838.2000;0.1327;-0.9645;
838.5000;0.1343;-0.9570;
838.8000;0.1335;-0.9645;
839.1000;0.1351;-0.9620;
839.4000;0.1359;-0.9570;
839.7000;0.1319;-0.9695;
840.0000;0.1335;-0.9721;
840.3000;0.1335;-0.9721;
840.6000;0.1351;-0.9695;
840.9000;0.1335;-0.9721;
841.2000;0.1319;-0.9746;
841.5000;0.1327;-0.9771;
841.8000;0.1327;-0.9771;
842.1000;0.1327;-0.9871;
842.4000;0.1327;-0.9846;
842.7000;0.1359;-0.9721;
843.0000;0.1392;-0.9595;
843.3000;0.1343;-0.9620;
843.6000;0.1351;-0.9645;
843.9000;0.1335;-0.9721;
844.2000;0.1294;-0.9821;
844.5000;0.1335;-0.9670;
844.8000;0.1343;-0.9645;
845.1000;0.1368;-0.9620;
845.4000;0.1319;-0.9670;
845.7000;0.1311;-0.9721;
846.0000;0.1433;-0.9394;
846.3000;0.1343;-0.9670;
846.6000;0.1319;-0.9670;
846.9000;0.1294;-0.9746;
847.2000;0.1408;-0.9444;
847.5000;0.1286;-0.9670;
847.8000;0.1319;-0.9545;
848.1000;0.1302;-0.9595;
848.4000;0.1335;-0.9520;
848.7000;0.1351;-0.9419;
849.0000;0.1302;-0.9545;
849.3000;0.1286;-0.9645;
849.6000;0.1327;-0.9570;
849.9000;0.1327;-0.9545;
850.2000;0.1343;-0.9369;
850.5000;0.1319;-0.9469;
850.8000;0.1351;-0.9444;
851.1000;0.1327;-0.9469;
851.4000;0.1327;-0.9570;
851.7000;0.1343;-0.9570;
852.0000;0.1351;-0.9645;
852.3000;0.1343;-0.9645;
852.6000;0.1327;-0.9746;
852.9000;0.1335;-0.9771;
853.2000;0.1335;-0.9871;
853.5000;0.1351;-0.9896;
853.8000;0.1335;-0.9997;
854.1000;0.1335;-0.9997;
854.4000;0.1335;-0.9972;
854.7000;0.1319;-1.0022;
855.0000;0.1343;-0.9871;
855.3000;0.1408;-0.9670;
855.6000;0.1343;-0.9896;
855.9000;0.1368;-0.9922;
856.2000;0.1311;-1.0148;
856.5000;0.1327;-1.0072;
856.8000;0.1311;-1.0047;
857.1000;0.1343;-1.0022;
857.4000;0.1319;-0.9972;
857.7000;0.1319;-0.9922;
858.0000;0.1294;-0.9896;
858.3000;0.1327;-0.9746;
858.6000;0.1335;-0.9771;
858.9000;0.1400;-0.9620;
859.2000;0.1359;-0.9746;
859.5000;0.1335;-0.9746;
859.8000;0.1335;-0.9896;
860.1000;0.1351;-0.9771;
860.4000;0.1343;-0.9721;
860.7000;0.1319;-0.9821;
861.0000;0.1302;-0.9821;
861.3000;0.1343;-0.9796;
861.6000;0.1359;-0.9746;
861.9000;0.1384;-0.9645;
862.2000;0.1351;-0.9670;
862.5000;0.1335;-0.9645;
862.8000;0.1335;-0.9670;
863.1000;0.1327;-0.9645;
863.4000;0.1343;-0.9595;
863.7000;0.1327;-0.9695;
864.0000;0.1343;-0.9595;
864.3000;0.1327;-0.9645;
864.6000;0.1359;-0.9620;
864.9000;0.1335;-0.9695;
865.2000;0.1343;-0.9645;
865.5000;0.1359;-0.9645;
865.8000;0.1384;-0.9520;
866.1000;0.1335;-0.9645;
866.4000;0.1335;-0.9771;
866.7000;0.1327;-0.9846;
867.0000;0.1335;-0.9746;
867.3000;0.1343;-0.9746;
867.6000;0.1311;-0.9821;
867.9000;0.1302;-0.9871;
868.2000;0.1327;-0.9796;
868.5000;0.1376;-0.9695;
868.8000;0.1335;-0.9821;
869.1000;0.1335;-0.9796;
869.4000;0.1351;-0.9821;
869.7000;0.1359;-0.9721;
870.0000;0.1368;-0.9645;
870.3000;0.1351;-0.9645;
870.6000;0.1343;-0.9746;
870.9000;0.1376;-0.9746;
871.2000;0.1368;-0.9796;
871.5000;0.1368;-0.9721;
871.8000;0.1335;-0.9771;
872.1000;0.1335;-0.9821;
872.4000;0.1343;-0.9871;
872.7000;0.1351;-0.9796;
873.0000;0.1368;-0.9721;
873.3000;0.1335;-0.9796;
873.6000;0.1335;-0.9846;
873.9000;0.1335;-0.9821;
874.2000;0.1335;-0.9846;
874.5000;0.1351;-0.9796;
874.8000;0.1368;-0.9846;
875.1000;0.1351;-0.9997;
875.4000;0.1319;-1.0097;
875.7000;0.1327;-0.9972;
876.0000;0.1327;-0.9947;
876.3000;0.1286;-0.9871;
876.6000;0.1343;-0.9746;
876.9000;0.1327;-0.9771;
877.2000;0.1335;-0.9796;
877.5000;0.1343;-0.9821;
877.8000;0.1335;-0.9821;
878.1000;0.1327;-0.9821;
878.4000;0.1351;-0.9771;
878.7000;0.1343;-0.9871;
879.0000;0.1343;-0.9896;
879.3000;0.1319;-0.9947;
879.6000;0.1351;-0.9821;
879.9000;0.1311;-0.9871;
880.2000;0.1335;-0.9721;
880.5000;0.1343;-0.9670;
880.8000;0.1327;-0.9670;
881.1000;0.1302;-0.9645;
881.4000;0.1335;-0.9620;
881.7000;0.1319;-0.9670;
882.0000;0.1327;-0.9721;
882.3000;0.1335;-0.9771;
882.6000;0.1351;-0.9846;
882.9000;0.1278;-1.0097;
883.2000;0.1343;-0.9922;
883.5000;0.1343;-0.9896;
883.8000;0.1327;-0.9871;
884.1000;0.1335;-0.9796;
884.4000;0.1343;-0.9695;
884.7000;0.1343;-0.9771;
885.0000;0.1343;-0.9922;
885.3000;0.1335;-0.9972;
885.6000;0.1351;-0.9896;
885.9000;0.1400;-0.9771;
886.2000;0.1343;-0.9997;
886.5000;0.1335;-1.0097;
886.8000;0.1335;-1.0097;
887.1000;0.1343;-0.9972;
887.4000;0.1327;-0.9972;
887.7000;0.1319;-0.9997;
888.0000;0.1335;-0.9922;
888.3000;0.1359;-0.9746;
888.6000;0.1319;-0.9796;
888.9000;0.1343;-0.9746;
889.2000;0.1343;-0.9796;
889.5000;0.1335;-0.9821;
889.8000;0.1327;-0.9922;
890.1000;0.1327;-0.9947;
890.4000;0.1319;-0.9796;
890.7000;0.1311;-0.9796;
891.0000;0.1319;-0.9695;
891.3000;0.1368;-0.9520;
891.6000;0.1335;-0.9620;
891.9000;0.1311;-0.9670;
892.2000;0.1286;-0.9746;
892.5000;0.1335;-0.9645;
892.8000;0.1359;-0.9570;
893.1000;0.1335;-0.9620;
893.4000;0.1335;-0.9645;
893.7000;0.1319;-0.9695;
894.0000;0.1335;-0.9595;
894.3000;0.1327;-0.9570;
894.6000;0.1343;-0.9645;
894.9000;0.1327;-0.9620;
895.2000;0.1335;-0.9620;
895.5000;0.1311;-0.9721;
895.8000;0.1319;-0.9796;
896.1000;0.1327;-0.9796;
896.4000;0.1335;-0.9746;
896.7000;0.1351;-0.9796;
897.0000;0.1343;-0.9796;
897.3000;0.1359;-0.9721;
897.6000;0.1327;-0.9746;
897.9000;0.1343;-0.9771;
898.2000;0.1319;-0.9796;
898.5000;0.1327;-0.9746;
898.8000;0.1327;-0.9695;
899.1000;0.1416;-0.9469;
899.4000;0.1343;-0.9620;
899.7000;0.1343;-0.9620;
900.0000;0.1335;-0.9520;
900.3000;0.1221;-1.0022;
900.6000;0.1335;-0.9771;
900.9000;0.1335;-0.9771;
901.2000;0.1327;-0.9670;
901.5000;0.1351;-0.9645;
901.8000;0.1351;-0.9595;
902.1000;0.1343;-0.9645;
902.4000;0.1327;-0.9595;
902.7000;0.1327;-0.9595;
903.0000;0.1343;-0.9645;
903.3000;0.1327;-0.9796;
903.6000;0.1335;-0.9796;
903.9000;0.1319;-0.9771;
904.2000;0.1335;-0.9746;
904.5000;0.1327;-0.9721;
904.8000;0.1302;-0.9771;
905.1000;0.1302;-0.9695;
905.4000;0.1343;-0.9469;
905.7000;0.1327;-0.9545;
906.0000;0.1311;-0.9545;
906.3000;0.1343;-0.9520;
906.6000;0.1351;-0.9469;
906.9000;0.1327;-0.9469;
907.2000;0.1319;-0.9595;
907.5000;0.1343;-0.9570;
907.8000;0.1335;-0.9620;
908.1000;0.1343;-0.9670;
908.4000;0.1335;-0.9746;
908.7000;0.1311;-0.9771;
909.0000;0.1384;-0.9520;
909.3000;0.1343;-0.9620;
909.6000;0.1351;-0.9545;
909.9000;0.1335;-0.9394;
910.2000;0.1351;-0.9394;
910.5000;0.1343;-0.9394;
910.8000;0.1343;-0.9319;
911.1000;0.1343;-0.9394;
911.4000;0.1343;-0.9595;
911.7000;0.1392;-0.9570;
912.0000;0.1465;-0.9419;
912.3000;0.1343;-0.9670;
912.6000;0.1335;-0.9695;
912.9000;0.1376;-0.9670;
913.2000;0.1368;-0.9595;
913.5000;0.1319;-0.9721;
913.8000;0.1343;-0.9620;
914.1000;0.1343;-0.9595;
914.4000;0.1335;-0.9620;
914.7000;0.1343;-0.9520;
915.0000;0.1270;-0.9821;
915.3000;0.1449;-0.9369;
915.6000;0.1335;-0.9695;
915.9000;0.1343;-0.9821;
916.2000;0.1408;-0.9670;
916.5000;0.1335;-0.9846;
916.8000;0.1359;-0.9821;
917.1000;0.1343;-1.0022;
917.4000;0.1327;-1.0148;
917.7000;0.1335;-1.0047;
918.0000;0.1425;-0.9796;
918.3000;0.1311;-0.9997;
918.6000;0.1335;-0.9846;
918.9000;0.1327;-0.9821;
919.2000;0.1319;-0.9947;
919.5000;0.1368;-0.9821;
919.8000;0.1343;-0.9771;
920.1000;0.1327;-0.9746;
920.4000;0.1335;-0.9645;
920.7000;0.1335;-0.9570;
921.0000;0.1368;-0.9520;
921.3000;0.1343;-0.9670;
921.6000;0.1343;-0.9771;
921.9000;0.1343;-0.9721;
922.2000;0.1433;-0.9394;
922.5000;0.1359;-0.9620;
922.8000;0.1351;-0.9620;
923.1000;0.1327;-0.9645;
923.4000;0.1376;-0.9495;
923.7000;0.1359;-0.9595;
924.0000;0.1343;-0.9670;
924.3000;0.1506;-0.9344;
924.6000;0.1343;-0.9771;
924.9000;0.1327;-0.9670;
925.2000;0.1335;-0.9695;
925.5000;0.1335;-0.9645;
925.8000;0.1351;-0.9495;
926.1000;0.1319;-0.9695;
926.4000;0.1327;-0.9695;
926.7000;0.1327;-0.9771;
927.0000;0.1327;-0.9821;
927.3000;0.1343;-0.9796;
927.6000;0.1319;-0.9846;
927.9000;0.1327;-0.9821;
928.2000;0.1343;-0.9670;
928.5000;0.1319;-0.9746;
928.8000;0.1376;-0.9620;
929.1000;0.1335;-0.9746;
929.4000;0.1335;-0.9771;
929.7000;0.1351;-0.9746;
930.0000;0.1343;-0.9746;
930.3000;0.1343;-0.9670;
930.6000;0.1343;-0.9595;
930.9000;0.1408;-0.9394;
931.2000;0.1335;-0.9620;
931.5000;0.1359;-0.9570;
931.8000;0.1343;-0.9695;
932.1000;0.1335;-0.9721;
932.4000;0.1351;-0.9670;
932.7000;0.1351;-0.9645;
933.0000;0.1294;-0.9846;
933.3000;0.1351;-0.9595;
933.6000;0.1343;-0.9645;
933.9000;0.1335;-0.9746;
934.2000;0.1343;-0.9645;
934.5000;0.1359;-0.9520;
934.8000;0.1343;-0.9520;
935.1000;0.1343;-0.9595;
935.4000;0.1335;-0.9595;
935.7000;0.1335;-0.9595;
936.0000;0.1384;-0.9444;
936.3000;0.1359;-0.9520;
936.6000;0.1327;-0.9545;
936.9000;0.1327;-0.9545;
937.2000;0.1351;-0.9495;
937.5000;0.1311;-0.9670;
937.8000;0.1327;-0.9645;
938.1000;0.1359;-0.9595;
938.4000;0.1327;-0.9695;
938.7000;0.1327;-0.9695;
939.0000;0.1270;-0.9796;
939.3000;0.1343;-0.9695;
939.6000;0.1351;-0.9721;
939.9000;0.1335;-0.9796;
940.2000;0.1400;-0.9695;
940.5000;0.1343;-0.9871;
940.8000;0.1351;-0.9821;
941.1000;0.1359;-0.9871;
941.4000;0.1351;-0.9922;
941.7000;0.1262;-1.0248;
942.0000;0.1335;-0.9947;
942.3000;0.1327;-0.9821;
942.6000;0.1351;-0.9771;
942.9000;0.1327;-0.9771;
943.2000;0.1351;-0.9595;
943.5000;0.1351;-0.9620;
943.8000;0.1327;-0.9620;
944.1000;0.1286;-0.9620;
944.4000;0.1311;-0.9595;
944.7000;0.1335;-0.9595;
945.0000;0.1335;-0.9695;
945.3000;0.1327;-0.9746;
945.6000;0.1302;-0.9695;
945.9000;0.1343;-0.9595;
946.2000;0.1376;-0.9469;
946.5000;0.1311;-0.9595;
946.8000;0.1343;-0.9620;
947.1000;0.1294;-0.9695;
947.4000;0.1343;-0.9721;
947.7000;0.1408;-0.9595;
948.0000;0.1343;-0.9771;
948.3000;0.1302;-0.9721;
948.6000;0.1335;-0.9620;
948.9000;0.1335;-0.9595;
949.2000;0.1319;-0.9595;
949.5000;0.1400;-0.9444;
949.8000;0.1335;-0.9670;
950.1000;0.1343;-0.9721;
950.4000;0.1335;-0.9695;
950.7000;0.1392;-0.9520;
951.0000;0.1335;-0.9595;
951.3000;0.1359;-0.9520;
951.6000;0.1343;-0.9520;
951.9000;0.1327;-0.9620;
952.2000;0.1335;-0.9645;
952.5000;0.1335;-0.9645;
952.8000;0.1319;-0.9645;
953.1000;0.1311;-0.9645;
953.4000;0.1327;-0.9570;
953.7000;0.1319;-0.9595;
954.0000;0.1286;-0.9746;
954.3000;0.1319;-0.9620;
954.6000;0.1327;-0.9595;
954.9000;0.1335;-0.9520;
955.2000;0.1311;-0.9645;
955.5000;0.1327;-0.9620;
955.8000;0.1319;-0.9695;
956.1000;0.1441;-0.9444;
956.4000;0.1335;-0.9620;
956.7000;0.1343;-0.9520;
957.0000;0.1327;-0.9444;
957.3000;0.1319;-0.9495;
957.6000;0.1335;-0.9469;
957.9000;0.1351;-0.9520;
958.2000;0.1335;-0.9495;
958.5000;0.1359;-0.9344;
958.8000;0.1335;-0.9444;
959.1000;0.1311;-0.9469;
959.4000;0.1335;-0.9394;
959.7000;0.1335;-0.9469;
960.0000;0.1384;-0.9369;
960.3000;0.1359;-0.9344;
960.6000;0.1319;-0.9419;
960.9000;0.1319;-0.9444;
961.2000;0.1319;-0.9444;
961.5000;0.1376;-0.9344;
961.8000;0.1335;-0.9419;
962.1000;0.1262;-0.9670;
962.4000;0.1327;-0.9444;
962.7000;0.1327;-0.9520;
963.0000;0.1278;-0.9746;
963.3000;0.1335;-0.9545;
963.6000;0.1343;-0.9344;
963.9000;0.1359;-0.9143;
964.2000;0.1343;-0.9319;
964.5000;0.1343;-0.9419;
964.8000;0.1327;-0.9419;
965.1000;0.1343;-0.9520;
965.4000;0.1351;-0.9570;
965.7000;0.1368;-0.9495;
966.0000;0.1343;-0.9495;
966.3000;0.1351;-0.9520;
966.6000;0.1319;-0.9620;
966.9000;0.1343;-0.9645;
967.2000;0.1343;-0.9645;
967.5000;0.1433;-0.9369;
967.8000;0.1351;-0.9595;
968.1000;0.1335;-0.9695;
968.4000;0.1335;-0.9695;
968.7000;0.1343;-0.9721;
969.0000;0.1335;-0.9821;
969.3000;0.1335;-0.9796;
969.6000;0.1335;-0.9796;
969.9000;0.1327;-0.9796;
970.2000;0.1343;-0.9796;
970.5000;0.1343;-0.9871;
970.8000;0.1335;-0.9871;
971.1000;0.1335;-0.9871;
971.4000;0.1319;-0.9846;
971.7000;0.1327;-0.9846;
972.0000;0.1327;-0.9871;
972.3000;0.1327;-0.9771;
972.6000;0.1335;-0.9771;
972.9000;0.1368;-0.9645;
973.2000;0.1327;-0.9695;
973.5000;0.1335;-0.9721;
973.8000;0.1343;-0.9695;
974.1000;0.1327;-0.9821;
974.4000;0.1351;-0.9670;
974.7000;0.1335;-0.9721;
975.0000;0.1327;-0.9796;
975.3000;0.1343;-0.9746;
975.6000;0.1335;-0.9746;
975.9000;0.1343;-0.9746;
976.2000;0.1327;-0.9846;
976.5000;0.1343;-0.9896;
976.8000;0.1351;-0.9846;
977.1000;0.1359;-0.9846;
977.4000;0.1327;-0.9821;
977.7000;0.1335;-0.9771;
978.0000;0.1359;-0.9746;
978.3000;0.1335;-0.9871;
978.6000;0.1319;-0.9871;
978.9000;0.1294;-0.9922;
979.2000;0.1335;-0.9821;
979.5000;0.1319;-0.9922;
979.8000;0.1343;-0.9947;
980.1000;0.1335;-0.9922;
980.4000;0.1351;-0.9771;
980.7000;0.1335;-0.9771;
981.0000;0.1351;-0.9645;
981.3000;0.1359;-0.9645;
981.6000;0.1311;-0.9695;
981.9000;0.1319;-0.9670;
982.2000;0.1343;-0.9645;
982.5000;0.1294;-0.9620;
982.8000;0.1327;-0.9595;
983.1000;0.1327;-0.9595;
983.4000;0.1335;-0.9695;
983.7000;0.1319;-0.9695;
984.0000;0.1392;-0.9520;
984.3000;0.1351;-0.9570;
984.6000;0.1351;-0.9545;
984.9000;0.1286;-0.9645;
985.2000;0.1327;-0.9595;
985.5000;0.1368;-0.9595;
985.8000;0.1384;-0.9495;
986.1000;0.1351;-0.9419;
986.4000;0.1311;-0.9545;
986.7000;0.1359;-0.9595;
987.0000;0.1400;-0.9520;
987.3000;0.1343;-0.9645;
987.6000;0.1294;-0.9771;
987.9000;0.1343;-0.9695;
988.2000;0.1327;-0.9645;
988.5000;0.1262;-0.9821;
988.8000;0.1343;-0.9620;
989.1000;0.1327;-0.9545;
989.4000;0.1319;-0.9570;
989.7000;0.1335;-0.9469;
990.0000;0.1327;-0.9344;
990.3000;0.1335;-0.9243;
990.6000;0.1319;-0.9294;
990.9000;0.1343;-0.9268;
991.2000;0.1327;-0.9294;
991.5000;0.1327;-0.9319;
991.8000;0.1286;-0.9444;
992.1000;0.1319;-0.9394;
992.4000;0.1270;-0.9645;
992.7000;0.1335;-0.9520;
993.0000;0.1351;-0.9469;
993.3000;0.1400;-0.9344;
993.6000;0.1343;-0.9394;
993.9000;0.1343;-0.9469;
994.2000;0.1335;-0.9469;
994.5000;0.1335;-0.9520;
994.8000;0.1335;-0.9570;
995.1000;0.1335;-0.9545;
995.4000;0.1335;-0.9595;
995.7000;0.1368;-0.9570;
996.0000;0.1359;-0.9570;
996.3000;0.1343;-0.9495;
996.6000;0.1327;-0.9545;
996.9000;0.1319;-0.9570;
997.2000;0.1229;-0.9771;
997.5000;0.1335;-0.9570;
997.8000;0.1335;-0.9595;
998.1000;0.1302;-0.9670;
998.4000;0.1319;-0.9645;
998.7000;0.1327;-0.9570;
999.0000;0.1327;-0.9545;
999.3000;0.1319;-0.9570;
999.6000;0.1327;-0.9520;
999.9000;0.1327;-0.9520;
1000.2000;0.1311;-0.9545;
1000.5000;0.1359;-0.9444;
1000.8000;0.1327;-0.9645;
1001.1000;0.1359;-0.9520;
1001.4000;0.1319;-0.9520;
1001.7000;0.1319;-0.9469;
1002.0000;0.1335;-0.9419;
1002.3000;0.1311;-0.9595;
1002.6000;0.1335;-0.9620;
1002.9000;0.1376;-0.9495;
1003.2000;0.1319;-0.9620;
1003.5000;0.1327;-0.9620;
1003.8000;0.1327;-0.9645;
1004.1000;0.1335;-0.9620;
1004.4000;0.1319;-0.9670;
1004.7000;0.1343;-0.9595;
1005.0000;0.1335;-0.9520;
1005.3000;0.1335;-0.9495;
1005.6000;0.1343;-0.9570;
1005.9000;0.1343;-0.9595;
1006.2000;0.1294;-0.9721;
1006.5000;0.1335;-0.9570;
1006.8000;0.1311;-0.9595;
1007.1000;0.1319;-0.9545;
1007.4000;0.1368;-0.9495;
1007.7000;0.1335;-0.9595;
1008.0000;0.1319;-0.9570;
1008.3000;0.1408;-0.9344;
1008.6000;0.1343;-0.9620;
1008.9000;0.1343;-0.9570;
1009.2000;0.1376;-0.9394;
1009.5000;0.1343;-0.9369;
1009.8000;0.1311;-0.9394;
1010.1000;0.1343;-0.9419;
1010.4000;0.1319;-0.9495;
1010.7000;0.1343;-0.9469;
1011.0000;0.1343;-0.9369;
1011.3000;0.1327;-0.9469;
1011.6000;0.1270;-0.9545;
1011.9000;0.1319;-0.9520;
1012.2000;0.1335;-0.9570;
1012.5000;0.1359;-0.9645;
1012.8000;0.1335;-0.9620;
1013.1000;0.1237;-0.9871;
1013.4000;0.1368;-0.9495;
1013.7000;0.1392;-0.9444;
1014.0000;0.1351;-0.9645;
1014.3000;0.1302;-0.9821;
1014.6000;0.1335;-0.9746;
1014.9000;0.1343;-0.9746;
1015.2000;0.1376;-0.9595;
1015.5000;0.1327;-0.9645;
1015.8000;0.1327;-0.9620;
1016.1000;0.1270;-0.9846;
1016.4000;0.1376;-0.9595;
1016.7000;0.1368;-0.9746;
1017.0000;0.1327;-0.9846;
1017.3000;0.1311;-0.9846;
1017.6000;0.1351;-0.9645;
1017.9000;0.1327;-0.9746;
1018.2000;0.1400;-0.9595;
1018.5000;0.1335;-0.9846;
1018.8000;0.1237;-1.0097;
1019.1000;0.1368;-0.9771;
1019.4000;0.1327;-0.9846;
1019.7000;0.1359;-0.9746;
1020.0000;0.1343;-0.9746;
1020.3000;0.1359;-0.9670;
1020.6000;0.1359;-0.9670;
1020.9000;0.1294;-0.9821;
1021.2000;0.1425;-0.9469;
1021.5000;0.1343;-0.9670;
1021.8000;0.1302;-0.9846;
1022.1000;0.1351;-0.9670;
1022.4000;0.1359;-0.9695;
1022.7000;0.1400;-0.9545;
1023.0000;0.1319;-0.9771;
1023.3000;0.1343;-0.9695;
1023.6000;0.1335;-0.9670;
1023.9000;0.1351;-0.9595;
1024.2000;0.1343;-0.9620;
1024.5000;0.1343;-0.9595;
1024.8000;0.1278;-0.9746;
1025.1000;0.1343;-0.9595;
1025.4000;0.1319;-0.9570;
1025.7000;0.1319;-0.9520;
1026.0000;0.1327;-0.9419;
1026.3000;0.1335;-0.9444;
1026.6000;0.1327;-0.9419;
1026.9000;0.1319;-0.9419;
1027.2000;0.1351;-0.9469;
1027.5000;0.1335;-0.9545;
1027.8000;0.1335;-0.9444;
1028.1000;0.1327;-0.9545;
1028.4000;0.1311;-0.9595;
1028.7000;0.1335;-0.9369;
1029.0000;0.1327;-0.9369;
1029.3000;0.1343;-0.9469;
1029.6000;0.1343;-0.9545;
1029.9000;0.1359;-0.9469;
1030.2000;0.1327;-0.9520;
1030.5000;0.1327;-0.9495;
1030.8000;0.1343;-0.9394;
1031.1000;0.1351;-0.9294;
1031.4000;0.1368;-0.9369;
1031.7000;0.1343;-0.9469;
1032.0000;0.1351;-0.9545;
1032.3000;0.1319;-0.9520;
1032.6000;0.1359;-0.9419;
1032.9000;0.1343;-0.9394;
1033.2000;0.1327;-0.9319;
1033.5000;0.1335;-0.9294;
1033.8000;0.1311;-0.9394;
1034.1000;0.1335;-0.9369;
1034.4000;0.1327;-0.9394;
1034.7000;0.1343;-0.9419;
1035.0000;0.1335;-0.9469;
1035.3000;0.1327;-0.9495;
1035.6000;0.1262;-0.9721;
1035.9000;0.1335;-0.9520;
1036.2000;0.1327;-0.9570;
1036.5000;0.1343;-0.9520;
1036.8000;0.1368;-0.9444;
1037.1000;0.1327;-0.9444;
1037.4000;0.1335;-0.9469;
1037.7000;0.1294;-0.9495;
1038.0000;0.1351;-0.9444;
1038.3000;0.1327;-0.9495;
1038.6000;0.1343;-0.9469;
1038.9000;0.1368;-0.9419;
1039.2000;0.1376;-0.9444;
1039.5000;0.1351;-0.9444;
1039.8000;0.1335;-0.9444;
1040.1000;0.1319;-0.9394;
1040.4000;0.1343;-0.9344;
1040.7000;0.1384;-0.9193;
1041.0000;0.1327;-0.9344;
1041.3000;0.1343;-0.9394;
1041.6000;0.1368;-0.9419;
1041.9000;0.1343;-0.9570;
1042.2000;0.1416;-0.9469;
1042.5000;0.1343;-0.9620;
1042.8000;0.1351;-0.9595;
1043.1000;0.1343;-0.9595;
1043.4000;0.1327;-0.9595;
1043.7000;0.1335;-0.9670;
1044.0000;0.1319;-0.9695;
1044.3000;0.1335;-0.9620;
1044.6000;0.1335;-0.9520;
1044.9000;0.1335;-0.9469;
1045.2000;0.1327;-0.9570;
1045.5000;0.1351;-0.9469;
1045.8000;0.1286;-0.9670;
1046.1000;0.1319;-0.9595;
1046.4000;0.1335;-0.9570;
1046.7000;0.1335;-0.9595;
1047.0000;0.1335;-0.9595;
1047.3000;0.1335;-0.9595;
1047.6000;0.1319;-0.9620;
1047.9000;0.1376;-0.9394;
1048.2000;0.1335;-0.9595;
1048.5000;0.1262;-0.9771;
1048.8000;0.1343;-0.9520;
1049.1000;0.1343;-0.9495;
1049.4000;0.1351;-0.9469;
1049.7000;0.1343;-0.9520;
1050.0000;0.1319;-0.9495;
1050.3000;0.1335;-0.9495;
1050.6000;0.1335;-0.9495;
1050.9000;0.1335;-0.9620;
1051.2000;0.1311;-0.9695;
1051.5000;0.1335;-0.9670;
1051.8000;0.1376;-0.9721;
1052.1000;0.1335;-0.9771;
1052.4000;0.1343;-0.9645;
1052.7000;0.1343;-0.9645;
1053.0000;0.1433;-0.9419;
1053.3000;0.1343;-0.9695;
1053.6000;0.1335;-0.9670;
1053.9000;0.1368;-0.9570;
1054.2000;0.1286;-0.9746;
1054.5000;0.1327;-0.9645;
1054.8000;0.1351;-0.9620;
1055.1000;0.1343;-0.9645;
1055.4000;0.1351;-0.9595;
1055.7000;0.1343;-0.9721;
1056.0000;0.1400;-0.9545;
1056.3000;0.1351;-0.9620;
1056.6000;0.1327;-0.9721;
1056.9000;0.1368;-0.9645;
1057.2000;0.1433;-0.9394;
1057.5000;0.1311;-0.9796;
1057.8000;0.1335;-0.9746;
1058.1000;0.1368;-0.9771;
1058.4000;0.1327;-0.9846;
1058.7000;0.1392;-0.9721;
1059.0000;0.1343;-0.9771;
1059.3000;0.1327;-0.9695;
1059.6000;0.1376;-0.9620;
1059.9000;0.1359;-0.9746;
1060.2000;0.1351;-0.9670;
1060.5000;0.1351;-0.9570;
1060.8000;0.1384;-0.9469;
1061.1000;0.1343;-0.9570;
1061.4000;0.1343;-0.9620;
1061.7000;0.1359;-0.9595;
1062.0000;0.1368;-0.9545;
1062.3000;0.1343;-0.9645;
1062.6000;0.1327;-0.9771;
1062.9000;0.1343;-0.9846;
1063.2000;0.1335;-0.9846;
1063.5000;0.1416;-0.9520;
1063.8000;0.1335;-0.9721;
1064.1000;0.1319;-0.9746;
1064.4000;0.1327;-0.9645;
1064.7000;0.1327;-0.9595;
1065.0000;0.1294;-0.9570;
1065.3000;0.1327;-0.9394;
1065.6000;0.1343;-0.9419;
1065.9000;0.1335;-0.9419;
1066.2000;0.1327;-0.9394;
1066.5000;0.1311;-0.9419;
1066.8000;0.1327;-0.9369;
1067.1000;0.1335;-0.9319;
1067.4000;0.1343;-0.9268;
1067.7000;0.1319;-0.9344;
1068.0000;0.1359;-0.9344;
1068.3000;0.1335;-0.9369;
1068.6000;0.1335;-0.9444;
1068.9000;0.1343;-0.9495;
1069.2000;0.1343;-0.9520;
1069.5000;0.1335;-0.9570;
1069.8000;0.1319;-0.9595;
1070.1000;0.1351;-0.9545;
1070.4000;0.1319;-0.9545;
1070.7000;0.1351;-0.9469;
1071.0000;0.1254;-0.9721;
1071.3000;0.1343;-0.9495;
1071.6000;0.1319;-0.9520;
1071.9000;0.1221;-0.9796;
1072.2000;0.1327;-0.9595;
1072.5000;0.1319;-0.9695;
1072.8000;0.1286;-0.9721;
1073.1000;0.1343;-0.9545;
1073.4000;0.1351;-0.9570;
1073.7000;0.1327;-0.9670;
1074.0000;0.1343;-0.9620;
1074.3000;0.1319;-0.9595;
1074.6000;0.1327;-0.9545;
1074.9000;0.1327;-0.9495;
1075.2000;0.1302;-0.9645;
1075.5000;0.1319;-0.9570;
1075.8000;0.1319;-0.9520;
1076.1000;0.1327;-0.9469;
1076.4000;0.1327;-0.9520;
1076.7000;0.1327;-0.9570;
1077.0000;0.1335;-0.9545;
1077.3000;0.1343;-0.9570;
1077.6000;0.1319;-0.9570;
1077.9000;0.1335;-0.9595;
1078.2000;0.1319;-0.9645;
1078.5000;0.1368;-0.9695;
1078.8000;0.1319;-0.9695;
1079.1000;0.1335;-0.9746;
1079.4000;0.1294;-0.9871;
1079.7000;0.1327;-0.9796;
1080.0000;0.1319;-0.9796;
1080.3000;0.1294;-0.9871;
1080.6000;0.1335;-0.9721;
1080.9000;0.1416;-0.9545;
1081.2000;0.1351;-0.9771;
1081.5000;0.1343;-0.9695;
1081.8000;0.1335;-0.9721;
1082.1000;0.1351;-0.9645;
1082.4000;0.1343;-0.9695;
1082.7000;0.1335;-0.9695;
1083.0000;0.1359;-0.9695;
1083.3000;0.1351;-0.9645;
1083.6000;0.1270;-0.9796;
1083.9000;0.1319;-0.9645;
1084.2000;0.1302;-0.9746;
1084.5000;0.1343;-0.9645;
1084.8000;0.1351;-0.9620;
1085.1000;0.1335;-0.9645;
1085.4000;0.1327;-0.9695;
1085.7000;0.1351;-0.9721;
1086.0000;0.1319;-0.9721;
1086.3000;0.1286;-0.9796;
1086.6000;0.1327;-0.9721;
1086.9000;0.1351;-0.9721;
1087.2000;0.1343;-0.9746;
1087.5000;0.1286;-0.9922;
1087.8000;0.1343;-0.9796;
1088.1000;0.1319;-0.9771;
1088.4000;0.1327;-0.9771;
1088.7000;0.1335;-0.9796;
1089.0000;0.1302;-0.9871;
1089.3000;0.1319;-0.9796;
1089.6000;0.1319;-0.9796;
1089.9000;0.1433;-0.9469;
1090.2000;0.1335;-0.9721;
1090.5000;0.1327;-0.9746;
1090.8000;0.1335;-0.9670;
1091.1000;0.1351;-0.9645;
1091.4000;0.1351;-0.9695;
1091.7000;0.1359;-0.9695;
1092.0000;0.1359;-0.9670;
1092.3000;0.1359;-0.9721;
1092.6000;0.1302;-0.9821;
1092.9000;0.1319;-0.9821;
1093.2000;0.1343;-0.9771;
1093.5000;0.1319;-0.9721;
1093.8000;0.1335;-0.9746;
1094.1000;0.1343;-0.9695;
1094.4000;0.1351;-0.9796;
1094.7000;0.1343;-0.9746;
1095.0000;0.1343;-0.9670;
1095.3000;0.1335;-0.9620;
1095.6000;0.1319;-0.9595;
1095.9000;0.1343;-0.9595;
1096.2000;0.1351;-0.9545;
1096.5000;0.1327;-0.9570;
1096.8000;0.1359;-0.9444;
1097.1000;0.1376;-0.9419;
1097.4000;0.1343;-0.9620;
1097.7000;0.1376;-0.9570;
1098.0000;0.1335;-0.9595;
1098.3000;0.1351;-0.9545;
1098.6000;0.1327;-0.9620;
1098.9000;0.1351;-0.9595;
1099.2000;0.1343;-0.9670;
1099.5000;0.1327;-0.9670;
1099.8000;0.1351;-0.9645;
1100.1000;0.1302;-0.9645;
1100.4000;0.1351;-0.9419;
1100.7000;0.1343;-0.9469;
1101.0000;0.1335;-0.9444;
1101.3000;0.1359;-0.9419;
1101.6000;0.1368;-0.9394;
1101.9000;0.1351;-0.9495;
1102.2000;0.1335;-0.9595;
1102.5000;0.1384;-0.9419;
1102.8000;0.1327;-0.9545;
1103.1000;0.1335;-0.9595;
1103.4000;0.1335;-0.9570;
1103.7000;0.1335;-0.9570;
1104.0000;0.1319;-0.9695;
1104.3000;0.1311;-0.9695;
1104.6000;0.1311;-0.9620;
1104.9000;0.1335;-0.9545;
1105.2000;0.1270;-0.9670;
1105.5000;0.1351;-0.9444;
1105.8000;0.1311;-0.9520;
1106.1000;0.1327;-0.9495;
1106.4000;0.1335;-0.9570;
1106.7000;0.1335;-0.9595;
1107.0000;0.1311;-0.9620;
1107.3000;0.1311;-0.9620;
1107.6000;0.1343;-0.9645;
1107.9000;0.1359;-0.9620;
1108.2000;0.1343;-0.9670;
1108.5000;0.1335;-0.9620;
1108.8000;0.1311;-0.9721;
1109.1000;0.1319;-0.9746;
1109.4000;0.1327;-0.9695;
1109.7000;0.1343;-0.9695;
1110.0000;0.1319;-0.9721;
1110.3000;0.1351;-0.9746;
1110.6000;0.1343;-0.9695;
1110.9000;0.1327;-0.9771;
1111.2000;0.1327;-0.9821;
1111.5000;0.1213;-1.0122;
1111.8000;0.1343;-0.9721;
1112.1000;0.1343;-0.9746;
1112.4000;0.1335;-0.9746;
1112.7000;0.1335;-0.9695;
1113.0000;0.1351;-0.9645;
1113.3000;0.1319;-0.9695;
1113.6000;0.1335;-0.9821;
1113.9000;0.1343;-0.9871;
1114.2000;0.1327;-0.9796;
1114.5000;0.1327;-0.9746;
1114.8000;0.1351;-0.9695;
1115.1000;0.1359;-0.9695;
1115.4000;0.1343;-0.9796;
1115.7000;0.1335;-0.9846;
1116.0000;0.1327;-0.9871;
1116.3000;0.1319;-0.9922;
1116.6000;0.1343;-0.9896;
1116.9000;0.1343;-0.9947;
1117.2000;0.1327;-0.9997;
1117.5000;0.1343;-0.9896;
1117.8000;0.1335;-0.9821;
1118.1000;0.1302;-0.9846;
1118.4000;0.1327;-0.9896;
1118.7000;0.1327;-0.9896;
1119.0000;0.1351;-0.9796;
1119.3000;0.1311;-0.9821;
1119.6000;0.1327;-0.9746;
1119.9000;0.1368;-0.9670;
1120.2000;0.1327;-0.9771;
1120.5000;0.1343;-0.9746;
1120.8000;0.1327;-0.9771;
1121.1000;0.1376;-0.9620;
1121.4000;0.1327;-0.9796;
1121.7000;0.1335;-0.9721;
1122.0000;0.1351;-0.9721;
1122.3000;0.1327;-0.9821;
1122.6000;0.1335;-0.9871;
1122.9000;0.1343;-0.9871;
1123.2000;0.1327;-0.9871;
1123.5000;0.1327;-0.9871;
1123.8000;0.1327;-0.9871;
1124.1000;0.1343;-0.9821;
1124.4000;0.1368;-0.9746;
1124.7000;0.1343;-0.9746;
1125.0000;0.1327;-0.9796;
1125.3000;0.1343;-0.9821;
1125.6000;0.1351;-0.9796;
1125.9000;0.1319;-0.9821;
1126.2000;0.1368;-0.9670;
1126.5000;0.1351;-0.9771;
1126.8000;0.1351;-0.9796;
1127.1000;0.1359;-0.9821;
1127.4000;0.1359;-0.9796;
1127.7000;0.1343;-0.9796;
1128.0000;0.1335;-0.9746;
1128.3000;0.1327;-0.9771;
1128.6000;0.1335;-0.9746;
1128.9000;0.1351;-0.9645;
1129.2000;0.1286;-0.9896;
1129.5000;0.1335;-0.9746;
1129.8000;0.1327;-0.9721;
1130.1000;0.1335;-0.9695;
1130.4000;0.1335;-0.9846;
1130.7000;0.1343;-0.9871;
1131.0000;0.1343;-0.9947;
1131.3000;0.1311;-1.0022;
1131.6000;0.1335;-1.0047;
1131.9000;0.1319;-0.9997;
1132.2000;0.1351;-0.9922;
1132.5000;0.1335;-0.9947;
1132.8000;0.1311;-0.9896;
1133.1000;0.1351;-0.9771;
1133.4000;0.1368;-0.9771;
1133.7000;0.1335;-0.9796;
1134.0000;0.1335;-0.9746;
1134.3000;0.1335;-0.9620;
1134.6000;0.1416;-0.9520;
1134.9000;0.1351;-0.9670;
1135.2000;0.1327;-0.9796;
1135.5000;0.1343;-0.9821;
1135.8000;0.1343;-0.9796;
1136.1000;0.1335;-0.9796;
1136.4000;0.1319;-0.9796;
1136.7000;0.1319;-0.9721;
1137.0000;0.1327;-0.9645;
1137.3000;0.1359;-0.9570;
1137.6000;0.1343;-0.9595;
1137.9000;0.1335;-0.9645;
1138.2000;0.1351;-0.9545;
1138.5000;0.1351;-0.9545;
1138.8000;0.1294;-0.9620;
1139.1000;0.1368;-0.9369;
1139.4000;0.1327;-0.9495;
1139.7000;0.1359;-0.9394;
1140.0000;0.1327;-0.9520;
1140.3000;0.1335;-0.9595;
1140.6000;0.1343;-0.9645;
1140.9000;0.1408;-0.9495;
1141.2000;0.1335;-0.9595;
1141.5000;0.1319;-0.9645;
1141.8000;0.1327;-0.9721;
1142.1000;0.1327;-0.9721;
1142.4000;0.1359;-0.9595;
1142.7000;0.1319;-0.9695;
1143.0000;0.1335;-0.9670;
1143.3000;0.1392;-0.9645;
1143.6000;0.1294;-0.9746;
1143.9000;0.1327;-0.9570;
1144.2000;0.1335;-0.9545;
1144.5000;0.1335;-0.9570;
1144.8000;0.1335;-0.9595;
1145.1000;0.1319;-0.9570;
1145.4000;0.1351;-0.9570;
1145.7000;0.1376;-0.9520;
1146.0000;0.1335;-0.9595;
1146.3000;0.1400;-0.9520;
1146.6000;0.1343;-0.9645;
1146.9000;0.1286;-0.9871;
1147.2000;0.1384;-0.9595;
1147.5000;0.1359;-0.9645;
1147.8000;0.1343;-0.9746;
1148.1000;0.1400;-0.9670;
1148.4000;0.1351;-0.9821;
1148.7000;0.1351;-0.9821;
1149.0000;0.1351;-0.9771;
1149.3000;0.1335;-0.9721;
1149.6000;0.1343;-0.9595;
1149.9000;0.1376;-0.9469;
1150.2000;0.1343;-0.9495;
1150.5000;0.1319;-0.9721;
1150.8000;0.1359;-0.9545;
1151.1000;0.1335;-0.9545;
1151.4000;0.1254;-0.9771;
1151.7000;0.1343;-0.9595;
1152.0000;0.1327;-0.9670;
1152.3000;0.1335;-0.9645;
1152.6000;0.1343;-0.9645;
1152.9000;0.1351;-0.9695;
1153.2000;0.1270;-0.9947;
1153.5000;0.1343;-0.9746;
1153.8000;0.1327;-0.9771;
1154.1000;0.1351;-0.9771;
1154.4000;0.1416;-0.9595;
1154.7000;0.1343;-0.9670;
1155.0000;0.1335;-0.9721;
1155.3000;0.1327;-0.9695;
1155.6000;0.1327;-0.9645;
1155.9000;0.1343;-0.9545;
1156.2000;0.1335;-0.9545;
1156.5000;0.1302;-0.9595;
1156.8000;0.1359;-0.9469;
1157.1000;0.1343;-0.9444;
1157.4000;0.1245;-0.9746;
1157.7000;0.1327;-0.9645;
1158.0000;0.1343;-0.9570;
1158.3000;0.1343;-0.9721;
1158.6000;0.1327;-0.9670;
1158.9000;0.1335;-0.9595;
1159.2000;0.1335;-0.9570;
1159.5000;0.1327;-0.9595;
1159.8000;0.1327;-0.9595;
1160.1000;0.1343;-0.9670;
1160.4000;0.1311;-0.9721;
1160.7000;0.1343;-0.9695;
1161.0000;0.1351;-0.9645;
1161.3000;0.1368;-0.9595;
1161.6000;0.1335;-0.9670;
1161.9000;0.1343;-0.9570;
1162.2000;0.1359;-0.9595;
1162.5000;0.1327;-0.9570;
1162.8000;0.1335;-0.9570;
1163.1000;0.1311;-0.9545;
1163.4000;0.1327;-0.9469;
1163.7000;0.1335;-0.9545;
1164.0000;0.1327;-0.9570;
1164.3000;0.1262;-0.9695;
1164.6000;0.1343;-0.9520;
1164.9000;0.1408;-0.9444;
1165.2000;0.1302;-0.9695;
1165.5000;0.1343;-0.9595;
1165.8000;0.1335;-0.9570;
1166.1000;0.1335;-0.9520;
1166.4000;0.1311;-0.9595;
1166.7000;0.1327;-0.9570;
1167.0000;0.1368;-0.9545;
1167.3000;0.1351;-0.9595;
1167.6000;0.1343;-0.9645;
1167.9000;0.1351;-0.9695;
1168.2000;0.1327;-0.9721;
1168.5000;0.1319;-0.9670;
1168.8000;0.1319;-0.9645;
1169.1000;0.1327;-0.9620;
1169.4000;0.1311;-0.9746;
1169.7000;0.1311;-0.9670;
1170.0000;0.1319;-0.9595;
1170.3000;0.1278;-0.9670;
1170.6000;0.1319;-0.9545;
1170.9000;0.1294;-0.9620;
1171.2000;0.1392;-0.9419;
1171.5000;0.1335;-0.9620;
1171.8000;0.1343;-0.9620;
1172.1000;0.1278;-0.9746;
1172.4000;0.1286;-0.9846;
1172.7000;0.1351;-0.9796;
1173.0000;0.1351;-0.9821;
1173.3000;0.1311;-0.9922;
1173.6000;0.1335;-0.9771;
1173.9000;0.1351;-0.9796;
1174.2000;0.1311;-0.9846;
1174.5000;0.1327;-0.9695;
1174.8000;0.1351;-0.9620;
1175.1000;0.1319;-0.9721;
1175.4000;0.1302;-0.9670;
1175.7000;0.1335;-0.9620;
1176.0000;0.1351;-0.9620;
1176.3000;0.1335;-0.9695;
1176.6000;0.1327;-0.9771;
1176.9000;0.1343;-0.9670;
1177.2000;0.1473;-0.9319;
1177.5000;0.1327;-0.9645;
1177.8000;0.1327;-0.9695;
1178.1000;0.1302;-0.9771;
1178.4000;0.1319;-0.9821;
1178.7000;0.1327;-0.9796;
1179.0000;0.1319;-0.9821;
1179.3000;0.1311;-0.9846;
1179.6000;0.1384;-0.9645;
1179.9000;0.1384;-0.9670;
1180.2000;0.1351;-0.9846;
1180.5000;0.1351;-0.9771;
1180.8000;0.1327;-0.9821;
1181.1000;0.1311;-0.9796;
1181.4000;0.1343;-0.9746;
1181.7000;0.1343;-0.9695;
1182.0000;0.1343;-0.9620;
1182.3000;0.1376;-0.9595;
1182.6000;0.1335;-0.9721;
1182.9000;0.1327;-0.9721;
1183.2000;0.1351;-0.9645;
1183.5000;0.1319;-0.9746;
1183.8000;0.1335;-0.9670;
1184.1000;0.1335;-0.9695;
1184.4000;0.1319;-0.9796;
1184.7000;0.1327;-0.9796;
1185.0000;0.1335;-0.9796;
1185.3000;0.1351;-0.9746;
1185.6000;0.1343;-0.9771;
1185.9000;0.1311;-0.9922;
1186.2000;0.1351;-0.9846;
1186.5000;0.1327;-0.9846;
1186.8000;0.1351;-0.9846;
1187.1000;0.1359;-0.9796;
1187.4000;0.1319;-0.9796;
1187.7000;0.1351;-0.9670;
1188.0000;0.1319;-0.9670;
1188.3000;0.1327;-0.9695;
1188.6000;0.1302;-0.9670;
1188.9000;0.1327;-0.9620;
1189.2000;0.1343;-0.9595;
1189.5000;0.1327;-0.9570;
1189.8000;0.1343;-0.9520;
1190.1000;0.1327;-0.9645;
1190.4000;0.1327;-0.9695;
1190.7000;0.1327;-0.9695;
1191.0000;0.1335;-0.9695;
1191.3000;0.1335;-0.9695;
1191.6000;0.1359;-0.9721;
1191.9000;0.1343;-0.9796;
1192.2000;0.1319;-0.9821;
1192.5000;0.1327;-0.9821;
1192.8000;0.1359;-0.9746;
1193.1000;0.1425;-0.9620;
1193.4000;0.1327;-0.9896;
1193.7000;0.1327;-0.9947;
1194.0000;0.1416;-0.9670;
1194.3000;0.1351;-0.9771;
1194.6000;0.1343;-0.9771;
1194.9000;0.1351;-0.9846;
1195.2000;0.1319;-0.9947;
1195.5000;0.1319;-0.9896;
1195.8000;0.1335;-0.9871;
1196.1000;0.1343;-0.9771;
1196.4000;0.1343;-0.9721;
1196.7000;0.1368;-0.9570;
1197.0000;0.1327;-0.9695;
1197.3000;0.1343;-0.9721;
1197.6000;0.1327;-0.9796;
1197.9000;0.1327;-0.9821;
1198.2000;0.1359;-0.9796;
1198.5000;0.1278;-0.9871;
1198.8000;0.1351;-0.9670;
1199.1000;0.1311;-0.9871;
1199.4000;0.1384;-0.9645;
1199.7000;0.1286;-0.9947;
1200.0000;0.1319;-0.9796;
1200.3000;0.1319;-0.9796;
1200.6000;0.1335;-0.9796;
1200.9000;0.1319;-0.9821;
1201.2000;0.1335;-0.9821;
1201.5000;0.1254;-0.9922;
1201.8000;0.1327;-0.9771;
1202.1000;0.1335;-0.9645;
1202.4000;0.1408;-0.9495;
1202.7000;0.1311;-0.9896;
1203.0000;0.1319;-0.9871;
1203.3000;0.1327;-0.9846;
1203.6000;0.1327;-0.9846;
1203.9000;0.1327;-0.9846;
1204.2000;0.1311;-0.9896;
1204.5000;0.1254;-1.0022;
1204.8000;0.1311;-0.9896;
1205.1000;0.1319;-0.9796;
1205.4000;0.1343;-0.9746;
1205.7000;0.1343;-0.9846;
1206.0000;0.1262;-1.0072;
1206.3000;0.1359;-0.9846;
1206.6000;0.1335;-0.9896;
1206.9000;0.1343;-0.9922;
1207.2000;0.1343;-0.9896;
1207.5000;0.1359;-0.9871;
1207.8000;0.1335;-0.9997;
1208.1000;0.1343;-0.9997;
1208.4000;0.1319;-1.0148;
1208.7000;0.1327;-1.0072;
1209.0000;0.1302;-1.0148;
1209.3000;0.1319;-0.9997;
1209.6000;0.1335;-0.9997;
1209.9000;0.1376;-0.9871;
1210.2000;0.1400;-0.9746;
1210.5000;0.1351;-0.9796;
1210.8000;0.1343;-0.9871;
1211.1000;0.1278;-0.9972;
1211.4000;0.1327;-0.9922;
1211.7000;0.1327;-0.9796;
1212.0000;0.1335;-0.9670;
1212.3000;0.1335;-0.9595;
1212.6000;0.1351;-0.9595;
1212.9000;0.1327;-0.9645;
1213.2000;0.1327;-0.9670;
1213.5000;0.1311;-0.9721;
1213.8000;0.1319;-0.9670;
1214.1000;0.1327;-0.9721;
1214.4000;0.1311;-0.9796;
1214.7000;0.1335;-0.9796;
1215.0000;0.1319;-0.9821;
1215.3000;0.1327;-0.9746;
1215.6000;0.1335;-0.9645;
1215.9000;0.1376;-0.9545;
1216.2000;0.1327;-0.9595;
1216.5000;0.1327;-0.9595;
1216.8000;0.1335;-0.9595;
1217.1000;0.1368;-0.9545;
1217.4000;0.1319;-0.9645;
1217.7000;0.1335;-0.9645;
1218.0000;0.1351;-0.9570;
1218.3000;0.1335;-0.9595;
1218.6000;0.1351;-0.9570;
1218.9000;0.1335;-0.9570;
1219.2000;0.1351;-0.9545;
1219.5000;0.1335;-0.9545;
1219.8000;0.1351;-0.9520;
1220.1000;0.1327;-0.9520;
1220.4000;0.1335;-0.9520;
1220.7000;0.1343;-0.9469;
1221.0000;0.1351;-0.9419;
1221.3000;0.1343;-0.9419;
1221.6000;0.1319;-0.9495;
1221.9000;0.1343;-0.9394;
1222.2000;0.1351;-0.9394;
1222.5000;0.1343;-0.9545;
1222.8000;0.1319;-0.9520;
1223.1000;0.1335;-0.9444;
1223.4000;0.1327;-0.9394;
1223.7000;0.1311;-0.9344;
1224.0000;0.1343;-0.9268;
1224.3000;0.1343;-0.9344;
1224.6000;0.1327;-0.9394;
1224.9000;0.1343;-0.9394;
1225.2000;0.1327;-0.9469;
1225.5000;0.1302;-0.9495;
1225.8000;0.1327;-0.9469;
1226.1000;0.1343;-0.9469;
1226.4000;0.1392;-0.9394;
1226.7000;0.1327;-0.9520;
1227.0000;0.1335;-0.9495;
1227.3000;0.1343;-0.9520;
1227.6000;0.1286;-0.9721;
1227.9000;0.1343;-0.9595;
1228.2000;0.1351;-0.9495;
1228.5000;0.1351;-0.9469;
1228.8000;0.1335;-0.9469;
1229.1000;0.1327;-0.9495;
1229.4000;0.1335;-0.9495;
1229.7000;0.1327;-0.9545;
1230.0000;0.1343;-0.9469;
1230.3000;0.1311;-0.9469;
1230.6000;0.1351;-0.9294;
1230.9000;0.1351;-0.9394;
1231.2000;0.1327;-0.9444;
1231.5000;0.1335;-0.9570;
1231.8000;0.1343;-0.9570;
1232.1000;0.1343;-0.9595;
1232.4000;0.1319;-0.9620;
1232.7000;0.1335;-0.9645;
1233.0000;0.1319;-0.9645;
1233.3000;0.1351;-0.9495;
1233.6000;0.1335;-0.9545;
1233.9000;0.1359;-0.9444;
1234.2000;0.1311;-0.9495;
1234.5000;0.1351;-0.9469;
1234.8000;0.1351;-0.9545;
1235.1000;0.1408;-0.9419;
1235.4000;0.1327;-0.9670;
1235.7000;0.1343;-0.9670;
1236.0000;0.1302;-0.9821;
1236.3000;0.1327;-0.9846;
1236.6000;0.1343;-0.9796;
1236.9000;0.1351;-0.9721;
1237.2000;0.1343;-0.9771;
1237.5000;0.1359;-0.9670;
1237.8000;0.1343;-0.9670;
1238.1000;0.1327;-0.9695;
1238.4000;0.1351;-0.9570;
1238.7000;0.1335;-0.9595;
1239.0000;0.1327;-0.9595;
1239.3000;0.1311;-0.9620;
1239.6000;0.1335;-0.9520;
1239.9000;0.1335;-0.9419;
1240.2000;0.1400;-0.9218;
1240.5000;0.1335;-0.9268;
1240.8000;0.1343;-0.9243;
1241.1000;0.1351;-0.9193;
1241.4000;0.1335;-0.9243;
1241.7000;0.1343;-0.9319;
1242.0000;0.1319;-0.9344;
1242.3000;0.1343;-0.9344;
1242.6000;0.1343;-0.9394;
1242.9000;0.1335;-0.9469;
1243.2000;0.1465;-0.9118;
1243.5000;0.1335;-0.9419;
1243.8000;0.1335;-0.9469;
1244.1000;0.1335;-0.9495;
1244.4000;0.1359;-0.9394;
1244.7000;0.1302;-0.9570;
1245.0000;0.1376;-0.9369;
1245.3000;0.1400;-0.9344;
1245.6000;0.1302;-0.9670;
1245.9000;0.1319;-0.9545;
1246.2000;0.1343;-0.9469;
1246.5000;0.1327;-0.9620;
1246.8000;0.1343;-0.9595;
1247.1000;0.1327;-0.9595;
1247.4000;0.1343;-0.9444;
1247.7000;0.1319;-0.9520;
1248.0000;0.1335;-0.9570;
1248.3000;0.1319;-0.9746;
1248.6000;0.1335;-0.9695;
1248.9000;0.1351;-0.9670;
1249.2000;0.1343;-0.9670;
1249.5000;0.1319;-0.9746;
1249.8000;0.1262;-0.9821;
1250.1000;0.1351;-0.9670;
1250.4000;0.1400;-0.9495;
1250.7000;0.1335;-0.9645;
1251.0000;0.1343;-0.9545;
1251.3000;0.1327;-0.9695;
1251.6000;0.1351;-0.9545;
1251.9000;0.1335;-0.9570;
1252.2000;0.1311;-0.9595;
1252.5000;0.1343;-0.9545;
1252.8000;0.1302;-0.9695;
1253.1000;0.1311;-0.9670;
1253.4000;0.1335;-0.9570;
1253.7000;0.1335;-0.9545;
1254.0000;0.1343;-0.9520;
1254.3000;0.1319;-0.9620;
1254.6000;0.1351;-0.9545;
1254.9000;0.1327;-0.9570;
1255.2000;0.1351;-0.9545;
1255.5000;0.1343;-0.9595;
1255.8000;0.1368;-0.9520;
1256.1000;0.1368;-0.9495;
1256.4000;0.1343;-0.9520;
1256.7000;0.1359;-0.9419;
1257.0000;0.1351;-0.9545;
1257.3000;0.1335;-0.9670;
1257.6000;0.1351;-0.9570;
1257.9000;0.1327;-0.9570;
1258.2000;0.1343;-0.9595;
1258.5000;0.1335;-0.9746;
1258.8000;0.1376;-0.9670;
1259.1000;0.1376;-0.9620;
1259.4000;0.1343;-0.9620;
1259.7000;0.1319;-0.9620;
1260.0000;0.1343;-0.9570;
1260.3000;0.1335;-0.9595;
1260.6000;0.1351;-0.9620;
1260.9000;0.1343;-0.9645;
1261.2000;0.1335;-0.9595;
1261.5000;0.1368;-0.9495;
1261.8000;0.1351;-0.9394;
1262.1000;0.1368;-0.9294;
1262.4000;0.1335;-0.9369;
1262.7000;0.1400;-0.9243;
1263.0000;0.1376;-0.9419;
1263.3000;0.1359;-0.9670;
1263.6000;0.1302;-0.9746;
1263.9000;0.1335;-0.9670;
1264.2000;0.1376;-0.9545;
1264.5000;0.1351;-0.9520;
1264.8000;0.1319;-0.9645;
1265.1000;0.1351;-0.9645;
1265.4000;0.1351;-0.9695;
1265.7000;0.1343;-0.9771;
1266.0000;0.1392;-0.9620;
1266.3000;0.1335;-0.9771;
1266.6000;0.1359;-0.9771;
1266.9000;0.1335;-0.9721;
1267.2000;0.1384;-0.9545;
1267.5000;0.1302;-0.9821;
1267.8000;0.1359;-0.9721;
1268.1000;0.1351;-0.9796;
1268.4000;0.1343;-0.9821;
1268.7000;0.1368;-0.9771;
1269.0000;0.1351;-0.9746;
1269.3000;0.1335;-0.9796;
1269.6000;0.1335;-0.9721;
1269.9000;0.1327;-0.9746;
1270.2000;0.1319;-0.9796;
1270.5000;0.1327;-0.9645;
1270.8000;0.1335;-0.9721;
1271.1000;0.1327;-0.9695;
1271.4000;0.1343;-0.9595;
1271.7000;0.1359;-0.9645;
1272.0000;0.1359;-0.9695;
1272.3000;0.1311;-0.9871;
1272.6000;0.1327;-0.9846;
1272.9000;0.1335;-0.9796;
1273.2000;0.1343;-0.9771;
1273.5000;0.1351;-0.9721;
1273.8000;0.1278;-0.9846;
1274.1000;0.1319;-0.9771;
1274.4000;0.1327;-0.9846;
1274.7000;0.1327;-0.9871;
1275.0000;0.1343;-0.9746;
1275.3000;0.1335;-0.9721;
1275.6000;0.1351;-0.9746;
1275.9000;0.1343;-0.9695;
1276.2000;0.1335;-0.9645;
1276.5000;0.1335;-0.9670;
1276.8000;0.1351;-0.9645;
1277.1000;0.1327;-0.9721;
1277.4000;0.1327;-0.9721;
1277.7000;0.1343;-0.9645;
1278.0000;0.1335;-0.9620;
1278.3000;0.1319;-0.9721;
1278.6000;0.1335;-0.9645;
1278.9000;0.1311;-0.9721;
1279.2000;0.1319;-0.9595;
1279.5000;0.1319;-0.9595;
1279.8000;0.1327;-0.9545;
1280.1000;0.1254;-0.9721;
1280.4000;0.1335;-0.9545;
1280.7000;0.1327;-0.9620;
1281.0000;0.1351;-0.9595;
1281.3000;0.1327;-0.9645;
1281.6000;0.1335;-0.9545;
1281.9000;0.1311;-0.9771;
1282.2000;0.1351;-0.9645;
1282.5000;0.1319;-0.9645;
1282.8000;0.1327;-0.9595;
1283.1000;0.1400;-0.9419;
1283.4000;0.1294;-0.9721;
1283.7000;0.1335;-0.9670;
1284.0000;0.1311;-0.9721;
1284.3000;0.1351;-0.9570;
1284.6000;0.1286;-0.9670;
1284.9000;0.1311;-0.9545;
1285.2000;0.1335;-0.9495;
1285.5000;0.1311;-0.9570;
1285.8000;0.1302;-0.9695;
1286.1000;0.1335;-0.9721;
1286.4000;0.1270;-0.9846;
1286.7000;0.1359;-0.9570;
1287.0000;0.1368;-0.9620;
1287.3000;0.1343;-0.9645;
1287.6000;0.1359;-0.9595;
1287.9000;0.1359;-0.9670;
1288.2000;0.1302;-0.9821;
1288.5000;0.1343;-0.9645;
1288.8000;0.1351;-0.9495;
1289.1000;0.1335;-0.9419;
1289.4000;0.1433;-0.9243;
1289.7000;0.1327;-0.9469;
1290.0000;0.1343;-0.9369;
1290.3000;0.1319;-0.9394;
1290.6000;0.1327;-0.9419;
1290.9000;0.1351;-0.9268;
1291.2000;0.1351;-0.9344;
1291.5000;0.1327;-0.9469;
1291.8000;0.1311;-0.9469;
1292.1000;0.1335;-0.9495;
1292.4000;0.1245;-0.9721;
1292.7000;0.1335;-0.9620;
1293.0000;0.1311;-0.9721;
1293.3000;0.1400;-0.9469;
1293.6000;0.1359;-0.9545;
1293.9000;0.1327;-0.9620;
1294.2000;0.1359;-0.9570;
1294.5000;0.1311;-0.9771;
1294.8000;0.1335;-0.9796;
1295.1000;0.1343;-0.9695;
1295.4000;0.1327;-0.9746;
1295.7000;0.1294;-0.9746;
1296.0000;0.1335;-0.9645;
1296.3000;0.1400;-0.9394;
1296.6000;0.1327;-0.9570;
1296.9000;0.1343;-0.9570;
1297.2000;0.1351;-0.9570;
1297.5000;0.1335;-0.9469;
1297.8000;0.1335;-0.9495;
1298.1000;0.1327;-0.9520;
1298.4000;0.1359;-0.9469;
1298.7000;0.1327;-0.9620;
1299.0000;0.1335;-0.9520;
1299.3000;0.1368;-0.9545;
1299.6000;0.1335;-0.9620;
1299.9000;0.1335;-0.9595;
1300.2000;0.1319;-0.9595;
1300.5000;0.1319;-0.9695;
1300.8000;0.1392;-0.9469;
1301.1000;0.1359;-0.9670;
1301.4000;0.1359;-0.9695;
1301.7000;0.1319;-0.9821;
1302.0000;0.1376;-0.9595;
1302.3000;0.1351;-0.9620;
1302.6000;0.1335;-0.9595;
1302.9000;0.1286;-0.9771;
1303.2000;0.1319;-0.9545;
1303.5000;0.1351;-0.9469;
1303.8000;0.1335;-0.9520;
1304.1000;0.1311;-0.9595;
1304.4000;0.1319;-0.9570;
1304.7000;0.1335;-0.9595;
1305.0000;0.1343;-0.9595;
1305.3000;0.1327;-0.9570;
1305.6000;0.1302;-0.9670;
1305.9000;0.1392;-0.9394;
1306.2000;0.1335;-0.9469;
1306.5000;0.1319;-0.9570;
1306.8000;0.1335;-0.9520;
1307.1000;0.1343;-0.9469;
1307.4000;0.1335;-0.9545;
1307.7000;0.1327;-0.9570;
1308.0000;0.1319;-0.9645;
1308.3000;0.1343;-0.9520;
1308.6000;0.1359;-0.9520;
1308.9000;0.1327;-0.9570;
1309.2000;0.1327;-0.9520;
1309.5000;0.1327;-0.9469;
1309.8000;0.1311;-0.9495;
1310.1000;0.1343;-0.9394;
1310.4000;0.1351;-0.9369;
1310.7000;0.1335;-0.9369;
1311.0000;0.1327;-0.9294;
1311.3000;0.1327;-0.9369;
1311.6000;0.1311;-0.9520;
1311.9000;0.1351;-0.9444;
1312.2000;0.1351;-0.9469;
1312.5000;0.1368;-0.9394;
1312.8000;0.1343;-0.9520;
1313.1000;0.1335;-0.9620;
1313.4000;0.1335;-0.9545;
1313.7000;0.1327;-0.9520;
1314.0000;0.1343;-0.9419;
1314.3000;0.1319;-0.9495;
1314.6000;0.1294;-0.9570;
1314.9000;0.1351;-0.9369;
1315.2000;0.1327;-0.9495;
1315.5000;0.1270;-0.9620;
1315.8000;0.1302;-0.9545;
1316.1000;0.1343;-0.9419;
1316.4000;0.1384;-0.9369;
1316.7000;0.1335;-0.9469;
1317.0000;0.1335;-0.9495;
1317.3000;0.1319;-0.9670;
1317.6000;0.1384;-0.9545;
1317.9000;0.1359;-0.9695;
1318.2000;0.1311;-0.9771;
1318.5000;0.1368;-0.9771;
1318.8000;0.1359;-0.9746;
1319.1000;0.1359;-0.9721;
1319.4000;0.1335;-0.9721;
1319.7000;0.1343;-0.9645;
1320.0000;0.1327;-0.9746;
1320.3000;0.1278;-0.9871;
1320.6000;0.1351;-0.9595;
1320.9000;0.1294;-0.9771;
1321.2000;0.1343;-0.9620;
1321.5000;0.1343;-0.9545;
1321.8000;0.1327;-0.9670;
1322.1000;0.1351;-0.9645;
1322.4000;0.1351;-0.9670;
1322.7000;0.1351;-0.9595;
1323.0000;0.1343;-0.9570;
1323.3000;0.1351;-0.9520;
1323.6000;0.1319;-0.9545;
1323.9000;0.1343;-0.9495;
1324.2000;0.1359;-0.9419;
1324.5000;0.1359;-0.9419;
1324.8000;0.1343;-0.9419;
1325.1000;0.1343;-0.9495;
1325.4000;0.1319;-0.9570;
1325.7000;0.1335;-0.9570;
1326.0000;0.1294;-0.9595;
1326.3000;0.1327;-0.9520;
1326.6000;0.1327;-0.9520;
1326.9000;0.1343;-0.9620;
1327.2000;0.1359;-0.9595;
1327.5000;0.1343;-0.9595;
1327.8000;0.1351;-0.9695;
1328.1000;0.1319;-0.9796;
1328.4000;0.1327;-0.9821;
1328.7000;0.1327;-0.9796;
1329.0000;0.1335;-0.9695;
1329.3000;0.1351;-0.9495;
1329.6000;0.1400;-0.9444;
1329.9000;0.1351;-0.9444;
1330.2000;0.1368;-0.9369;
1330.5000;0.1335;-0.9520;
1330.8000;0.1245;-0.9771;
1331.1000;0.1335;-0.9570;
1331.4000;0.1343;-0.9570;
1331.7000;0.1343;-0.9545;
1332.0000;0.1343;-0.9520;
1332.3000;0.1343;-0.9520;
1332.6000;0.1351;-0.9495;
1332.9000;0.1359;-0.9469;
1333.2000;0.1327;-0.9469;
1333.5000;0.1359;-0.9444;
1333.8000;0.1408;-0.9344;
1334.1000;0.1343;-0.9520;
1334.4000;0.1384;-0.9369;
1334.7000;0.1327;-0.9419;
1335.0000;0.1335;-0.9344;
1335.3000;0.1327;-0.9394;
1335.6000;0.1327;-0.9369;
1335.9000;0.1319;-0.9444;
1336.2000;0.1368;-0.9469;
1336.5000;0.1343;-0.9595;
1336.8000;0.1286;-0.9645;
1337.1000;0.1311;-0.9520;
1337.4000;0.1335;-0.9495;
1337.7000;0.1351;-0.9419;
1338.0000;0.1335;-0.9495;
1338.3000;0.1294;-0.9645;
1338.6000;0.1343;-0.9595;
1338.9000;0.1327;-0.9670;
1339.2000;0.1335;-0.9670;
1339.5000;0.1343;-0.9721;
1339.8000;0.1400;-0.9545;
1340.1000;0.1335;-0.9721;
1340.4000;0.1335;-0.9645;
1340.7000;0.1335;-0.9620;
1341.0000;0.1335;-0.9645;
1341.3000;0.1368;-0.9595;
1341.6000;0.1351;-0.9595;
1341.9000;0.1400;-0.9495;
1342.2000;0.1343;-0.9620;
1342.5000;0.1384;-0.9520;
1342.8000;0.1473;-0.9243;
1343.1000;0.1302;-0.9670;
1343.4000;0.1343;-0.9620;
1343.7000;0.1335;-0.9620;
1344.0000;0.1351;-0.9595;
1344.3000;0.1278;-0.9746;
1344.6000;0.1319;-0.9645;
1344.9000;0.1319;-0.9620;
1345.2000;0.1343;-0.9595;
1345.5000;0.1327;-0.9670;
1345.8000;0.1368;-0.9595;
1346.1000;0.1327;-0.9821;
1346.4000;0.1327;-0.9821;
1346.7000;0.1343;-0.9670;
1347.0000;0.1319;-0.9645;
1347.3000;0.1351;-0.9520;
1347.6000;0.1302;-0.9620;
1347.9000;0.1335;-0.9570;
1348.2000;0.1319;-0.9520;
1348.5000;0.1359;-0.9394;
1348.8000;0.1343;-0.9369;
1349.1000;0.1319;-0.9495;
1349.4000;0.1335;-0.9545;
1349.7000;0.1343;-0.9545;
1350.0000;0.1327;-0.9670;
1350.3000;0.1327;-0.9721;
1350.6000;0.1359;-0.9721;
1350.9000;0.1343;-0.9796;
1351.2000;0.1343;-0.9821;
1351.5000;0.1343;-0.9695;
1351.8000;0.1335;-0.9670;
1352.1000;0.1359;-0.9595;
1352.4000;0.1359;-0.9595;
1352.7000;0.1351;-0.9595;
1353.0000;0.1343;-0.9520;
1353.3000;0.1270;-0.9620;
1353.6000;0.1351;-0.9419;
1353.9000;0.1335;-0.9394;
1354.2000;0.1335;-0.9444;
1354.5000;0.1335;-0.9419;
1354.8000;0.1327;-0.9495;
1355.1000;0.1343;-0.9520;
1355.4000;0.1351;-0.9495;
1355.7000;0.1294;-0.9670;
1356.0000;0.1343;-0.9620;
1356.3000;0.1327;-0.9721;
1356.6000;0.1302;-0.9871;
1356.9000;0.1335;-0.9846;
1357.2000;0.1319;-0.9922;
1357.5000;0.1359;-0.9721;
1357.8000;0.1311;-0.9771;
1358.1000;0.1311;-0.9796;
1358.4000;0.1351;-0.9670;
1358.7000;0.1294;-0.9771;
1359.0000;0.1368;-0.9620;
1359.3000;0.1327;-0.9670;
1359.6000;0.1359;-0.9670;
1359.9000;0.1343;-0.9821;
1360.2000;0.1343;-0.9947;
1360.5000;0.1335;-0.9997;
1360.8000;0.1359;-0.9922;
1361.1000;0.1368;-0.9871;
1361.4000;0.1335;-0.9896;
1361.7000;0.1319;-0.9871;
1362.0000;0.1335;-0.9746;
1362.3000;0.1335;-0.9771;
1362.6000;0.1335;-0.9721;
1362.9000;0.1319;-0.9746;
1363.2000;0.1359;-0.9670;
1363.5000;0.1384;-0.9645;
1363.8000;0.1319;-0.9821;
1364.1000;0.1319;-0.9796;
1364.4000;0.1359;-0.9821;
1364.7000;0.1351;-0.9947;
1365.0000;0.1327;-1.0022;
1365.3000;0.1351;-0.9922;
1365.6000;0.1343;-0.9896;
1365.9000;0.1359;-0.9846;
1366.2000;0.1343;-0.9896;
1366.5000;0.1384;-0.9796;
1366.8000;0.1294;-1.0022;
1367.1000;0.1335;-0.9947;
1367.4000;0.1294;-0.9972;
1367.7000;0.1335;-0.9721;
1368.0000;0.1335;-0.9670;
1368.3000;0.1319;-0.9846;
1368.6000;0.1343;-0.9771;
1368.9000;0.1335;-0.9796;
1369.2000;0.1351;-0.9821;
1369.5000;0.1343;-0.9746;
1369.8000;0.1335;-0.9721;
1370.1000;0.1327;-0.9721;
1370.4000;0.1327;-0.9695;
1370.7000;0.1327;-0.9670;
1371.0000;0.1359;-0.9620;
1371.3000;0.1335;-0.9595;
1371.6000;0.1319;-0.9570;
1371.9000;0.1327;-0.9444;
1372.2000;0.1327;-0.9469;
1372.5000;0.1343;-0.9444;
1372.8000;0.1335;-0.9495;
1373.1000;0.1368;-0.9444;
1373.4000;0.1343;-0.9570;
1373.7000;0.1327;-0.9620;
1374.0000;0.1335;-0.9620;
1374.3000;0.1254;-0.9821;
1374.6000;0.1376;-0.9495;
1374.9000;0.1278;-0.9746;
1375.2000;0.1335;-0.9545;
1375.5000;0.1327;-0.9495;
1375.8000;0.1335;-0.9469;
1376.1000;0.1343;-0.9444;
1376.4000;0.1319;-0.9394;
1376.7000;0.1335;-0.9444;
1377.0000;0.1319;-0.9394;
1377.3000;0.1335;-0.9394;
1377.6000;0.1335;-0.9469;
1377.9000;0.1319;-0.9545;
1378.2000;0.1335;-0.9495;
1378.5000;0.1392;-0.9344;
1378.8000;0.1351;-0.9394;
1379.1000;0.1368;-0.9344;
1379.4000;0.1359;-0.9369;
1379.7000;0.1343;-0.9344;
1380.0000;0.1294;-0.9444;
1380.3000;0.1311;-0.9394;
1380.6000;0.1311;-0.9520;
1380.9000;0.1351;-0.9495;
1381.2000;0.1335;-0.9520;
1381.5000;0.1343;-0.9495;
1381.8000;0.1327;-0.9520;
1382.1000;0.1335;-0.9545;
1382.4000;0.1343;-0.9520;
1382.7000;0.1335;-0.9595;
1383.0000;0.1335;-0.9620;
1383.3000;0.1327;-0.9595;
1383.6000;0.1335;-0.9545;
1383.9000;0.1343;-0.9495;
1384.2000;0.1343;-0.9595;
1384.5000;0.1335;-0.9595;
1384.8000;0.1335;-0.9645;
1385.1000;0.1351;-0.9620;
1385.4000;0.1343;-0.9670;
1385.7000;0.1327;-0.9670;
1386.0000;0.1335;-0.9645;
1386.3000;0.1335;-0.9695;
1386.6000;0.1343;-0.9695;
1386.9000;0.1351;-0.9595;
1387.2000;0.1351;-0.9495;
1387.5000;0.1351;-0.9444;
1387.8000;0.1335;-0.9545;
1388.1000;0.1319;-0.9570;
1388.4000;0.1327;-0.9570;
1388.7000;0.1343;-0.9545;
1389.0000;0.1343;-0.9570;
1389.3000;0.1343;-0.9570;
1389.6000;0.1343;-0.9444;
1389.9000;0.1343;-0.9469;
1390.2000;0.1319;-0.9520;
1390.5000;0.1311;-0.9545;
1390.8000;0.1343;-0.9545;
1391.1000;0.1335;-0.9645;
1391.4000;0.1319;-0.9695;
1391.7000;0.1327;-0.9645;
1392.0000;0.1343;-0.9570;
1392.3000;0.1327;-0.9570;
1392.6000;0.1359;-0.9570;
1392.9000;0.1343;-0.9670;
1393.2000;0.1335;-0.9721;
1393.5000;0.1335;-0.9670;
1393.8000;0.1343;-0.9670;
1394.1000;0.1343;-0.9645;
1394.4000;0.1335;-0.9545;
1394.7000;0.1343;-0.9520;
1395.0000;0.1343;-0.9545;
1395.3000;0.1343;-0.9620;
1395.6000;0.1319;-0.9721;
1395.9000;0.1327;-0.9695;
1396.2000;0.1343;-0.9721;
1396.5000;0.1343;-0.9796;
1396.8000;0.1335;-0.9871;
1397.1000;0.1327;-0.9896;
1397.4000;0.1351;-0.9922;
1397.7000;0.1335;-0.9922;
1398.0000;0.1302;-0.9796;
1398.3000;0.1335;-0.9771;
1398.6000;0.1343;-0.9796;
1398.9000;0.1335;-0.9771;
1399.2000;0.1359;-0.9771;
1399.5000;0.1327;-0.9821;
1399.8000;0.1319;-0.9796;
