time/ms;Fluo/V;P700 deltaI/I x10³;
-199.8000;0.0879;4.3374;
-199.5000;0.0838;4.3252;
-199.2000;0.0855;4.3301;
-198.9000;0.0838;4.3252;
-198.6000;0.0920;4.3495;
-198.3000;0.0863;4.3349;
-198.0000;0.0855;4.3301;
-197.7000;0.0879;4.3325;
-197.4000;0.0871;4.3349;
-197.1000;0.0895;4.3447;
-196.8000;0.0838;4.3252;
-196.5000;0.0838;4.3276;
-196.2000;0.0863;4.3422;
-195.9000;0.0855;4.3398;
-195.6000;0.0904;4.3617;
-195.3000;0.0871;4.3520;
-195.0000;0.0879;4.3447;
-194.7000;0.0920;4.3544;
-194.4000;0.0855;4.3349;
-194.1000;0.0822;4.3228;
-193.8000;0.0879;4.3349;
-193.5000;0.0855;4.3374;
-193.2000;0.0887;4.3520;
-192.9000;0.0847;4.3325;
-192.6000;0.0895;4.3398;
-192.3000;0.0838;4.3252;
-192.0000;0.0863;4.3276;
-191.7000;0.0847;4.3276;
-191.4000;0.0895;4.3422;
-191.1000;0.0879;4.3398;
-190.8000;0.0855;4.3252;
-190.5000;0.0838;4.3155;
-190.2000;0.0847;4.3130;
-189.9000;0.0855;4.3179;
-189.6000;0.0855;4.3228;
-189.3000;0.0822;4.3179;
-189.0000;0.0847;4.3276;
-188.7000;0.0863;4.3349;
-188.4000;0.0863;4.3349;
-188.1000;0.0904;4.3471;
-187.8000;0.0830;4.3203;
-187.5000;0.0847;4.3203;
-187.2000;0.0822;4.3130;
-186.9000;0.0879;4.3276;
-186.6000;0.0830;4.3130;
-186.3000;0.0855;4.3155;
-186.0000;0.0838;4.3130;
-185.7000;0.0855;4.3203;
-185.4000;0.0847;4.3252;
-185.1000;0.0838;4.3203;
-184.8000;0.0863;4.3228;
-184.5000;0.0863;4.3276;
-184.2000;0.0912;4.3447;
-183.9000;0.0830;4.3276;
-183.6000;0.0847;4.3276;
-183.3000;0.0822;4.3325;
-183.0000;0.0871;4.3349;
-182.7000;0.0830;4.3301;
-182.4000;0.0847;4.3325;
-182.1000;0.0871;4.3374;
-181.8000;0.0838;4.3374;
-181.5000;0.0871;4.3422;
-181.2000;0.0847;4.3422;
-180.9000;0.0830;4.3301;
-180.6000;0.1001;4.3739;
-180.3000;0.0871;4.3447;
-180.0000;0.0879;4.3301;
-179.7000;0.0887;4.3203;
-179.4000;0.0871;4.3106;
-179.1000;0.0847;4.3033;
-178.8000;0.0871;4.3179;
-178.5000;0.0871;4.3228;
-178.2000;0.0871;4.3203;
-177.9000;0.0855;4.3203;
-177.6000;0.0863;4.3228;
-177.3000;0.0871;4.3276;
-177.0000;0.0863;4.3301;
-176.7000;0.0863;4.3252;
-176.4000;0.0790;4.3082;
-176.1000;0.0863;4.3228;
-175.8000;0.0871;4.3252;
-175.5000;0.0847;4.3203;
-175.2000;0.0855;4.3203;
-174.9000;0.0855;4.3203;
-174.6000;0.0879;4.3228;
-174.3000;0.0895;4.3203;
-174.0000;0.0822;4.3057;
-173.7000;0.0863;4.3228;
-173.4000;0.0838;4.3252;
-173.1000;0.0863;4.3349;
-172.8000;0.0822;4.3228;
-172.5000;0.0863;4.3301;
-172.2000;0.0863;4.3398;
-171.9000;0.0830;4.3228;
-171.6000;0.0847;4.3301;
-171.3000;0.0847;4.3252;
-171.0000;0.0790;4.3033;
-170.7000;0.0863;4.3130;
-170.4000;0.0871;4.3252;
-170.1000;0.0863;4.3252;
-169.8000;0.0863;4.3203;
-169.5000;0.0822;4.3130;
-169.2000;0.0855;4.3301;
-168.9000;0.0847;4.3301;
-168.6000;0.0822;4.3301;
-168.3000;0.0855;4.3422;
-168.0000;0.0863;4.3422;
-167.7000;0.0855;4.3374;
-167.4000;0.0855;4.3325;
-167.1000;0.0863;4.3349;
-166.8000;0.0855;4.3325;
-166.5000;0.0847;4.3374;
-166.2000;0.0871;4.3349;
-165.9000;0.0863;4.3325;
-165.6000;0.0838;4.3228;
-165.3000;0.0855;4.3301;
-165.0000;0.0838;4.3203;
-164.7000;0.0830;4.3228;
-164.4000;0.0863;4.3374;
-164.1000;0.0855;4.3325;
-163.8000;0.0863;4.3325;
-163.5000;0.0814;4.3301;
-163.2000;0.0855;4.3520;
-162.9000;0.0863;4.3544;
-162.6000;0.0765;4.3301;
-162.3000;0.0855;4.3495;
-162.0000;0.0855;4.3447;
-161.7000;0.0847;4.3422;
-161.4000;0.0879;4.3447;
-161.1000;0.0863;4.3325;
-160.8000;0.0863;4.3374;
-160.5000;0.0855;4.3374;
-160.2000;0.0830;4.3228;
-159.9000;0.0863;4.3252;
-159.6000;0.0863;4.3155;
-159.3000;0.0863;4.3203;
-159.0000;0.0798;4.2984;
-158.7000;0.0863;4.3228;
-158.4000;0.0855;4.3179;
-158.1000;0.0887;4.3301;
-157.8000;0.0863;4.3301;
-157.5000;0.0838;4.3349;
-157.2000;0.0855;4.3325;
-156.9000;0.0830;4.3228;
-156.6000;0.0855;4.3301;
-156.3000;0.0855;4.3325;
-156.0000;0.0879;4.3276;
-155.7000;0.0863;4.3203;
-155.4000;0.0847;4.3349;
-155.1000;0.0855;4.3422;
-154.8000;0.0863;4.3374;
-154.5000;0.0879;4.3422;
-154.2000;0.0863;4.3398;
-153.9000;0.0855;4.3325;
-153.6000;0.0814;4.3276;
-153.3000;0.0855;4.3276;
-153.0000;0.0863;4.3301;
-152.7000;0.0847;4.3301;
-152.4000;0.0863;4.3252;
-152.1000;0.0863;4.3325;
-151.8000;0.0847;4.3228;
-151.5000;0.0855;4.3349;
-151.2000;0.0855;4.3398;
-150.9000;0.0838;4.3325;
-150.6000;0.0863;4.3471;
-150.3000;0.0863;4.3471;
-150.0000;0.0855;4.3422;
-149.7000;0.0847;4.3422;
-149.4000;0.0838;4.3495;
-149.1000;0.0855;4.3544;
-148.8000;0.0855;4.3568;
-148.5000;0.0838;4.3593;
-148.2000;0.0847;4.3641;
-147.9000;0.0863;4.3544;
-147.6000;0.0855;4.3471;
-147.3000;0.0838;4.3422;
-147.0000;0.0855;4.3471;
-146.7000;0.0830;4.3447;
-146.4000;0.0871;4.3520;
-146.1000;0.0863;4.3568;
-145.8000;0.0863;4.3520;
-145.5000;0.0830;4.3422;
-145.2000;0.0863;4.3520;
-144.9000;0.0871;4.3568;
-144.6000;0.0855;4.3398;
-144.3000;0.0863;4.3495;
-144.0000;0.0863;4.3568;
-143.7000;0.0847;4.3617;
-143.4000;0.0863;4.3666;
-143.1000;0.0871;4.3593;
-142.8000;0.0863;4.3544;
-142.5000;0.0871;4.3593;
-142.2000;0.0847;4.3471;
-141.9000;0.0847;4.3471;
-141.6000;0.0863;4.3666;
-141.3000;0.0871;4.3617;
-141.0000;0.0904;4.3690;
-140.7000;0.0855;4.3617;
-140.4000;0.0879;4.3690;
-140.1000;0.0887;4.3690;
-139.8000;0.0757;4.3422;
-139.5000;0.0863;4.3641;
-139.2000;0.0863;4.3568;
-138.9000;0.0863;4.3617;
-138.6000;0.0847;4.3495;
-138.3000;0.0847;4.3447;
-138.0000;0.0912;4.3641;
-137.7000;0.0928;4.3690;
-137.4000;0.0871;4.3471;
-137.1000;0.0798;4.3179;
-136.8000;0.0863;4.3325;
-136.5000;0.0928;4.3447;
-136.2000;0.0952;4.3593;
-135.9000;0.0855;4.3349;
-135.6000;0.0863;4.3349;
-135.3000;0.0920;4.3495;
-135.0000;0.0757;4.3106;
-134.7000;0.0806;4.3155;
-134.4000;0.0855;4.3252;
-134.1000;0.0822;4.3082;
-133.8000;0.0887;4.3130;
-133.5000;0.0855;4.3033;
-133.2000;0.0847;4.3009;
-132.9000;0.0814;4.2960;
-132.6000;0.0879;4.3106;
-132.3000;0.0855;4.3130;
-132.0000;0.0863;4.3155;
-131.7000;0.0863;4.3082;
-131.4000;0.0879;4.3155;
-131.1000;0.0838;4.3106;
-130.8000;0.0855;4.3179;
-130.5000;0.0814;4.3130;
-130.2000;0.0855;4.3301;
-129.9000;0.0830;4.3252;
-129.6000;0.0847;4.3228;
-129.3000;0.0912;4.3447;
-129.0000;0.0830;4.3276;
-128.7000;0.0847;4.3276;
-128.4000;0.0838;4.3179;
-128.1000;0.0830;4.3179;
-127.8000;0.0863;4.3325;
-127.5000;0.0855;4.3179;
-127.2000;0.0904;4.3325;
-126.9000;0.0847;4.3130;
-126.6000;0.0863;4.3179;
-126.3000;0.0838;4.3155;
-126.0000;0.0847;4.3155;
-125.7000;0.0838;4.3106;
-125.4000;0.0838;4.3106;
-125.1000;0.0863;4.3130;
-124.8000;0.0863;4.3252;
-124.5000;0.0847;4.3252;
-124.2000;0.0822;4.3130;
-123.9000;0.0879;4.3276;
-123.6000;0.0838;4.3179;
-123.3000;0.0920;4.3471;
-123.0000;0.0871;4.3471;
-122.7000;0.0847;4.3398;
-122.4000;0.0847;4.3349;
-122.1000;0.0904;4.3471;
-121.8000;0.0814;4.3179;
-121.5000;0.0830;4.3155;
-121.2000;0.0757;4.2862;
-120.9000;0.0863;4.3106;
-120.6000;0.0855;4.3082;
-120.3000;0.0814;4.3033;
-120.0000;0.0806;4.3033;
-119.7000;0.0855;4.3179;
-119.4000;0.0855;4.3155;
-119.1000;0.0855;4.3057;
-118.8000;0.0863;4.3106;
-118.5000;0.0871;4.3179;
-118.2000;0.0765;4.2789;
-117.9000;0.0847;4.3057;
-117.6000;0.0855;4.3082;
-117.3000;0.0838;4.3106;
-117.0000;0.0887;4.3325;
-116.7000;0.0855;4.3228;
-116.4000;0.0871;4.3252;
-116.1000;0.0749;4.2936;
-115.8000;0.0855;4.3130;
-115.5000;0.0871;4.3276;
-115.2000;0.0961;4.3568;
-114.9000;0.0887;4.3374;
-114.6000;0.0855;4.3179;
-114.3000;0.0847;4.3033;
-114.0000;0.0855;4.3033;
-113.7000;0.0863;4.3057;
-113.4000;0.0879;4.3082;
-113.1000;0.0781;4.2862;
-112.8000;0.0830;4.3009;
-112.5000;0.0895;4.3276;
-112.2000;0.0855;4.3228;
-111.9000;0.0863;4.3228;
-111.6000;0.0879;4.3130;
-111.3000;0.0855;4.3106;
-111.0000;0.0863;4.3106;
-110.7000;0.0855;4.3130;
-110.4000;0.0855;4.3082;
-110.1000;0.0887;4.3179;
-109.8000;0.0863;4.3130;
-109.5000;0.0814;4.3033;
-109.2000;0.0830;4.3057;
-108.9000;0.0879;4.3057;
-108.6000;0.0863;4.2960;
-108.3000;0.0822;4.2936;
-108.0000;0.0765;4.2814;
-107.7000;0.0855;4.2936;
-107.4000;0.0863;4.2838;
-107.1000;0.0700;4.2522;
-106.8000;0.0871;4.2887;
-106.5000;0.0871;4.2838;
-106.2000;0.0773;4.2668;
-105.9000;0.0863;4.2911;
-105.6000;0.0847;4.2789;
-105.3000;0.0887;4.2887;
-105.0000;0.0887;4.2862;
-104.7000;0.0847;4.2911;
-104.4000;0.0895;4.3082;
-104.1000;0.0838;4.2960;
-103.8000;0.0887;4.3155;
-103.5000;0.0830;4.2960;
-103.2000;0.0879;4.3057;
-102.9000;0.0838;4.3033;
-102.6000;0.0781;4.2960;
-102.3000;0.0871;4.3252;
-102.0000;0.0838;4.3155;
-101.7000;0.0871;4.3203;
-101.4000;0.0765;4.2887;
-101.1000;0.0838;4.3155;
-100.8000;0.0871;4.3252;
-100.5000;0.0798;4.3009;
-100.2000;0.0855;4.3179;
-99.9000;0.0855;4.3155;
-99.6000;0.0855;4.3228;
-99.3000;0.0822;4.3203;
-99.0000;0.0855;4.3301;
-98.7000;0.0847;4.3228;
-98.4000;0.0879;4.3325;
-98.1000;0.0887;4.3422;
-97.8000;0.0847;4.3325;
-97.5000;0.0822;4.3276;
-97.2000;0.0838;4.3276;
-96.9000;0.0895;4.3349;
-96.6000;0.0871;4.3349;
-96.3000;0.0814;4.3082;
-96.0000;0.0871;4.3252;
-95.7000;0.0895;4.3276;
-95.4000;0.0855;4.3106;
-95.1000;0.0855;4.3033;
-94.8000;0.0863;4.3057;
-94.5000;0.0863;4.3082;
-94.2000;0.0847;4.3130;
-93.9000;0.0855;4.3033;
-93.6000;0.0871;4.3130;
-93.3000;0.0879;4.3155;
-93.0000;0.0863;4.3155;
-92.7000;0.0871;4.3155;
-92.4000;0.0838;4.3130;
-92.1000;0.0798;4.3228;
-91.8000;0.0855;4.3252;
-91.5000;0.0838;4.3228;
-91.2000;0.0855;4.3228;
-90.9000;0.0879;4.3325;
-90.6000;0.0855;4.3301;
-90.3000;0.0847;4.3276;
-90.0000;0.0887;4.3398;
-89.7000;0.0855;4.3349;
-89.4000;0.0838;4.3325;
-89.1000;0.0830;4.3155;
-88.8000;0.0847;4.3179;
-88.5000;0.0871;4.3203;
-88.2000;0.0830;4.3033;
-87.9000;0.0822;4.3155;
-87.6000;0.0863;4.3252;
-87.3000;0.0855;4.3398;
-87.0000;0.0847;4.3349;
-86.7000;0.0838;4.3374;
-86.4000;0.0798;4.3252;
-86.1000;0.0879;4.3374;
-85.8000;0.0847;4.3349;
-85.5000;0.0904;4.3471;
-85.2000;0.0847;4.3349;
-84.9000;0.0879;4.3495;
-84.6000;0.0863;4.3349;
-84.3000;0.0855;4.3179;
-84.0000;0.0855;4.3155;
-83.7000;0.0847;4.3155;
-83.4000;0.0822;4.3130;
-83.1000;0.0879;4.3349;
-82.8000;0.0822;4.3203;
-82.5000;0.0847;4.3155;
-82.2000;0.0822;4.3106;
-81.9000;0.0928;4.3447;
-81.6000;0.0879;4.3301;
-81.3000;0.0822;4.3155;
-81.0000;0.0838;4.3228;
-80.7000;0.0863;4.3301;
-80.4000;0.0847;4.3325;
-80.1000;0.0838;4.3349;
-79.8000;0.0879;4.3495;
-79.5000;0.0822;4.3349;
-79.2000;0.0871;4.3471;
-78.9000;0.0847;4.3301;
-78.6000;0.0912;4.3398;
-78.3000;0.0781;4.3009;
-78.0000;0.0855;4.3349;
-77.7000;0.0879;4.3398;
-77.4000;0.0944;4.3520;
-77.1000;0.0838;4.3252;
-76.8000;0.0863;4.3325;
-76.5000;0.0798;4.3130;
-76.2000;0.0847;4.3228;
-75.9000;0.0781;4.3009;
-75.6000;0.0822;4.3203;
-75.3000;0.0887;4.3349;
-75.0000;0.0863;4.3349;
-74.7000;0.0838;4.3325;
-74.4000;0.0814;4.3301;
-74.1000;0.0838;4.3349;
-73.8000;0.0847;4.3374;
-73.5000;0.0830;4.3349;
-73.2000;0.0879;4.3520;
-72.9000;0.0847;4.3349;
-72.6000;0.0871;4.3447;
-72.3000;0.0838;4.3398;
-72.0000;0.0847;4.3495;
-71.7000;0.0855;4.3471;
-71.4000;0.0855;4.3495;
-71.1000;0.0863;4.3447;
-70.8000;0.0863;4.3349;
-70.5000;0.0847;4.3374;
-70.2000;0.0855;4.3447;
-69.9000;0.0847;4.3422;
-69.6000;0.0830;4.3422;
-69.3000;0.0855;4.3471;
-69.0000;0.0855;4.3447;
-68.7000;0.0855;4.3471;
-68.4000;0.0830;4.3398;
-68.1000;0.0847;4.3398;
-67.8000;0.0863;4.3398;
-67.5000;0.0879;4.3398;
-67.2000;0.0855;4.3374;
-66.9000;0.0912;4.3520;
-66.6000;0.0871;4.3422;
-66.3000;0.0822;4.3252;
-66.0000;0.0895;4.3495;
-65.7000;0.0855;4.3325;
-65.4000;0.0928;4.3495;
-65.1000;0.0936;4.3544;
-64.8000;0.0847;4.3301;
-64.5000;0.0806;4.3228;
-64.2000;0.0830;4.3325;
-63.9000;0.0871;4.3374;
-63.6000;0.0863;4.3325;
-63.3000;0.0847;4.3349;
-63.0000;0.0863;4.3301;
-62.7000;0.0847;4.3228;
-62.4000;0.0871;4.3276;
-62.1000;0.0871;4.3374;
-61.8000;0.0855;4.3325;
-61.5000;0.0757;4.3082;
-61.2000;0.0863;4.3398;
-60.9000;0.0863;4.3349;
-60.6000;0.0855;4.3349;
-60.3000;0.0790;4.3228;
-60.0000;0.0855;4.3471;
-59.7000;0.0855;4.3447;
-59.4000;0.0847;4.3398;
-59.1000;0.0855;4.3325;
-58.8000;0.0871;4.3495;
-58.5000;0.0830;4.3349;
-58.2000;0.0855;4.3398;
-57.9000;0.0879;4.3398;
-57.6000;0.0847;4.3301;
-57.3000;0.0749;4.2984;
-57.0000;0.0871;4.3349;
-56.7000;0.0863;4.3349;
-56.4000;0.0838;4.3349;
-56.1000;0.0806;4.3301;
-55.8000;0.0855;4.3471;
-55.5000;0.0863;4.3544;
-55.2000;0.0855;4.3471;
-54.9000;0.0863;4.3398;
-54.6000;0.0871;4.3374;
-54.3000;0.0855;4.3349;
-54.0000;0.0879;4.3398;
-53.7000;0.0822;4.3252;
-53.4000;0.0781;4.3057;
-53.1000;0.0855;4.3349;
-52.8000;0.0855;4.3325;
-52.5000;0.0847;4.3252;
-52.2000;0.0855;4.3398;
-51.9000;0.0838;4.3301;
-51.6000;0.0855;4.3447;
-51.3000;0.0863;4.3422;
-51.0000;0.0806;4.3228;
-50.7000;0.0847;4.3349;
-50.4000;0.0822;4.3325;
-50.1000;0.0993;4.3763;
-49.8000;0.0879;4.3422;
-49.5000;0.0879;4.3349;
-49.2000;0.0847;4.3252;
-48.9000;0.0879;4.3325;
-48.6000;0.0855;4.3252;
-48.3000;0.0838;4.3325;
-48.0000;0.0838;4.3374;
-47.7000;0.0920;4.3568;
-47.4000;0.0863;4.3349;
-47.1000;0.0863;4.3374;
-46.8000;0.0847;4.3349;
-46.5000;0.0871;4.3398;
-46.2000;0.0838;4.3325;
-45.9000;0.0830;4.3276;
-45.6000;0.0855;4.3374;
-45.3000;0.0855;4.3349;
-45.0000;0.0863;4.3325;
-44.7000;0.0838;4.3276;
-44.4000;0.0847;4.3276;
-44.1000;0.0904;4.3349;
-43.8000;0.0879;4.3276;
-43.5000;0.0847;4.3252;
-43.2000;0.0855;4.3252;
-42.9000;0.0944;4.3520;
-42.6000;0.0855;4.3301;
-42.3000;0.0847;4.3349;
-42.0000;0.0855;4.3252;
-41.7000;0.0928;4.3471;
-41.4000;0.0863;4.3155;
-41.1000;0.0838;4.3009;
-40.8000;0.0855;4.3130;
-40.5000;0.0887;4.3276;
-40.2000;0.0871;4.3301;
-39.9000;0.0863;4.3276;
-39.6000;0.0830;4.3228;
-39.3000;0.0830;4.3106;
-39.0000;0.0847;4.3155;
-38.7000;0.0773;4.3033;
-38.4000;0.0847;4.3301;
-38.1000;0.0847;4.3276;
-37.8000;0.0838;4.3349;
-37.5000;0.0830;4.3228;
-37.2000;0.0952;4.3471;
-36.9000;0.0838;4.3130;
-36.6000;0.0847;4.3179;
-36.3000;0.0790;4.3057;
-36.0000;0.0871;4.3252;
-35.7000;0.0879;4.3252;
-35.4000;0.0863;4.3276;
-35.1000;0.0879;4.3374;
-34.8000;0.0863;4.3325;
-34.5000;0.0855;4.3349;
-34.2000;0.0944;4.3544;
-33.9000;0.0798;4.3203;
-33.6000;0.0855;4.3398;
-33.3000;0.0814;4.3374;
-33.0000;0.0863;4.3568;
-32.7000;0.0871;4.3520;
-32.4000;0.0871;4.3447;
-32.1000;0.0879;4.3349;
-31.8000;0.0912;4.3422;
-31.5000;0.0847;4.3179;
-31.2000;0.0855;4.3155;
-30.9000;0.0879;4.3276;
-30.6000;0.0855;4.3349;
-30.3000;0.0847;4.3325;
-30.0000;0.0855;4.3447;
-29.7000;0.0879;4.3568;
-29.4000;0.0863;4.3422;
-29.1000;0.0904;4.3471;
-28.8000;0.0798;4.3203;
-28.5000;0.0847;4.3252;
-28.2000;0.0985;4.3666;
-27.9000;0.0814;4.3106;
-27.6000;0.0855;4.3276;
-27.3000;0.0855;4.3276;
-27.0000;0.0863;4.3349;
-26.7000;0.0871;4.3325;
-26.4000;0.0814;4.3252;
-26.1000;0.0879;4.3422;
-25.8000;0.0904;4.3593;
-25.5000;0.0863;4.3422;
-25.2000;0.0887;4.3495;
-24.9000;0.0847;4.3447;
-24.6000;0.0863;4.3471;
-24.3000;0.0863;4.3495;
-24.0000;0.0879;4.3520;
-23.7000;0.0847;4.3447;
-23.4000;0.0838;4.3374;
-23.1000;0.0863;4.3520;
-22.8000;0.0855;4.3495;
-22.5000;0.0822;4.3422;
-22.2000;0.0838;4.3471;
-21.9000;0.0863;4.3544;
-21.6000;0.0838;4.3447;
-21.3000;0.0863;4.3495;
-21.0000;0.0904;4.3520;
-20.7000;0.0904;4.3422;
-20.4000;0.0863;4.3301;
-20.1000;0.0871;4.3374;
-19.8000;0.0952;4.3520;
-19.5000;0.0863;4.3252;
-19.2000;0.0879;4.3203;
-18.9000;0.0871;4.3179;
-18.6000;0.0733;4.2814;
-18.3000;0.0871;4.3203;
-18.0000;0.0871;4.3155;
-17.7000;0.0961;4.3520;
-17.4000;0.0806;4.3155;
-17.1000;0.0855;4.3228;
-16.8000;0.0822;4.3155;
-16.5000;0.0741;4.2911;
-16.2000;0.0895;4.3422;
-15.9000;0.0838;4.3252;
-15.6000;0.0969;4.3495;
-15.3000;0.0863;4.3179;
-15.0000;0.0863;4.3252;
-14.7000;0.0904;4.3301;
-14.4000;0.0871;4.3155;
-14.1000;0.0773;4.2936;
-13.8000;0.0855;4.3130;
-13.5000;0.0847;4.3155;
-13.2000;0.0952;4.3422;
-12.9000;0.0855;4.3325;
-12.6000;0.0855;4.3325;
-12.3000;0.0855;4.3325;
-12.0000;0.0847;4.3252;
-11.7000;0.0830;4.3203;
-11.4000;0.0790;4.3033;
-11.1000;0.0847;4.3203;
-10.8000;0.0749;4.2911;
-10.5000;0.0863;4.3252;
-10.2000;0.0895;4.3374;
-9.9000;0.0879;4.3203;
-9.6000;0.0855;4.3203;
-9.3000;0.0871;4.3252;
-9.0000;0.0847;4.3203;
-8.7000;0.0879;4.3203;
-8.4000;0.0887;4.3252;
-8.1000;0.0838;4.3203;
-7.8000;0.0855;4.3228;
-7.5000;0.0879;4.3349;
-7.2000;0.0871;4.3276;
-6.9000;0.0863;4.3252;
-6.6000;0.0871;4.3252;
-6.3000;0.0847;4.3130;
-6.0000;0.0847;4.3155;
-5.7000;0.0838;4.3130;
-5.4000;0.0855;4.3155;
-5.1000;0.0871;4.3203;
-4.8000;0.0904;4.3349;
-4.5000;0.0855;4.3179;
-4.2000;0.0863;4.3228;
-3.9000;0.0773;4.2911;
-3.6000;0.0847;4.3203;
-3.3000;0.0847;4.3082;
-3.0000;0.0871;4.3009;
-2.7000;0.0838;4.2960;
-2.4000;0.0863;4.3009;
-2.1000;0.0838;4.3009;
-1.8000;0.0871;4.3106;
-1.5000;0.0863;4.3130;
-1.2000;0.0871;4.3130;
-0.9000;0.0790;4.2984;
-0.6000;0.0847;4.3203;
-0.3000;0.0855;4.3228;
0.0000;0.0855;4.3228;
0.3000;0.0871;4.3130;
0.6000;0.0887;4.3325;
0.9000;0.0895;4.3471;
1.2000;0.0912;4.3593;
1.5000;0.0920;4.3666;
1.8000;0.0952;4.3836;
2.1000;0.0944;4.3885;
2.4000;0.0928;4.3982;
2.7000;0.0969;4.4104;
3.0000;0.1018;4.4274;
3.3000;0.1042;4.4420;
3.6000;0.0985;4.4323;
3.9000;0.0985;4.4274;
4.2000;0.1026;4.4372;
4.5000;0.0928;4.4055;
4.8000;0.0993;4.4250;
5.1000;0.0985;4.4299;
5.4000;0.0944;4.4177;
5.7000;0.1018;4.4372;
6.0000;0.1034;4.4445;
6.3000;0.0952;4.4299;
6.6000;0.1009;4.4493;
6.9000;0.0993;4.4518;
7.2000;0.0993;4.4518;
7.5000;0.0969;4.4420;
7.8000;0.1026;4.4664;
8.1000;0.1083;4.4810;
8.4000;0.0879;4.4250;
8.7000;0.1001;4.4615;
9.0000;0.1034;4.4639;
9.3000;0.1009;4.4591;
9.6000;0.0920;4.4396;
9.9000;0.1034;4.4761;
10.2000;0.1009;4.4737;
10.5000;0.1034;4.4834;
10.8000;0.1058;4.4931;
11.1000;0.1034;4.4761;
11.4000;0.1018;4.4664;
11.7000;0.1018;4.4639;
12.0000;0.0993;4.4542;
12.3000;0.1018;4.4542;
12.6000;0.1042;4.4615;
12.9000;0.1042;4.4664;
13.2000;0.1009;4.4518;
13.5000;0.1001;4.4518;
13.8000;0.1042;4.4639;
14.1000;0.1091;4.4810;
14.4000;0.0969;4.4542;
14.7000;0.1042;4.4785;
15.0000;0.1026;4.4664;
15.3000;0.1018;4.4615;
15.6000;0.0920;4.4250;
15.9000;0.1001;4.4518;
16.2000;0.1034;4.4542;
16.5000;0.1001;4.4469;
16.8000;0.1034;4.4493;
17.1000;0.0985;4.4372;
17.4000;0.1074;4.4664;
17.7000;0.1050;4.4566;
18.0000;0.0993;4.4445;
18.3000;0.1042;4.4615;
18.6000;0.1026;4.4469;
18.9000;0.0993;4.4372;
19.2000;0.1050;4.4518;
19.5000;0.1018;4.4493;
19.8000;0.0936;4.4323;
20.1000;0.1001;4.4518;
20.4000;0.1050;4.4712;
20.7000;0.1034;4.4712;
21.0000;0.1042;4.4664;
21.3000;0.1018;4.4712;
21.6000;0.1042;4.4810;
21.9000;0.1001;4.4688;
22.2000;0.1001;4.4688;
22.5000;0.1018;4.4737;
22.8000;0.1042;4.4785;
23.1000;0.1042;4.4761;
23.4000;0.1018;4.4664;
23.7000;0.1042;4.4737;
24.0000;0.1026;4.4688;
24.3000;0.1034;4.4615;
24.6000;0.1058;4.4664;
24.9000;0.1001;4.4566;
25.2000;0.1034;4.4664;
25.5000;0.1050;4.4761;
25.8000;0.1026;4.4639;
26.1000;0.1034;4.4591;
26.4000;0.1009;4.4469;
26.7000;0.1026;4.4469;
27.0000;0.1042;4.4469;
27.3000;0.0944;4.4250;
27.6000;0.1050;4.4688;
27.9000;0.0985;4.4566;
28.2000;0.1050;4.4639;
28.5000;0.1083;4.4858;
28.8000;0.1026;4.4688;
29.1000;0.1026;4.4639;
29.4000;0.1058;4.4761;
29.7000;0.1034;4.4737;
30.0000;0.1018;4.4737;
30.3000;0.1018;4.4712;
30.6000;0.1066;4.4907;
30.9000;0.1034;4.4834;
31.2000;0.1050;4.4858;
31.5000;0.0985;4.4761;
31.8000;0.1050;4.4956;
32.1000;0.1050;4.4907;
32.4000;0.1083;4.5077;
32.7000;0.1009;4.4834;
33.0000;0.1018;4.4834;
33.3000;0.1042;4.4907;
33.6000;0.0993;4.4785;
33.9000;0.0969;4.4761;
34.2000;0.1034;4.4907;
34.5000;0.1066;4.4907;
34.8000;0.0944;4.4518;
35.1000;0.0944;4.4445;
35.4000;0.1042;4.4712;
35.7000;0.1009;4.4712;
36.0000;0.0993;4.4688;
36.3000;0.1026;4.4785;
36.6000;0.0985;4.4639;
36.9000;0.1026;4.4761;
37.2000;0.0969;4.4639;
37.5000;0.1001;4.4761;
37.8000;0.1034;4.4785;
38.1000;0.0952;4.4542;
38.4000;0.1026;4.4712;
38.7000;0.1058;4.4858;
39.0000;0.1042;4.4858;
39.3000;0.1058;4.4761;
39.6000;0.1034;4.4664;
39.9000;0.0961;4.4420;
40.2000;0.1050;4.4664;
40.5000;0.1058;4.4664;
40.8000;0.1058;4.4664;
41.1000;0.1066;4.4737;
41.4000;0.1083;4.4858;
41.7000;0.1042;4.4810;
42.0000;0.1042;4.4785;
42.3000;0.1058;4.4737;
42.6000;0.1058;4.4688;
42.9000;0.0961;4.4396;
43.2000;0.1034;4.4542;
43.5000;0.1034;4.4615;
43.8000;0.1034;4.4664;
44.1000;0.1034;4.4639;
44.4000;0.1042;4.4664;
44.7000;0.1009;4.4615;
45.0000;0.1042;4.4712;
45.3000;0.1034;4.4712;
45.6000;0.1034;4.4639;
45.9000;0.1066;4.4737;
46.2000;0.1001;4.4493;
46.5000;0.1042;4.4615;
46.8000;0.1026;4.4566;
47.1000;0.1042;4.4615;
47.4000;0.1066;4.4639;
47.7000;0.1034;4.4518;
48.0000;0.1026;4.4518;
48.3000;0.1042;4.4591;
48.6000;0.1009;4.4420;
48.9000;0.1026;4.4469;
49.2000;0.1026;4.4493;
49.5000;0.1042;4.4566;
49.8000;0.1034;4.4639;
50.1000;0.1074;4.4785;
50.4000;0.1050;4.4664;
50.7000;0.1009;4.4518;
51.0000;0.1140;4.4858;
51.3000;0.0969;4.4469;
51.6000;0.1058;4.4688;
51.9000;0.1066;4.4761;
52.2000;0.1091;4.4834;
52.5000;0.1058;4.4639;
52.8000;0.1042;4.4664;
53.1000;0.1083;4.4664;
53.4000;0.1083;4.4688;
53.7000;0.1050;4.4591;
54.0000;0.0961;4.4323;
54.3000;0.1123;4.4761;
54.6000;0.1042;4.4566;
54.9000;0.1042;4.4542;
55.2000;0.1026;4.4542;
55.5000;0.1050;4.4639;
55.8000;0.1058;4.4664;
56.1000;0.0977;4.4518;
56.4000;0.1001;4.4664;
56.7000;0.1042;4.4688;
57.0000;0.1018;4.4542;
57.3000;0.1018;4.4469;
57.6000;0.1034;4.4469;
57.9000;0.1042;4.4469;
58.2000;0.1058;4.4493;
58.5000;0.1026;4.4420;
58.8000;0.1058;4.4493;
59.1000;0.1066;4.4566;
59.4000;0.1066;4.4542;
59.7000;0.0969;4.4299;
60.0000;0.1074;4.4542;
60.3000;0.1034;4.4469;
60.6000;0.1050;4.4542;
60.9000;0.1018;4.4445;
61.2000;0.1042;4.4518;
61.5000;0.1026;4.4445;
61.8000;0.1050;4.4445;
62.1000;0.1042;4.4347;
62.4000;0.1058;4.4372;
62.7000;0.1050;4.4299;
63.0000;0.1091;4.4493;
63.3000;0.1066;4.4493;
63.6000;0.1042;4.4518;
63.9000;0.1034;4.4493;
64.2000;0.1058;4.4566;
64.5000;0.1050;4.4469;
64.8000;0.1009;4.4420;
65.1000;0.1148;4.4834;
65.4000;0.1050;4.4591;
65.7000;0.1050;4.4639;
66.0000;0.1001;4.4542;
66.3000;0.1026;4.4566;
66.6000;0.1018;4.4420;
66.9000;0.1050;4.4493;
67.2000;0.1009;4.4493;
67.5000;0.1058;4.4615;
67.8000;0.1034;4.4566;
68.1000;0.1074;4.4712;
68.4000;0.1066;4.4615;
68.7000;0.1066;4.4688;
69.0000;0.1042;4.4688;
69.3000;0.1050;4.4688;
69.6000;0.1026;4.4688;
69.9000;0.1042;4.4712;
70.2000;0.1058;4.4688;
70.5000;0.1058;4.4712;
70.8000;0.1050;4.4639;
71.1000;0.1009;4.4542;
71.4000;0.1034;4.4493;
71.7000;0.1042;4.4493;
72.0000;0.1091;4.4639;
72.3000;0.1042;4.4469;
72.6000;0.1026;4.4420;
72.9000;0.1058;4.4445;
73.2000;0.1058;4.4542;
73.5000;0.1001;4.4396;
73.8000;0.1034;4.4493;
74.1000;0.1042;4.4420;
74.4000;0.1050;4.4445;
74.7000;0.0993;4.4420;
75.0000;0.1042;4.4469;
75.3000;0.1042;4.4445;
75.6000;0.1058;4.4518;
75.9000;0.1083;4.4615;
76.2000;0.1050;4.4591;
76.5000;0.1050;4.4688;
76.8000;0.1083;4.4737;
77.1000;0.1042;4.4542;
77.4000;0.0920;4.4250;
77.7000;0.0969;4.4372;
78.0000;0.1066;4.4664;
78.3000;0.1026;4.4518;
78.6000;0.1058;4.4639;
78.9000;0.1091;4.4761;
79.2000;0.1001;4.4566;
79.5000;0.1091;4.4761;
79.8000;0.1058;4.4664;
80.1000;0.1042;4.4639;
80.4000;0.1058;4.4664;
80.7000;0.1074;4.4566;
81.0000;0.0895;4.4079;
81.3000;0.1034;4.4420;
81.6000;0.1050;4.4518;
81.9000;0.1050;4.4518;
82.2000;0.1099;4.4615;
82.5000;0.1026;4.4445;
82.8000;0.1026;4.4591;
83.1000;0.1066;4.4761;
83.4000;0.1050;4.4761;
83.7000;0.1091;4.4834;
84.0000;0.1034;4.4688;
84.3000;0.1058;4.4615;
84.6000;0.1058;4.4518;
84.9000;0.1018;4.4396;
85.2000;0.1042;4.4445;
85.5000;0.1042;4.4396;
85.8000;0.1042;4.4445;
86.1000;0.1034;4.4542;
86.4000;0.1050;4.4542;
86.7000;0.1050;4.4566;
87.0000;0.1050;4.4469;
87.3000;0.1034;4.4493;
87.6000;0.1034;4.4445;
87.9000;0.1066;4.4445;
88.2000;0.1058;4.4445;
88.5000;0.1066;4.4445;
88.8000;0.1034;4.4323;
89.1000;0.1058;4.4469;
89.4000;0.1074;4.4591;
89.7000;0.1050;4.4591;
90.0000;0.1026;4.4542;
90.3000;0.1050;4.4566;
90.6000;0.1026;4.4518;
90.9000;0.1058;4.4639;
91.2000;0.1058;4.4639;
91.5000;0.1066;4.4566;
91.8000;0.1042;4.4542;
92.1000;0.1018;4.4493;
92.4000;0.1034;4.4615;
92.7000;0.1034;4.4639;
93.0000;0.1058;4.4615;
93.3000;0.1058;4.4615;
93.6000;0.1058;4.4566;
93.9000;0.1034;4.4542;
94.2000;0.1018;4.4518;
94.5000;0.1050;4.4591;
94.8000;0.1050;4.4445;
95.1000;0.1058;4.4420;
95.4000;0.1058;4.4420;
95.7000;0.1058;4.4420;
96.0000;0.1058;4.4445;
96.3000;0.1148;4.4615;
96.6000;0.1050;4.4420;
96.9000;0.1074;4.4372;
97.2000;0.1131;4.4639;
97.5000;0.1058;4.4347;
97.8000;0.1034;4.4372;
98.1000;0.1123;4.4591;
98.4000;0.1115;4.4518;
98.7000;0.1009;4.4299;
99.0000;0.1050;4.4469;
99.3000;0.0985;4.4323;
99.6000;0.1050;4.4469;
99.9000;0.1042;4.4493;
100.2000;0.1009;4.4347;
100.5000;0.1066;4.4469;
100.8000;0.1050;4.4372;
101.1000;0.1058;4.4445;
101.4000;0.1058;4.4566;
101.7000;0.1058;4.4469;
102.0000;0.1050;4.4493;
102.3000;0.1091;4.4518;
102.6000;0.1050;4.4347;
102.9000;0.1058;4.4372;
103.2000;0.1058;4.4396;
103.5000;0.1058;4.4372;
103.8000;0.1066;4.4420;
104.1000;0.1066;4.4469;
104.4000;0.1034;4.4420;
104.7000;0.1026;4.4372;
105.0000;0.1034;4.4372;
105.3000;0.1050;4.4396;
105.6000;0.1042;4.4420;
105.9000;0.1066;4.4518;
106.2000;0.1058;4.4445;
106.5000;0.1050;4.4566;
106.8000;0.1099;4.4761;
107.1000;0.1099;4.4737;
107.4000;0.1074;4.4615;
107.7000;0.1066;4.4639;
108.0000;0.1042;4.4591;
108.3000;0.1026;4.4542;
108.6000;0.1026;4.4542;
108.9000;0.1058;4.4664;
109.2000;0.1050;4.4737;
109.5000;0.1099;4.4810;
109.8000;0.1083;4.4712;
110.1000;0.1050;4.4615;
110.4000;0.1066;4.4615;
110.7000;0.1099;4.4712;
111.0000;0.1058;4.4566;
111.3000;0.1091;4.4615;
111.6000;0.1042;4.4591;
111.9000;0.0985;4.4445;
112.2000;0.1042;4.4542;
112.5000;0.1042;4.4615;
112.8000;0.1050;4.4542;
113.1000;0.1050;4.4542;
113.4000;0.1058;4.4566;
113.7000;0.1066;4.4566;
114.0000;0.1050;4.4469;
114.3000;0.1042;4.4420;
114.6000;0.1050;4.4445;
114.9000;0.1018;4.4201;
115.2000;0.1026;4.4274;
115.5000;0.1050;4.4250;
115.8000;0.1042;4.4274;
116.1000;0.1050;4.4396;
116.4000;0.1042;4.4396;
116.7000;0.1050;4.4372;
117.0000;0.1009;4.4153;
117.3000;0.1009;4.4250;
117.6000;0.1058;4.4323;
117.9000;0.1042;4.4250;
118.2000;0.1034;4.4226;
118.5000;0.1034;4.4323;
118.8000;0.1083;4.4469;
119.1000;0.1050;4.4445;
119.4000;0.1026;4.4299;
119.7000;0.1058;4.4396;
120.0000;0.1042;4.4347;
120.3000;0.1107;4.4518;
120.6000;0.1026;4.4372;
120.9000;0.1074;4.4372;
121.2000;0.1131;4.4445;
121.5000;0.1058;4.4323;
121.8000;0.1066;4.4323;
122.1000;0.1050;4.4250;
122.4000;0.1050;4.4201;
122.7000;0.1083;4.4177;
123.0000;0.1034;4.4055;
123.3000;0.1034;4.4055;
123.6000;0.1042;4.4153;
123.9000;0.1140;4.4396;
124.2000;0.1026;4.4128;
124.5000;0.1066;4.4274;
124.8000;0.1050;4.4250;
125.1000;0.1026;4.4201;
125.4000;0.1026;4.4250;
125.7000;0.1066;4.4177;
126.0000;0.1058;4.4104;
126.3000;0.1001;4.4006;
126.6000;0.0993;4.3982;
126.9000;0.1034;4.4128;
127.2000;0.1066;4.4250;
127.5000;0.1026;4.4153;
127.8000;0.1107;4.4299;
128.1000;0.1050;4.4153;
128.4000;0.1058;4.4226;
128.7000;0.1009;4.4055;
129.0000;0.0985;4.4006;
129.3000;0.1042;4.4177;
129.6000;0.1034;4.4299;
129.9000;0.1083;4.4347;
130.2000;0.1042;4.4299;
130.5000;0.1066;4.4323;
130.8000;0.0904;4.3885;
131.1000;0.1050;4.4274;
131.4000;0.1091;4.4372;
131.7000;0.1083;4.4347;
132.0000;0.1066;4.4299;
132.3000;0.1042;4.4347;
132.6000;0.1058;4.4323;
132.9000;0.1050;4.4347;
133.2000;0.1058;4.4323;
133.5000;0.1066;4.4323;
133.8000;0.1050;4.4347;
134.1000;0.1050;4.4299;
134.4000;0.1042;4.4274;
134.7000;0.1131;4.4566;
135.0000;0.1034;4.4250;
135.3000;0.1058;4.4396;
135.6000;0.1026;4.4274;
135.9000;0.0985;4.4201;
136.2000;0.1050;4.4396;
136.5000;0.1034;4.4372;
136.8000;0.1083;4.4469;
137.1000;0.1042;4.4396;
137.4000;0.1058;4.4396;
137.7000;0.1058;4.4347;
138.0000;0.1050;4.4347;
138.3000;0.1058;4.4445;
138.6000;0.1058;4.4420;
138.9000;0.1066;4.4445;
139.2000;0.1131;4.4664;
139.5000;0.1058;4.4493;
139.8000;0.1066;4.4615;
140.1000;0.1050;4.4615;
140.4000;0.1058;4.4591;
140.7000;0.1091;4.4688;
141.0000;0.1042;4.4615;
141.3000;0.1066;4.4591;
141.6000;0.1034;4.4469;
141.9000;0.1018;4.4396;
142.2000;0.1058;4.4396;
142.5000;0.1058;4.4420;
142.8000;0.1026;4.4347;
143.1000;0.1066;4.4420;
143.4000;0.1042;4.4469;
143.7000;0.1058;4.4518;
144.0000;0.1058;4.4518;
144.3000;0.1026;4.4493;
144.6000;0.1107;4.4688;
144.9000;0.1066;4.4615;
145.2000;0.1042;4.4493;
145.5000;0.1050;4.4566;
145.8000;0.1058;4.4664;
146.1000;0.1018;4.4493;
146.4000;0.1058;4.4445;
146.7000;0.1042;4.4347;
147.0000;0.1050;4.4420;
147.3000;0.1050;4.4445;
147.6000;0.1107;4.4591;
147.9000;0.1074;4.4566;
148.2000;0.1034;4.4469;
148.5000;0.1074;4.4591;
148.8000;0.1026;4.4469;
149.1000;0.1074;4.4591;
149.4000;0.1131;4.4761;
149.7000;0.1188;4.4858;
150.0000;0.1042;4.4518;
150.3000;0.1018;4.4396;
150.6000;0.1058;4.4542;
150.9000;0.1042;4.4542;
151.2000;0.1074;4.4518;
151.5000;0.1066;4.4518;
151.8000;0.0993;4.4323;
152.1000;0.1074;4.4591;
152.4000;0.1066;4.4615;
152.7000;0.1042;4.4566;
153.0000;0.1066;4.4566;
153.3000;0.1034;4.4445;
153.6000;0.1083;4.4542;
153.9000;0.1099;4.4615;
154.2000;0.1050;4.4420;
154.5000;0.1050;4.4518;
154.8000;0.1066;4.4542;
155.1000;0.1066;4.4372;
155.4000;0.1083;4.4372;
155.7000;0.1050;4.4299;
156.0000;0.1009;4.4177;
156.3000;0.1066;4.4396;
156.6000;0.1001;4.4153;
156.9000;0.1050;4.4274;
157.2000;0.1074;4.4566;
157.5000;0.1034;4.4445;
157.8000;0.1050;4.4518;
158.1000;0.1066;4.4493;
158.4000;0.1123;4.4639;
158.7000;0.1058;4.4396;
159.0000;0.1066;4.4372;
159.3000;0.1066;4.4518;
159.6000;0.1050;4.4542;
159.9000;0.1034;4.4445;
160.2000;0.1099;4.4542;
160.5000;0.1034;4.4372;
160.8000;0.1050;4.4323;
161.1000;0.1058;4.4445;
161.4000;0.1042;4.4372;
161.7000;0.1034;4.4518;
162.0000;0.1058;4.4688;
162.3000;0.1050;4.4664;
162.6000;0.1074;4.4688;
162.9000;0.1066;4.4664;
163.2000;0.1058;4.4664;
163.5000;0.1074;4.4615;
163.8000;0.1074;4.4639;
164.1000;0.1083;4.4688;
164.4000;0.1066;4.4712;
164.7000;0.1066;4.4785;
165.0000;0.1074;4.4761;
165.3000;0.1001;4.4664;
165.6000;0.1050;4.4712;
165.9000;0.1026;4.4591;
166.2000;0.1074;4.4712;
166.5000;0.1180;4.5102;
166.8000;0.1066;4.4712;
167.1000;0.1034;4.4542;
167.4000;0.1018;4.4542;
167.7000;0.1034;4.4469;
168.0000;0.1074;4.4591;
168.3000;0.1091;4.4639;
168.6000;0.1001;4.4396;
168.9000;0.1042;4.4493;
169.2000;0.1066;4.4542;
169.5000;0.1050;4.4445;
169.8000;0.1091;4.4542;
170.1000;0.1018;4.4347;
170.4000;0.1034;4.4396;
170.7000;0.1009;4.4299;
171.0000;0.1083;4.4493;
171.3000;0.1091;4.4493;
171.6000;0.1123;4.4639;
171.9000;0.1083;4.4542;
172.2000;0.0912;4.4104;
172.5000;0.1050;4.4566;
172.8000;0.1034;4.4469;
173.1000;0.1074;4.4542;
173.4000;0.1066;4.4542;
173.7000;0.1050;4.4396;
174.0000;0.1050;4.4372;
174.3000;0.1050;4.4396;
174.6000;0.1164;4.4810;
174.9000;0.1050;4.4445;
175.2000;0.1074;4.4518;
175.5000;0.1042;4.4372;
175.8000;0.1050;4.4445;
176.1000;0.1050;4.4469;
176.4000;0.1042;4.4396;
176.7000;0.1050;4.4493;
177.0000;0.1083;4.4445;
177.3000;0.1034;4.4226;
177.6000;0.1050;4.4274;
177.9000;0.1042;4.4226;
178.2000;0.1050;4.4177;
178.5000;0.1042;4.4128;
178.8000;0.1066;4.4201;
179.1000;0.1074;4.4274;
179.4000;0.1083;4.4250;
179.7000;0.1042;4.4128;
180.0000;0.1042;4.4104;
180.3000;0.1042;4.4128;
180.6000;0.1042;4.4177;
180.9000;0.1058;4.4226;
181.2000;0.1050;4.4250;
181.5000;0.1026;4.4177;
181.8000;0.1042;4.4153;
182.1000;0.1066;4.4177;
182.4000;0.0977;4.3933;
182.7000;0.1074;4.4420;
183.0000;0.1164;4.4712;
183.3000;0.1074;4.4518;
183.6000;0.0920;4.4079;
183.9000;0.1050;4.4469;
184.2000;0.1050;4.4493;
184.5000;0.1066;4.4469;
184.8000;0.1058;4.4323;
185.1000;0.1083;4.4445;
185.4000;0.1001;4.4079;
185.7000;0.1042;4.4250;
186.0000;0.1074;4.4347;
186.3000;0.1074;4.4347;
186.6000;0.1050;4.4323;
186.9000;0.1050;4.4420;
187.2000;0.1018;4.4274;
187.5000;0.1042;4.4323;
187.8000;0.1074;4.4445;
188.1000;0.1050;4.4493;
188.4000;0.1083;4.4518;
188.7000;0.1042;4.4420;
189.0000;0.1050;4.4420;
189.3000;0.1131;4.4639;
189.6000;0.1074;4.4542;
189.9000;0.1050;4.4518;
190.2000;0.1066;4.4566;
190.5000;0.1123;4.4591;
190.8000;0.1034;4.4445;
191.1000;0.1074;4.4493;
191.4000;0.1213;4.4907;
191.7000;0.1050;4.4493;
192.0000;0.1066;4.4518;
192.3000;0.1115;4.4688;
192.6000;0.1058;4.4493;
192.9000;0.1034;4.4396;
193.2000;0.0985;4.4274;
193.5000;0.1009;4.4347;
193.8000;0.1058;4.4542;
194.1000;0.1058;4.4493;
194.4000;0.1066;4.4469;
194.7000;0.1026;4.4372;
195.0000;0.0952;4.4128;
195.3000;0.1083;4.4493;
195.6000;0.1058;4.4469;
195.9000;0.1042;4.4445;
196.2000;0.1018;4.4420;
196.5000;0.1050;4.4469;
196.8000;0.1050;4.4469;
197.1000;0.1164;4.4761;
197.4000;0.1066;4.4445;
197.7000;0.1058;4.4396;
198.0000;0.1042;4.4372;
198.3000;0.1058;4.4445;
198.6000;0.1066;4.4396;
198.9000;0.1058;4.4323;
199.2000;0.1026;4.4201;
199.5000;0.1050;4.4323;
199.8000;0.1050;4.4299;
200.1000;0.1066;4.4274;
200.4000;0.1009;4.4177;
200.7000;0.1058;4.4274;
201.0000;0.1083;4.4493;
201.3000;0.1066;4.4445;
201.6000;0.1050;4.4396;
201.9000;0.1058;4.4420;
202.2000;0.1066;4.4372;
202.5000;0.1042;4.4347;
202.8000;0.1050;4.4323;
203.1000;0.1074;4.4445;
203.4000;0.1034;4.4396;
203.7000;0.1042;4.4469;
204.0000;0.1050;4.4518;
204.3000;0.1058;4.4542;
204.6000;0.1058;4.4469;
204.9000;0.1058;4.4469;
205.2000;0.1050;4.4396;
205.5000;0.1050;4.4469;
205.8000;0.0985;4.4299;
206.1000;0.1066;4.4639;
206.4000;0.1034;4.4566;
206.7000;0.1042;4.4566;
207.0000;0.1099;4.4664;
207.3000;0.1074;4.4542;
207.6000;0.1042;4.4420;
207.9000;0.1091;4.4639;
208.2000;0.1066;4.4688;
208.5000;0.1172;4.4858;
208.8000;0.0993;4.4372;
209.1000;0.1066;4.4542;
209.4000;0.1009;4.4469;
209.7000;0.1026;4.4445;
210.0000;0.1058;4.4493;
210.3000;0.1058;4.4469;
210.6000;0.1050;4.4420;
210.9000;0.1042;4.4372;
211.2000;0.1034;4.4274;
211.5000;0.1058;4.4323;
211.8000;0.1026;4.4153;
212.1000;0.1066;4.4274;
212.4000;0.1099;4.4396;
212.7000;0.0993;4.4031;
213.0000;0.1050;4.4274;
213.3000;0.1074;4.4347;
213.6000;0.1074;4.4445;
213.9000;0.1099;4.4542;
214.2000;0.1074;4.4396;
214.5000;0.1050;4.4299;
214.8000;0.1058;4.4372;
215.1000;0.1172;4.4664;
215.4000;0.1034;4.4177;
215.7000;0.1058;4.4250;
216.0000;0.1115;4.4420;
216.3000;0.1034;4.4250;
216.6000;0.1083;4.4445;
216.9000;0.1042;4.4445;
217.2000;0.1066;4.4591;
217.5000;0.1083;4.4493;
217.8000;0.1083;4.4420;
218.1000;0.1009;4.4201;
218.4000;0.1050;4.4250;
218.7000;0.1164;4.4518;
219.0000;0.1034;4.4153;
219.3000;0.1091;4.4323;
219.6000;0.0977;4.3982;
219.9000;0.1066;4.4347;
220.2000;0.1066;4.4445;
220.5000;0.1066;4.4347;
220.8000;0.1123;4.4493;
221.1000;0.1026;4.4153;
221.4000;0.1058;4.4226;
221.7000;0.1034;4.4079;
222.0000;0.1058;4.4153;
222.3000;0.1026;4.4201;
222.6000;0.1099;4.4518;
222.9000;0.1026;4.4347;
223.2000;0.0993;4.4226;
223.5000;0.1066;4.4445;
223.8000;0.1066;4.4420;
224.1000;0.1066;4.4420;
224.4000;0.1058;4.4372;
224.7000;0.1058;4.4445;
225.0000;0.1058;4.4420;
225.3000;0.1083;4.4469;
225.6000;0.1034;4.4445;
225.9000;0.1034;4.4420;
226.2000;0.1058;4.4445;
226.5000;0.1107;4.4518;
226.8000;0.1066;4.4347;
227.1000;0.1058;4.4299;
227.4000;0.1009;4.4177;
227.7000;0.1058;4.4177;
228.0000;0.1050;4.4201;
228.3000;0.1050;4.4274;
228.6000;0.1066;4.4347;
228.9000;0.1050;4.4420;
229.2000;0.1107;4.4493;
229.5000;0.0944;4.3958;
229.8000;0.1066;4.4250;
230.1000;0.1001;4.4055;
230.4000;0.0936;4.3812;
230.7000;0.1058;4.4177;
231.0000;0.1034;4.4104;
231.3000;0.1058;4.4299;
231.6000;0.1066;4.4323;
231.9000;0.1058;4.4347;
232.2000;0.1042;4.4299;
232.5000;0.1034;4.4250;
232.8000;0.1058;4.4323;
233.1000;0.1083;4.4396;
233.4000;0.1066;4.4420;
233.7000;0.1083;4.4493;
234.0000;0.1115;4.4688;
234.3000;0.1066;4.4518;
234.6000;0.1074;4.4518;
234.9000;0.1066;4.4347;
235.2000;0.1050;4.4323;
235.5000;0.1050;4.4226;
235.8000;0.1009;4.4177;
236.1000;0.1058;4.4153;
236.4000;0.1074;4.4177;
236.7000;0.1050;4.4079;
237.0000;0.1115;4.4323;
237.3000;0.1050;4.4153;
237.6000;0.1026;4.4104;
237.9000;0.0985;4.3958;
238.2000;0.1074;4.4177;
238.5000;0.1066;4.4153;
238.8000;0.1074;4.4153;
239.1000;0.1083;4.4177;
239.4000;0.1083;4.4274;
239.7000;0.1026;4.4104;
240.0000;0.1050;4.4128;
240.3000;0.1066;4.4153;
240.6000;0.1074;4.4153;
240.9000;0.1058;4.4031;
241.2000;0.1083;4.4079;
241.5000;0.1074;4.4104;
241.8000;0.1058;4.4079;
242.1000;0.1018;4.3982;
242.4000;0.1050;4.4006;
242.7000;0.1123;4.4226;
243.0000;0.1050;4.4031;
243.3000;0.1058;4.4055;
243.6000;0.1042;4.4006;
243.9000;0.1050;4.4079;
244.2000;0.1107;4.4226;
244.5000;0.1066;4.4079;
244.8000;0.1083;4.4177;
245.1000;0.1034;4.4079;
245.4000;0.1034;4.4153;
245.7000;0.0969;4.3982;
246.0000;0.1034;4.4323;
246.3000;0.1009;4.4153;
246.6000;0.1058;4.4274;
246.9000;0.1091;4.4226;
247.2000;0.1018;4.4006;
247.5000;0.1042;4.4055;
247.8000;0.1066;4.4299;
248.1000;0.1042;4.4250;
248.4000;0.1066;4.4299;
248.7000;0.1083;4.4420;
249.0000;0.1018;4.4226;
249.3000;0.1050;4.4323;
249.6000;0.1058;4.4396;
249.9000;0.1050;4.4396;
250.2000;0.1123;4.4518;
250.5000;0.1066;4.4347;
250.8000;0.1058;4.4323;
251.1000;0.1050;4.4323;
251.4000;0.1001;4.4177;
251.7000;0.1074;4.4347;
252.0000;0.1074;4.4396;
252.3000;0.1050;4.4347;
252.6000;0.1050;4.4323;
252.9000;0.1074;4.4396;
253.2000;0.1074;4.4396;
253.5000;0.1066;4.4372;
253.8000;0.1074;4.4396;
254.1000;0.1042;4.4347;
254.4000;0.1066;4.4372;
254.7000;0.0961;4.4006;
255.0000;0.1074;4.4347;
255.3000;0.1042;4.4226;
255.6000;0.1058;4.4323;
255.9000;0.0969;4.4104;
256.2000;0.1115;4.4518;
256.5000;0.1058;4.4323;
256.8000;0.1058;4.4347;
257.1000;0.1050;4.4396;
257.4000;0.1058;4.4372;
257.7000;0.1058;4.4445;
258.0000;0.1066;4.4469;
258.3000;0.1066;4.4469;
258.6000;0.1066;4.4493;
258.9000;0.1066;4.4615;
259.2000;0.1058;4.4493;
259.5000;0.1058;4.4518;
259.8000;0.1083;4.4469;
260.1000;0.1042;4.4323;
260.4000;0.1034;4.4250;
260.7000;0.1074;4.4420;
261.0000;0.1066;4.4372;
261.3000;0.1066;4.4323;
261.6000;0.1083;4.4347;
261.9000;0.1050;4.4323;
262.2000;0.1042;4.4201;
262.5000;0.1074;4.4347;
262.8000;0.1058;4.4372;
263.1000;0.1058;4.4396;
263.4000;0.1058;4.4372;
263.7000;0.1091;4.4420;
264.0000;0.1091;4.4396;
264.3000;0.1074;4.4347;
264.6000;0.1083;4.4372;
264.9000;0.1066;4.4274;
265.2000;0.1058;4.4323;
265.5000;0.1066;4.4323;
265.8000;0.1009;4.4128;
266.1000;0.1018;4.4031;
266.4000;0.1042;4.4079;
266.7000;0.1034;4.4055;
267.0000;0.1140;4.4323;
267.3000;0.1042;4.4079;
267.6000;0.0969;4.3909;
267.9000;0.1058;4.4177;
268.2000;0.1107;4.4396;
268.5000;0.1066;4.4299;
268.8000;0.1050;4.4299;
269.1000;0.1066;4.4323;
269.4000;0.1066;4.4323;
269.7000;0.1083;4.4323;
270.0000;0.1058;4.4250;
270.3000;0.1066;4.4250;
270.6000;0.1034;4.4177;
270.9000;0.1001;4.4079;
271.2000;0.1066;4.4299;
271.5000;0.1058;4.4347;
271.8000;0.1050;4.4396;
272.1000;0.1066;4.4420;
272.4000;0.1066;4.4420;
272.7000;0.1042;4.4347;
273.0000;0.1115;4.4518;
273.3000;0.1058;4.4250;
273.6000;0.1058;4.4201;
273.9000;0.1058;4.4201;
274.2000;0.1066;4.4274;
274.5000;0.1058;4.4153;
274.8000;0.1042;4.4153;
275.1000;0.1099;4.4299;
275.4000;0.1066;4.4250;
275.7000;0.1050;4.4104;
276.0000;0.1042;4.4153;
276.3000;0.1026;4.4128;
276.6000;0.1001;4.4079;
276.9000;0.1066;4.4177;
277.2000;0.1050;4.4201;
277.5000;0.1115;4.4420;
277.8000;0.1083;4.4274;
278.1000;0.1083;4.4274;
278.4000;0.1074;4.4104;
278.7000;0.1058;4.4079;
279.0000;0.1050;4.3982;
279.3000;0.1131;4.4201;
279.6000;0.1074;4.4104;
279.9000;0.1074;4.4104;
280.2000;0.1058;4.4104;
280.5000;0.1050;4.4128;
280.8000;0.1050;4.4104;
281.1000;0.1066;4.4153;
281.4000;0.1115;4.4274;
281.7000;0.1066;4.4055;
282.0000;0.1066;4.4055;
282.3000;0.1026;4.3958;
282.6000;0.1050;4.4104;
282.9000;0.1050;4.4226;
283.2000;0.1066;4.4323;
283.5000;0.1172;4.4591;
283.8000;0.1074;4.4396;
284.1000;0.1050;4.4347;
284.4000;0.1066;4.4396;
284.7000;0.1066;4.4323;
285.0000;0.1074;4.4372;
285.3000;0.1107;4.4542;
285.6000;0.1050;4.4396;
285.9000;0.1050;4.4469;
286.2000;0.1074;4.4542;
286.5000;0.1131;4.4664;
286.8000;0.1050;4.4493;
287.1000;0.1050;4.4469;
287.4000;0.0993;4.4323;
287.7000;0.1131;4.4664;
288.0000;0.1058;4.4372;
288.3000;0.1074;4.4299;
288.6000;0.1050;4.4274;
288.9000;0.1107;4.4420;
289.2000;0.1034;4.4153;
289.5000;0.1058;4.4177;
289.8000;0.1042;4.4201;
290.1000;0.1074;4.4250;
290.4000;0.1107;4.4420;
290.7000;0.1172;4.4591;
291.0000;0.1074;4.4372;
291.3000;0.1066;4.4347;
291.6000;0.1042;4.4299;
291.9000;0.1066;4.4420;
292.2000;0.1050;4.4396;
292.5000;0.1050;4.4420;
292.8000;0.1026;4.4274;
293.1000;0.1131;4.4591;
293.4000;0.1058;4.4396;
293.7000;0.1042;4.4420;
294.0000;0.1042;4.4420;
294.3000;0.1074;4.4542;
294.6000;0.1058;4.4493;
294.9000;0.1074;4.4518;
295.2000;0.1042;4.4518;
295.5000;0.1074;4.4664;
295.8000;0.1058;4.4615;
296.1000;0.1034;4.4566;
296.4000;0.1050;4.4566;
296.7000;0.1026;4.4591;
297.0000;0.1034;4.4639;
297.3000;0.1066;4.4639;
297.6000;0.1050;4.4639;
297.9000;0.1066;4.4566;
298.2000;0.1107;4.4639;
298.5000;0.1050;4.4518;
298.8000;0.1034;4.4518;
299.1000;0.0928;4.4177;
299.4000;0.1058;4.4566;
299.7000;0.1083;4.4591;
300.0000;0.1091;4.4542;
300.3000;0.1050;4.4542;
300.6000;0.1058;4.4591;
300.9000;0.1066;4.4591;
301.2000;0.1026;4.4469;
301.5000;0.1050;4.4591;
301.8000;0.1050;4.4591;
302.1000;0.1083;4.4712;
302.4000;0.1050;4.4664;
302.7000;0.1083;4.4737;
303.0000;0.1066;4.4785;
303.3000;0.1042;4.4761;
303.6000;0.1034;4.4615;
303.9000;0.1074;4.4664;
304.2000;0.1026;4.4591;
304.5000;0.1099;4.4810;
304.8000;0.1091;4.4761;
305.1000;0.1172;4.4931;
305.4000;0.1018;4.4469;
305.7000;0.1058;4.4591;
306.0000;0.1058;4.4518;
306.3000;0.1058;4.4542;
306.6000;0.1034;4.4493;
306.9000;0.1058;4.4639;
307.2000;0.1026;4.4469;
307.5000;0.1066;4.4518;
307.8000;0.1188;4.4858;
308.1000;0.1074;4.4445;
308.4000;0.1066;4.4396;
308.7000;0.1083;4.4518;
309.0000;0.1050;4.4542;
309.3000;0.1050;4.4493;
309.6000;0.1034;4.4445;
309.9000;0.1026;4.4445;
310.2000;0.1026;4.4420;
310.5000;0.1074;4.4518;
310.8000;0.1058;4.4493;
311.1000;0.1074;4.4518;
311.4000;0.1058;4.4445;
311.7000;0.1115;4.4518;
312.0000;0.1066;4.4396;
312.3000;0.1050;4.4445;
312.6000;0.1058;4.4396;
312.9000;0.1066;4.4420;
313.2000;0.1074;4.4372;
313.5000;0.1083;4.4445;
313.8000;0.1042;4.4372;
314.1000;0.1018;4.4274;
314.4000;0.1083;4.4518;
314.7000;0.1066;4.4469;
315.0000;0.1050;4.4420;
315.3000;0.1091;4.4566;
315.6000;0.1074;4.4469;
315.9000;0.1034;4.4445;
316.2000;0.0920;4.4153;
316.5000;0.1074;4.4518;
316.8000;0.1058;4.4493;
317.1000;0.1156;4.4785;
317.4000;0.1034;4.4493;
317.7000;0.1083;4.4639;
318.0000;0.1050;4.4566;
318.3000;0.1066;4.4615;
318.6000;0.1018;4.4542;
318.9000;0.1083;4.4664;
319.2000;0.1042;4.4591;
319.5000;0.1066;4.4761;
319.8000;0.1042;4.4639;
320.1000;0.1066;4.4639;
320.4000;0.1083;4.4615;
320.7000;0.1066;4.4639;
321.0000;0.1050;4.4615;
321.3000;0.1018;4.4469;
321.6000;0.0993;4.4420;
321.9000;0.0920;4.4274;
322.2000;0.1042;4.4615;
322.5000;0.1058;4.4639;
322.8000;0.1066;4.4639;
323.1000;0.1099;4.4761;
323.4000;0.1066;4.4615;
323.7000;0.1042;4.4591;
324.0000;0.1074;4.4639;
324.3000;0.1042;4.4542;
324.6000;0.1058;4.4493;
324.9000;0.1050;4.4420;
325.2000;0.1050;4.4372;
325.5000;0.1074;4.4445;
325.8000;0.1050;4.4518;
326.1000;0.1042;4.4518;
326.4000;0.1074;4.4615;
326.7000;0.1074;4.4664;
327.0000;0.1058;4.4688;
327.3000;0.1074;4.4664;
327.6000;0.1050;4.4639;
327.9000;0.1083;4.4664;
328.2000;0.1156;4.4883;
328.5000;0.1074;4.4639;
328.8000;0.1058;4.4566;
329.1000;0.1042;4.4493;
329.4000;0.1066;4.4493;
329.7000;0.1042;4.4445;
330.0000;0.1050;4.4420;
330.3000;0.1083;4.4493;
330.6000;0.1042;4.4396;
330.9000;0.1042;4.4445;
331.2000;0.1123;4.4688;
331.5000;0.1074;4.4566;
331.8000;0.1050;4.4518;
332.1000;0.1058;4.4518;
332.4000;0.1083;4.4566;
332.7000;0.1058;4.4566;
333.0000;0.1074;4.4542;
333.3000;0.1042;4.4518;
333.6000;0.1058;4.4542;
333.9000;0.1050;4.4493;
334.2000;0.1074;4.4591;
334.5000;0.1026;4.4445;
334.8000;0.1058;4.4542;
335.1000;0.1026;4.4420;
335.4000;0.1018;4.4469;
335.7000;0.0944;4.4226;
336.0000;0.1074;4.4566;
336.3000;0.1058;4.4566;
336.6000;0.0985;4.4493;
336.9000;0.1050;4.4639;
337.2000;0.1115;4.4712;
337.5000;0.1050;4.4591;
337.8000;0.1074;4.4664;
338.1000;0.1058;4.4639;
338.4000;0.1042;4.4566;
338.7000;0.0920;4.4299;
339.0000;0.1034;4.4688;
339.3000;0.1018;4.4615;
339.6000;0.1140;4.4931;
339.9000;0.1197;4.4931;
340.2000;0.1058;4.4469;
340.5000;0.1074;4.4518;
340.8000;0.1099;4.4591;
341.1000;0.0977;4.4347;
341.4000;0.1091;4.4737;
341.7000;0.1074;4.4834;
342.0000;0.1042;4.4810;
342.3000;0.1058;4.4810;
342.6000;0.1034;4.4566;
342.9000;0.1058;4.4664;
343.2000;0.1083;4.4737;
343.5000;0.1091;4.4737;
343.8000;0.1066;4.4737;
344.1000;0.1034;4.4712;
344.4000;0.1066;4.4761;
344.7000;0.1066;4.4737;
345.0000;0.1042;4.4639;
345.3000;0.1058;4.4712;
345.6000;0.1042;4.4664;
345.9000;0.1042;4.4688;
346.2000;0.1091;4.4737;
346.5000;0.1058;4.4639;
346.8000;0.1050;4.4639;
347.1000;0.1042;4.4469;
347.4000;0.0944;4.4201;
347.7000;0.1034;4.4420;
348.0000;0.1083;4.4396;
348.3000;0.1074;4.4445;
348.6000;0.1074;4.4445;
348.9000;0.1058;4.4396;
349.2000;0.1058;4.4420;
349.5000;0.1074;4.4518;
349.8000;0.1074;4.4518;
350.1000;0.1050;4.4420;
350.4000;0.1058;4.4420;
350.7000;0.1066;4.4542;
351.0000;0.1066;4.4639;
351.3000;0.1050;4.4542;
351.6000;0.1042;4.4396;
351.9000;0.1091;4.4518;
352.2000;0.1042;4.4396;
352.5000;0.1066;4.4420;
352.8000;0.1074;4.4445;
353.1000;0.1026;4.4347;
353.4000;0.1058;4.4299;
353.7000;0.1058;4.4226;
354.0000;0.1083;4.4323;
354.3000;0.1074;4.4396;
354.6000;0.1074;4.4396;
354.9000;0.1066;4.4347;
355.2000;0.1074;4.4372;
355.5000;0.1099;4.4469;
355.8000;0.1042;4.4420;
356.1000;0.1034;4.4347;
356.4000;0.1050;4.4420;
356.7000;0.0985;4.4274;
357.0000;0.1058;4.4420;
357.3000;0.1066;4.4372;
357.6000;0.1050;4.4372;
357.9000;0.1066;4.4469;
358.2000;0.1058;4.4518;
358.5000;0.1066;4.4493;
358.8000;0.1050;4.4347;
359.1000;0.1115;4.4493;
359.4000;0.1018;4.4250;
359.7000;0.1197;4.4737;
360.0000;0.1026;4.4396;
360.3000;0.1180;4.4810;
360.6000;0.1050;4.4420;
360.9000;0.1050;4.4323;
361.2000;0.1107;4.4542;
361.5000;0.1074;4.4469;
361.8000;0.1058;4.4518;
362.1000;0.1091;4.4469;
362.4000;0.1050;4.4372;
362.7000;0.1042;4.4445;
363.0000;0.1050;4.4469;
363.3000;0.1058;4.4566;
363.6000;0.1066;4.4493;
363.9000;0.1058;4.4445;
364.2000;0.1107;4.4542;
364.5000;0.1050;4.4372;
364.8000;0.1074;4.4372;
365.1000;0.0977;4.4104;
365.4000;0.1050;4.4396;
365.7000;0.1058;4.4396;
366.0000;0.1050;4.4396;
366.3000;0.1066;4.4445;
366.6000;0.1058;4.4396;
366.9000;0.1083;4.4420;
367.2000;0.1091;4.4493;
367.5000;0.1140;4.4664;
367.8000;0.1058;4.4518;
368.1000;0.1034;4.4445;
368.4000;0.1083;4.4469;
368.7000;0.1074;4.4347;
369.0000;0.1091;4.4347;
369.3000;0.1050;4.4347;
369.6000;0.1066;4.4372;
369.9000;0.1009;4.4274;
370.2000;0.1066;4.4372;
370.5000;0.1050;4.4347;
370.8000;0.1083;4.4518;
371.1000;0.1083;4.4566;
371.4000;0.1042;4.4469;
371.7000;0.1042;4.4420;
372.0000;0.1034;4.4445;
372.3000;0.1058;4.4372;
372.6000;0.1107;4.4493;
372.9000;0.1164;4.4712;
373.2000;0.1058;4.4493;
373.5000;0.1050;4.4445;
373.8000;0.1083;4.4493;
374.1000;0.1058;4.4420;
374.4000;0.1042;4.4396;
374.7000;0.1058;4.4420;
375.0000;0.0985;4.4323;
375.3000;0.1009;4.4420;
375.6000;0.1066;4.4445;
375.9000;0.1026;4.4274;
376.2000;0.1026;4.4226;
376.5000;0.1074;4.4420;
376.8000;0.1050;4.4274;
377.1000;0.1042;4.4177;
377.4000;0.1018;4.4104;
377.7000;0.1091;4.4347;
378.0000;0.1018;4.4079;
378.3000;0.1123;4.4372;
378.6000;0.1018;4.4128;
378.9000;0.1058;4.4250;
379.2000;0.1140;4.4469;
379.5000;0.1164;4.4542;
379.8000;0.1009;4.4201;
380.1000;0.1066;4.4469;
380.4000;0.1050;4.4420;
380.7000;0.1050;4.4323;
381.0000;0.1050;4.4347;
381.3000;0.1001;4.4226;
381.6000;0.1066;4.4518;
381.9000;0.0985;4.4323;
382.2000;0.1083;4.4542;
382.5000;0.0936;4.4104;
382.8000;0.1156;4.4664;
383.1000;0.1164;4.4761;
383.4000;0.1058;4.4493;
383.7000;0.1018;4.4372;
384.0000;0.0985;4.4274;
384.3000;0.1050;4.4469;
384.6000;0.0961;4.4153;
384.9000;0.1058;4.4469;
385.2000;0.1172;4.4712;
385.5000;0.1074;4.4518;
385.8000;0.1066;4.4469;
386.1000;0.1107;4.4542;
386.4000;0.1050;4.4469;
386.7000;0.1058;4.4420;
387.0000;0.1058;4.4445;
387.3000;0.1042;4.4372;
387.6000;0.1058;4.4396;
387.9000;0.1083;4.4396;
388.2000;0.1050;4.4396;
388.5000;0.1066;4.4396;
388.8000;0.1074;4.4396;
389.1000;0.1066;4.4347;
389.4000;0.1083;4.4396;
389.7000;0.1050;4.4299;
390.0000;0.1066;4.4250;
390.3000;0.1066;4.4299;
390.6000;0.1066;4.4347;
390.9000;0.1034;4.4323;
391.2000;0.1058;4.4323;
391.5000;0.1042;4.4396;
391.8000;0.1026;4.4299;
392.1000;0.1050;4.4274;
392.4000;0.1099;4.4420;
392.7000;0.1066;4.4372;
393.0000;0.1107;4.4493;
393.3000;0.1074;4.4372;
393.6000;0.1026;4.4177;
393.9000;0.0993;4.4104;
394.2000;0.1050;4.4347;
394.5000;0.1026;4.4347;
394.8000;0.1034;4.4323;
395.1000;0.1074;4.4518;
395.4000;0.1018;4.4445;
395.7000;0.1066;4.4615;
396.0000;0.1018;4.4420;
396.3000;0.1050;4.4566;
396.6000;0.1001;4.4420;
396.9000;0.1188;4.4907;
397.2000;0.1066;4.4469;
397.5000;0.1066;4.4445;
397.8000;0.1058;4.4420;
398.1000;0.1066;4.4493;
398.4000;0.1066;4.4469;
398.7000;0.1050;4.4469;
399.0000;0.1131;4.4737;
399.3000;0.1099;4.4615;
399.6000;0.1034;4.4420;
399.9000;0.1042;4.4323;
400.2000;0.1083;4.4396;
400.5000;0.1083;4.4469;
400.8000;0.1058;4.4347;
401.1000;0.1001;4.4226;
401.4000;0.1042;4.4420;
401.7000;0.1066;4.4445;
402.0000;0.1148;4.4639;
402.3000;0.1099;4.4542;
402.6000;0.1058;4.4420;
402.9000;0.1026;4.4323;
403.2000;0.1034;4.4299;
403.5000;0.1148;4.4591;
403.8000;0.1066;4.4347;
404.1000;0.1034;4.4323;
404.4000;0.1050;4.4299;
404.7000;0.1083;4.4396;
405.0000;0.0961;4.4128;
405.3000;0.1074;4.4396;
405.6000;0.1042;4.4347;
405.9000;0.1042;4.4372;
406.2000;0.1042;4.4420;
406.5000;0.1034;4.4420;
406.8000;0.1074;4.4518;
407.1000;0.0977;4.4177;
407.4000;0.1026;4.4396;
407.7000;0.1115;4.4591;
408.0000;0.1148;4.4834;
408.3000;0.1050;4.4542;
408.6000;0.1066;4.4542;
408.9000;0.1050;4.4518;
409.2000;0.1083;4.4591;
409.5000;0.1066;4.4542;
409.8000;0.1058;4.4542;
410.1000;0.1018;4.4518;
410.4000;0.1066;4.4664;
410.7000;0.1058;4.4591;
411.0000;0.0985;4.4347;
411.3000;0.1091;4.4615;
411.6000;0.1058;4.4664;
411.9000;0.1083;4.4761;
412.2000;0.1066;4.4615;
412.5000;0.1042;4.4518;
412.8000;0.1034;4.4615;
413.1000;0.1050;4.4639;
413.4000;0.1050;4.4615;
413.7000;0.1050;4.4566;
414.0000;0.1034;4.4566;
414.3000;0.1074;4.4688;
414.6000;0.1042;4.4615;
414.9000;0.1042;4.4518;
415.2000;0.1050;4.4469;
415.5000;0.1050;4.4445;
415.8000;0.1066;4.4469;
416.1000;0.1058;4.4445;
416.4000;0.1026;4.4299;
416.7000;0.1050;4.4347;
417.0000;0.1066;4.4372;
417.3000;0.1083;4.4469;
417.6000;0.1066;4.4396;
417.9000;0.1066;4.4372;
418.2000;0.1074;4.4396;
418.5000;0.1066;4.4420;
418.8000;0.1074;4.4518;
419.1000;0.1018;4.4323;
419.4000;0.1083;4.4566;
419.7000;0.1058;4.4591;
420.0000;0.1066;4.4712;
420.3000;0.1050;4.4664;
420.6000;0.1058;4.4737;
420.9000;0.1083;4.4761;
421.2000;0.1058;4.4664;
421.5000;0.1026;4.4591;
421.8000;0.1099;4.4688;
422.1000;0.1066;4.4493;
422.4000;0.1058;4.4469;
422.7000;0.1050;4.4445;
423.0000;0.1074;4.4493;
423.3000;0.1091;4.4542;
423.6000;0.1058;4.4469;
423.9000;0.1091;4.4493;
424.2000;0.0920;4.4006;
424.5000;0.1074;4.4396;
424.8000;0.1042;4.4347;
425.1000;0.1050;4.4396;
425.4000;0.1026;4.4445;
425.7000;0.1066;4.4469;
426.0000;0.1050;4.4420;
426.3000;0.1050;4.4469;
426.6000;0.0993;4.4323;
426.9000;0.1034;4.4566;
427.2000;0.1058;4.4737;
427.5000;0.1058;4.4712;
427.8000;0.1042;4.4639;
428.1000;0.1083;4.4639;
428.4000;0.1107;4.4664;
428.7000;0.1066;4.4542;
429.0000;0.1026;4.4542;
429.3000;0.1042;4.4566;
429.6000;0.1074;4.4688;
429.9000;0.1066;4.4639;
430.2000;0.1050;4.4566;
430.5000;0.1058;4.4664;
430.8000;0.0952;4.4323;
431.1000;0.1058;4.4591;
431.4000;0.1066;4.4712;
431.7000;0.0977;4.4591;
432.0000;0.1001;4.4615;
432.3000;0.1058;4.4712;
432.6000;0.1074;4.4737;
432.9000;0.1131;4.4907;
433.2000;0.1156;4.4883;
433.5000;0.1058;4.4664;
433.8000;0.1066;4.4639;
434.1000;0.1001;4.4445;
434.4000;0.1066;4.4591;
434.7000;0.1050;4.4469;
435.0000;0.1066;4.4469;
435.3000;0.1042;4.4347;
435.6000;0.1066;4.4396;
435.9000;0.1083;4.4542;
436.2000;0.1009;4.4299;
436.5000;0.1034;4.4372;
436.8000;0.1058;4.4396;
437.1000;0.1026;4.4299;
437.4000;0.1107;4.4542;
437.7000;0.1034;4.4518;
438.0000;0.1091;4.4591;
438.3000;0.0977;4.4250;
438.6000;0.1058;4.4493;
438.9000;0.1050;4.4493;
439.2000;0.1034;4.4469;
439.5000;0.1018;4.4420;
439.8000;0.1050;4.4542;
440.1000;0.1050;4.4518;
440.4000;0.0993;4.4420;
440.7000;0.1058;4.4688;
441.0000;0.1058;4.4761;
441.3000;0.1099;4.4883;
441.6000;0.1091;4.4858;
441.9000;0.1058;4.4591;
442.2000;0.1066;4.4615;
442.5000;0.1050;4.4566;
442.8000;0.1058;4.4688;
443.1000;0.1066;4.4712;
443.4000;0.1058;4.4737;
443.7000;0.1042;4.4664;
444.0000;0.0952;4.4542;
444.3000;0.1042;4.4712;
444.6000;0.1026;4.4615;
444.9000;0.1050;4.4639;
445.2000;0.1034;4.4664;
445.5000;0.1042;4.4688;
445.8000;0.1058;4.4834;
446.1000;0.1074;4.4858;
446.4000;0.1034;4.4639;
446.7000;0.1042;4.4591;
447.0000;0.1050;4.4493;
447.3000;0.1042;4.4445;
447.6000;0.1066;4.4518;
447.9000;0.1050;4.4445;
448.2000;0.1042;4.4469;
448.5000;0.1042;4.4445;
448.8000;0.1042;4.4323;
449.1000;0.1074;4.4420;
449.4000;0.1018;4.4323;
449.7000;0.1058;4.4518;
450.0000;0.1131;4.4664;
450.3000;0.1034;4.4493;
450.6000;0.1148;4.4712;
450.9000;0.0985;4.4250;
451.2000;0.1042;4.4493;
451.5000;0.1074;4.4542;
451.8000;0.1050;4.4542;
452.1000;0.1140;4.4810;
452.4000;0.1074;4.4591;
452.7000;0.1074;4.4615;
453.0000;0.1050;4.4518;
453.3000;0.1091;4.4639;
453.6000;0.1066;4.4542;
453.9000;0.1058;4.4445;
454.2000;0.1115;4.4639;
454.5000;0.1058;4.4493;
454.8000;0.1074;4.4542;
455.1000;0.0961;4.4274;
455.4000;0.1074;4.4615;
455.7000;0.1050;4.4518;
456.0000;0.1058;4.4639;
456.3000;0.1018;4.4518;
456.6000;0.1091;4.4664;
456.9000;0.0985;4.4299;
457.2000;0.1050;4.4420;
457.5000;0.1074;4.4469;
457.8000;0.1058;4.4445;
458.1000;0.1058;4.4493;
458.4000;0.1034;4.4420;
458.7000;0.1099;4.4566;
459.0000;0.1083;4.4518;
459.3000;0.1050;4.4445;
459.6000;0.1074;4.4542;
459.9000;0.1083;4.4566;
460.2000;0.1066;4.4542;
460.5000;0.1042;4.4542;
460.8000;0.1066;4.4493;
461.1000;0.1058;4.4469;
461.4000;0.1091;4.4591;
461.7000;0.1034;4.4469;
462.0000;0.1066;4.4518;
462.3000;0.1058;4.4420;
462.6000;0.1140;4.4712;
462.9000;0.1058;4.4518;
463.2000;0.1058;4.4469;
463.5000;0.1074;4.4566;
463.8000;0.1074;4.4615;
464.1000;0.1066;4.4566;
464.4000;0.1099;4.4542;
464.7000;0.1042;4.4493;
465.0000;0.1148;4.4785;
465.3000;0.1042;4.4493;
465.6000;0.1074;4.4664;
465.9000;0.1018;4.4445;
466.2000;0.1058;4.4591;
466.5000;0.1042;4.4566;
466.8000;0.1197;4.4980;
467.1000;0.1034;4.4566;
467.4000;0.1066;4.4639;
467.7000;0.1066;4.4712;
468.0000;0.1131;4.4980;
468.3000;0.1009;4.4615;
468.6000;0.1058;4.4858;
468.9000;0.1050;4.4834;
469.2000;0.1034;4.4712;
469.5000;0.1058;4.4688;
469.8000;0.1058;4.4664;
470.1000;0.1009;4.4518;
470.4000;0.1050;4.4639;
470.7000;0.1050;4.4542;
471.0000;0.1083;4.4688;
471.3000;0.1034;4.4542;
471.6000;0.1050;4.4688;
471.9000;0.1050;4.4566;
472.2000;0.1042;4.4566;
472.5000;0.1050;4.4445;
472.8000;0.1083;4.4566;
473.1000;0.1066;4.4566;
473.4000;0.1115;4.4639;
473.7000;0.1091;4.4591;
474.0000;0.1058;4.4518;
474.3000;0.1066;4.4566;
474.6000;0.1026;4.4518;
474.9000;0.1066;4.4615;
475.2000;0.1034;4.4445;
475.5000;0.1042;4.4420;
475.8000;0.1066;4.4615;
476.1000;0.1026;4.4591;
476.4000;0.1074;4.4639;
476.7000;0.1042;4.4566;
477.0000;0.1050;4.4566;
477.3000;0.1018;4.4566;
477.6000;0.1083;4.4688;
477.9000;0.1083;4.4591;
478.2000;0.1050;4.4469;
478.5000;0.1042;4.4372;
478.8000;0.1042;4.4445;
479.1000;0.1018;4.4274;
479.4000;0.1058;4.4469;
479.7000;0.1058;4.4469;
480.0000;0.1050;4.4542;
480.3000;0.1042;4.4615;
480.6000;0.1034;4.4615;
480.9000;0.1066;4.4688;
481.2000;0.1018;4.4542;
481.5000;0.1050;4.4615;
481.8000;0.1042;4.4445;
482.1000;0.1018;4.4396;
482.4000;0.1058;4.4639;
482.7000;0.1050;4.4664;
483.0000;0.1074;4.4712;
483.3000;0.1050;4.4664;
483.6000;0.1001;4.4493;
483.9000;0.1050;4.4542;
484.2000;0.1050;4.4566;
484.5000;0.1066;4.4542;
484.8000;0.1066;4.4566;
485.1000;0.1083;4.4639;
485.4000;0.1099;4.4688;
485.7000;0.1099;4.4664;
486.0000;0.1050;4.4518;
486.3000;0.1058;4.4518;
486.6000;0.1074;4.4542;
486.9000;0.1050;4.4445;
487.2000;0.1074;4.4566;
487.5000;0.1140;4.4688;
487.8000;0.1042;4.4445;
488.1000;0.1034;4.4323;
488.4000;0.1042;4.4274;
488.7000;0.1042;4.4347;
489.0000;0.1083;4.4445;
489.3000;0.1058;4.4323;
489.6000;0.1074;4.4420;
489.9000;0.1058;4.4396;
490.2000;0.1074;4.4420;
490.5000;0.1066;4.4323;
490.8000;0.1074;4.4396;
491.1000;0.1042;4.4372;
491.4000;0.1058;4.4420;
491.7000;0.1074;4.4493;
492.0000;0.0944;4.4250;
492.3000;0.1034;4.4493;
492.6000;0.1058;4.4420;
492.9000;0.1148;4.4688;
493.2000;0.1058;4.4445;
493.5000;0.1034;4.4372;
493.8000;0.1050;4.4493;
494.1000;0.1066;4.4542;
494.4000;0.1026;4.4493;
494.7000;0.1050;4.4469;
495.0000;0.1042;4.4469;
495.3000;0.1156;4.4761;
495.6000;0.1074;4.4566;
495.9000;0.1018;4.4372;
496.2000;0.0961;4.4201;
496.5000;0.1042;4.4469;
496.8000;0.1074;4.4639;
497.1000;0.1042;4.4518;
497.4000;0.1026;4.4542;
497.7000;0.1140;4.4858;
498.0000;0.1083;4.4785;
498.3000;0.0928;4.4445;
498.6000;0.1074;4.4858;
498.9000;0.1074;4.4907;
499.2000;0.1115;4.4907;
499.5000;0.1058;4.4785;
499.8000;0.1058;4.4810;
500.1000;0.1050;4.4810;
500.4000;0.1042;4.4712;
500.7000;0.1099;4.4834;
501.0000;0.1026;4.4542;
501.3000;0.1050;4.4712;
501.6000;0.1034;4.4688;
501.9000;0.1058;4.4834;
502.2000;0.1050;4.4858;
502.5000;0.1066;4.4858;
502.8000;0.0993;4.4639;
503.1000;0.0969;4.4639;
503.4000;0.1050;4.4956;
503.7000;0.1066;4.4883;
504.0000;0.1042;4.4858;
504.3000;0.1042;4.4761;
504.6000;0.1058;4.4785;
504.9000;0.1050;4.4761;
505.2000;0.1058;4.4810;
505.5000;0.1058;4.4810;
505.8000;0.1074;4.4858;
506.1000;0.1074;4.4858;
506.4000;0.1050;4.4785;
506.7000;0.1091;4.4737;
507.0000;0.1074;4.4810;
507.3000;0.1074;4.4761;
507.6000;0.1009;4.4566;
507.9000;0.1091;4.4737;
508.2000;0.1034;4.4639;
508.5000;0.1009;4.4591;
508.8000;0.1050;4.4664;
509.1000;0.1034;4.4591;
509.4000;0.1148;4.4810;
509.7000;0.1058;4.4542;
510.0000;0.0936;4.4128;
510.3000;0.1034;4.4493;
510.6000;0.0985;4.4323;
510.9000;0.1066;4.4591;
511.2000;0.1034;4.4542;
511.5000;0.1140;4.4858;
511.8000;0.1034;4.4542;
512.1000;0.1058;4.4591;
512.4000;0.1050;4.4566;
512.7000;0.1066;4.4591;
513.0000;0.1050;4.4591;
513.3000;0.1058;4.4664;
513.6000;0.1058;4.4639;
513.9000;0.1058;4.4591;
514.2000;0.1018;4.4445;
514.5000;0.1074;4.4664;
514.8000;0.1058;4.4664;
515.1000;0.1066;4.4518;
515.4000;0.1058;4.4518;
515.7000;0.1074;4.4639;
516.0000;0.1009;4.4469;
516.3000;0.1074;4.4639;
516.6000;0.1050;4.4493;
516.9000;0.1050;4.4493;
517.2000;0.1115;4.4518;
517.5000;0.1058;4.4347;
517.8000;0.1058;4.4347;
518.1000;0.1001;4.4226;
518.4000;0.0993;4.4201;
518.7000;0.1026;4.4372;
519.0000;0.1091;4.4493;
519.3000;0.1001;4.4201;
519.6000;0.1083;4.4347;
519.9000;0.1115;4.4420;
520.2000;0.1107;4.4518;
520.5000;0.1050;4.4469;
520.8000;0.1042;4.4493;
521.1000;0.1001;4.4323;
521.4000;0.0993;4.4250;
521.7000;0.1083;4.4518;
522.0000;0.1042;4.4469;
522.3000;0.1050;4.4420;
522.6000;0.1058;4.4518;
522.9000;0.1042;4.4566;
523.2000;0.1140;4.4810;
523.5000;0.1042;4.4493;
523.8000;0.1074;4.4566;
524.1000;0.1123;4.4688;
524.4000;0.1034;4.4420;
524.7000;0.1091;4.4566;
525.0000;0.1066;4.4518;
525.3000;0.0961;4.4347;
525.6000;0.1034;4.4615;
525.9000;0.1050;4.4664;
526.2000;0.0936;4.4445;
526.5000;0.1034;4.4688;
526.8000;0.1034;4.4688;
527.1000;0.1034;4.4712;
527.4000;0.1026;4.4688;
527.7000;0.1066;4.4810;
528.0000;0.1042;4.4785;
528.3000;0.1009;4.4664;
528.6000;0.1058;4.4639;
528.9000;0.1066;4.4664;
529.2000;0.0977;4.4323;
529.5000;0.1058;4.4493;
529.8000;0.1058;4.4518;
530.1000;0.1107;4.4688;
530.4000;0.1074;4.4591;
530.7000;0.0993;4.4420;
531.0000;0.1066;4.4615;
531.3000;0.1066;4.4664;
531.6000;0.1026;4.4639;
531.9000;0.1026;4.4591;
532.2000;0.1074;4.4737;
532.5000;0.1074;4.4761;
532.8000;0.1042;4.4639;
533.1000;0.1042;4.4664;
533.4000;0.1066;4.4712;
533.7000;0.1050;4.4688;
534.0000;0.1074;4.4737;
534.3000;0.1058;4.4761;
534.6000;0.1050;4.4712;
534.9000;0.1058;4.4737;
535.2000;0.1074;4.4737;
535.5000;0.1058;4.4737;
535.8000;0.1058;4.4737;
536.1000;0.1066;4.4737;
536.4000;0.1074;4.4712;
536.7000;0.1058;4.4688;
537.0000;0.1034;4.4639;
537.3000;0.1058;4.4664;
537.6000;0.1050;4.4591;
537.9000;0.1042;4.4566;
538.2000;0.1042;4.4615;
538.5000;0.1066;4.4639;
538.8000;0.1042;4.4542;
539.1000;0.1099;4.4737;
539.4000;0.1034;4.4493;
539.7000;0.1074;4.4542;
540.0000;0.1083;4.4518;
540.3000;0.1066;4.4542;
540.6000;0.1074;4.4591;
540.9000;0.1115;4.4615;
541.2000;0.1083;4.4542;
541.5000;0.1026;4.4445;
541.8000;0.1066;4.4566;
542.1000;0.1050;4.4518;
542.4000;0.1050;4.4493;
542.7000;0.1058;4.4518;
543.0000;0.1091;4.4664;
543.3000;0.1050;4.4566;
543.6000;0.0961;4.4323;
543.9000;0.1050;4.4493;
544.2000;0.1074;4.4591;
544.5000;0.1148;4.4858;
544.8000;0.1066;4.4737;
545.1000;0.1074;4.4688;
545.4000;0.1066;4.4615;
545.7000;0.1066;4.4542;
546.0000;0.1050;4.4542;
546.3000;0.1123;4.4785;
546.6000;0.1140;4.4858;
546.9000;0.1058;4.4688;
547.2000;0.1099;4.4688;
547.5000;0.1148;4.4834;
547.8000;0.1066;4.4664;
548.1000;0.1050;4.4639;
548.4000;0.1083;4.4639;
548.7000;0.1050;4.4688;
549.0000;0.1083;4.4810;
549.3000;0.1058;4.4785;
549.6000;0.1066;4.4931;
549.9000;0.1001;4.4761;
550.2000;0.1083;4.5077;
550.5000;0.1050;4.5053;
550.8000;0.1058;4.5053;
551.1000;0.1074;4.5004;
551.4000;0.1034;4.4956;
551.7000;0.1066;4.4980;
552.0000;0.1042;4.4883;
552.3000;0.1066;4.4980;
552.6000;0.1066;4.5004;
552.9000;0.1050;4.4907;
553.2000;0.1058;4.4980;
553.5000;0.1107;4.4980;
553.8000;0.0977;4.4591;
554.1000;0.1058;4.4785;
554.4000;0.1034;4.4737;
554.7000;0.1115;4.4956;
555.0000;0.0993;4.4566;
555.3000;0.1058;4.4639;
555.6000;0.1042;4.4639;
555.9000;0.1034;4.4688;
556.2000;0.1083;4.4785;
556.5000;0.1009;4.4712;
556.8000;0.1050;4.4785;
557.1000;0.1050;4.4712;
557.4000;0.1074;4.4785;
557.7000;0.1034;4.4688;
558.0000;0.1091;4.4810;
558.3000;0.1034;4.4688;
558.6000;0.1074;4.4664;
558.9000;0.1066;4.4664;
559.2000;0.1042;4.4591;
559.5000;0.1074;4.4688;
559.8000;0.1026;4.4664;
560.1000;0.1058;4.4761;
560.4000;0.1074;4.4858;
560.7000;0.1074;4.4883;
561.0000;0.1050;4.4858;
561.3000;0.1099;4.4980;
561.6000;0.1074;4.4834;
561.9000;0.1050;4.4712;
562.2000;0.1099;4.4883;
562.5000;0.1083;4.4785;
562.8000;0.1058;4.4737;
563.1000;0.1058;4.4761;
563.4000;0.1050;4.4810;
563.7000;0.1042;4.4810;
564.0000;0.1074;4.4785;
564.3000;0.1066;4.4834;
564.6000;0.1083;4.4931;
564.9000;0.1034;4.4834;
565.2000;0.1001;4.4785;
565.5000;0.1050;4.4931;
565.8000;0.1042;4.4931;
566.1000;0.1058;4.4931;
566.4000;0.1058;4.5004;
566.7000;0.1115;4.5102;
567.0000;0.1091;4.5029;
567.3000;0.1042;4.4883;
567.6000;0.1050;4.4931;
567.9000;0.1058;4.4956;
568.2000;0.1058;4.5004;
568.5000;0.1042;4.4858;
568.8000;0.1058;4.4956;
569.1000;0.1131;4.4980;
569.4000;0.1066;4.4858;
569.7000;0.1009;4.4664;
570.0000;0.1034;4.4761;
570.3000;0.1018;4.4737;
570.6000;0.1009;4.4737;
570.9000;0.1042;4.4858;
571.2000;0.1123;4.5102;
571.5000;0.1034;4.4810;
571.8000;0.1115;4.4907;
572.1000;0.1115;4.4931;
572.4000;0.1058;4.4858;
572.7000;0.1050;4.4834;
573.0000;0.1083;4.4907;
573.3000;0.1074;4.5029;
573.6000;0.1074;4.5102;
573.9000;0.1091;4.5102;
574.2000;0.0985;4.4834;
574.5000;0.1074;4.5053;
574.8000;0.1034;4.4907;
575.1000;0.1058;4.4858;
575.4000;0.1066;4.4980;
575.7000;0.1058;4.4956;
576.0000;0.1091;4.5004;
576.3000;0.1058;4.4931;
576.6000;0.1050;4.4931;
576.9000;0.1099;4.5053;
577.2000;0.1074;4.4907;
577.5000;0.1058;4.4883;
577.8000;0.1058;4.4858;
578.1000;0.1074;4.4858;
578.4000;0.1066;4.4810;
578.7000;0.1083;4.4785;
579.0000;0.1066;4.4664;
579.3000;0.1050;4.4615;
579.6000;0.1083;4.4785;
579.9000;0.1091;4.4834;
580.2000;0.1050;4.4737;
580.5000;0.1074;4.4810;
580.8000;0.1066;4.4810;
581.1000;0.1009;4.4688;
581.4000;0.1058;4.4883;
581.7000;0.1042;4.4858;
582.0000;0.0969;4.4664;
582.3000;0.1066;4.4931;
582.6000;0.1058;4.4907;
582.9000;0.1066;4.4956;
583.2000;0.1074;4.4931;
583.5000;0.1091;4.4931;
583.8000;0.1099;4.5004;
584.1000;0.1050;4.4858;
584.4000;0.1083;4.4980;
584.7000;0.1058;4.4858;
585.0000;0.1034;4.4785;
585.3000;0.1034;4.4834;
585.6000;0.1042;4.4761;
585.9000;0.1083;4.4761;
586.2000;0.0977;4.4372;
586.5000;0.1050;4.4639;
586.8000;0.1058;4.4639;
587.1000;0.1156;4.4858;
587.4000;0.1083;4.4712;
587.7000;0.1058;4.4591;
588.0000;0.1026;4.4493;
588.3000;0.1066;4.4688;
588.6000;0.1074;4.4664;
588.9000;0.1050;4.4664;
589.2000;0.1042;4.4688;
589.5000;0.1026;4.4761;
589.8000;0.1042;4.4737;
590.1000;0.1042;4.4737;
590.4000;0.1148;4.5029;
590.7000;0.1188;4.5272;
591.0000;0.1066;4.4858;
591.3000;0.1058;4.4810;
591.6000;0.1066;4.4810;
591.9000;0.1058;4.4785;
592.2000;0.1058;4.4785;
592.5000;0.1034;4.4761;
592.8000;0.1066;4.4785;
593.1000;0.1164;4.4980;
593.4000;0.1034;4.4615;
593.7000;0.1099;4.4688;
594.0000;0.1050;4.4591;
594.3000;0.1058;4.4542;
594.6000;0.1074;4.4591;
594.9000;0.0985;4.4420;
595.2000;0.1026;4.4493;
595.5000;0.1058;4.4518;
595.8000;0.1066;4.4542;
596.1000;0.1066;4.4591;
596.4000;0.1083;4.4615;
596.7000;0.0985;4.4347;
597.0000;0.1074;4.4688;
597.3000;0.0993;4.4493;
597.6000;0.1066;4.4688;
597.9000;0.1050;4.4615;
598.2000;0.1066;4.4688;
598.5000;0.1083;4.4737;
598.8000;0.1058;4.4664;
599.1000;0.1034;4.4591;
599.4000;0.1066;4.4712;
599.7000;0.1066;4.4688;
600.0000;0.1083;4.4615;
600.3000;0.1066;4.4469;
600.6000;0.1058;4.4445;
600.9000;0.1050;4.4372;
601.2000;0.1066;4.4372;
601.5000;0.0993;4.4201;
601.8000;0.1034;4.4274;
602.1000;0.0936;4.3982;
602.4000;0.1026;4.4153;
602.7000;0.1001;4.4055;
603.0000;0.0855;4.3641;
603.3000;0.1009;4.3982;
603.6000;0.1018;4.4006;
603.9000;0.1042;4.4128;
604.2000;0.0969;4.3885;
604.5000;0.1001;4.3909;
604.8000;0.0993;4.3787;
605.1000;0.1058;4.3958;
605.4000;0.0977;4.3666;
605.7000;0.0977;4.3714;
606.0000;0.0895;4.3471;
606.3000;0.0969;4.3617;
606.6000;0.0961;4.3593;
606.9000;0.1001;4.3666;
607.2000;0.1009;4.3617;
607.5000;0.0961;4.3641;
607.8000;0.1009;4.3666;
608.1000;0.0977;4.3568;
608.4000;0.0985;4.3593;
608.7000;0.0928;4.3447;
609.0000;0.0961;4.3447;
609.3000;0.0961;4.3398;
609.6000;0.0969;4.3447;
609.9000;0.0969;4.3471;
610.2000;0.0920;4.3374;
610.5000;0.0944;4.3422;
610.8000;0.0928;4.3422;
611.1000;0.1042;4.3739;
611.4000;0.0977;4.3544;
611.7000;0.0952;4.3544;
612.0000;0.0936;4.3495;
612.3000;0.0912;4.3349;
612.6000;0.0904;4.3276;
612.9000;0.0928;4.3301;
613.2000;0.0977;4.3398;
613.5000;0.0944;4.3325;
613.8000;0.0928;4.3228;
614.1000;0.0936;4.3276;
614.4000;0.0961;4.3325;
614.7000;0.0904;4.3203;
615.0000;0.0928;4.3325;
615.3000;0.0928;4.3349;
615.6000;0.0912;4.3252;
615.9000;0.0969;4.3374;
616.2000;0.0936;4.3276;
616.5000;0.0912;4.3301;
616.8000;0.0928;4.3374;
617.1000;0.0961;4.3471;
617.4000;0.0920;4.3374;
617.7000;0.0936;4.3349;
618.0000;0.0928;4.3325;
618.3000;0.0944;4.3374;
618.6000;0.0912;4.3301;
618.9000;0.0855;4.3252;
619.2000;0.0904;4.3203;
619.5000;0.0936;4.3325;
619.8000;0.0912;4.3276;
620.1000;0.0944;4.3325;
620.4000;0.0904;4.3276;
620.7000;0.0920;4.3398;
621.0000;0.0936;4.3447;
621.3000;0.0904;4.3374;
621.6000;0.0928;4.3349;
621.9000;0.0912;4.3325;
622.2000;0.0904;4.3276;
622.5000;0.0920;4.3325;
622.8000;0.0944;4.3495;
623.1000;0.0904;4.3447;
623.4000;0.0928;4.3520;
623.7000;0.0936;4.3495;
624.0000;0.0904;4.3374;
624.3000;0.0912;4.3422;
624.6000;0.0912;4.3374;
624.9000;0.0895;4.3252;
625.2000;0.0912;4.3276;
625.5000;0.0871;4.3203;
625.8000;0.0871;4.3276;
626.1000;0.0912;4.3422;
626.4000;0.0838;4.3228;
626.7000;0.0855;4.3325;
627.0000;0.0904;4.3447;
627.3000;0.0904;4.3398;
627.6000;0.0904;4.3349;
627.9000;0.0895;4.3276;
628.2000;0.0904;4.3325;
628.5000;0.0895;4.3374;
628.8000;0.0920;4.3495;
629.1000;0.0920;4.3495;
629.4000;0.0887;4.3374;
629.7000;0.0936;4.3544;
630.0000;0.0920;4.3568;
630.3000;0.0936;4.3568;
630.6000;0.0879;4.3447;
630.9000;0.0879;4.3374;
631.2000;0.0863;4.3447;
631.5000;0.0895;4.3495;
631.8000;0.0887;4.3374;
632.1000;0.0847;4.3228;
632.4000;0.0904;4.3447;
632.7000;0.0944;4.3471;
633.0000;0.0895;4.3325;
633.3000;0.0904;4.3398;
633.6000;0.0895;4.3301;
633.9000;0.0904;4.3349;
634.2000;0.0920;4.3471;
634.5000;0.0895;4.3325;
634.8000;0.0887;4.3276;
635.1000;0.0920;4.3349;
635.4000;0.0920;4.3349;
635.7000;0.0855;4.3106;
636.0000;0.0879;4.3179;
636.3000;0.0879;4.3179;
636.6000;0.0969;4.3374;
636.9000;0.0912;4.3179;
637.2000;0.0895;4.3203;
637.5000;0.0879;4.3228;
637.8000;0.0887;4.3228;
638.1000;0.0887;4.3203;
638.4000;0.0798;4.2838;
638.7000;0.0912;4.3155;
639.0000;0.0879;4.3179;
639.3000;0.0952;4.3422;
639.6000;0.0838;4.3179;
639.9000;0.0920;4.3374;
640.2000;0.0895;4.3301;
640.5000;0.0887;4.3276;
640.8000;0.1018;4.3641;
641.1000;0.0847;4.3155;
641.4000;0.0904;4.3203;
641.7000;0.0912;4.3179;
642.0000;0.0904;4.3179;
642.3000;0.0733;4.2741;
642.6000;0.0912;4.3179;
642.9000;0.0904;4.3155;
643.2000;0.0928;4.3301;
643.5000;0.0895;4.3301;
643.8000;0.0887;4.3228;
644.1000;0.0871;4.3276;
644.4000;0.0895;4.3301;
644.7000;0.0904;4.3349;
645.0000;0.0920;4.3325;
645.3000;0.0920;4.3349;
645.6000;0.0904;4.3495;
645.9000;0.0863;4.3398;
646.2000;0.0887;4.3422;
646.5000;0.0830;4.3203;
646.8000;0.0879;4.3252;
647.1000;0.0895;4.3252;
647.4000;0.0904;4.3203;
647.7000;0.0871;4.3106;
648.0000;0.0928;4.3301;
648.3000;0.0895;4.3203;
648.6000;0.0871;4.3252;
648.9000;0.0847;4.3155;
649.2000;0.0895;4.3374;
649.5000;0.0879;4.3325;
649.8000;0.0895;4.3398;
650.1000;0.0887;4.3301;
650.4000;0.0781;4.3106;
650.7000;0.0879;4.3422;
651.0000;0.0879;4.3349;
651.3000;0.0855;4.3325;
651.6000;0.0814;4.3276;
651.9000;0.0855;4.3398;
652.2000;0.0871;4.3325;
652.5000;0.0895;4.3349;
652.8000;0.0904;4.3325;
653.1000;0.0863;4.3228;
653.4000;0.0879;4.3325;
653.7000;0.0871;4.3374;
654.0000;0.0904;4.3422;
654.3000;0.0895;4.3374;
654.6000;0.0863;4.3398;
654.9000;0.0855;4.3276;
655.2000;0.0871;4.3325;
655.5000;0.0879;4.3349;
655.8000;0.0904;4.3447;
656.1000;0.0887;4.3398;
656.4000;0.0895;4.3398;
656.7000;0.0887;4.3422;
657.0000;0.0912;4.3422;
657.3000;0.0879;4.3276;
657.6000;0.0855;4.3203;
657.9000;0.0822;4.3179;
658.2000;0.0814;4.3057;
658.5000;0.0904;4.3301;
658.8000;0.0895;4.3130;
659.1000;0.0847;4.2960;
659.4000;0.0904;4.3106;
659.7000;0.0895;4.3130;
660.0000;0.0863;4.3130;
660.3000;0.0879;4.3349;
660.6000;0.0928;4.3471;
660.9000;0.0871;4.3252;
661.2000;0.0879;4.3276;
661.5000;0.0838;4.3228;
661.8000;0.0887;4.3374;
662.1000;0.0887;4.3447;
662.4000;0.0838;4.3301;
662.7000;0.0879;4.3349;
663.0000;0.0887;4.3447;
663.3000;0.0887;4.3374;
663.6000;0.0920;4.3495;
663.9000;0.0871;4.3252;
664.2000;0.0936;4.3495;
664.5000;0.0871;4.3276;
664.8000;0.0855;4.3252;
665.1000;0.0798;4.3179;
665.4000;0.0847;4.3252;
665.7000;0.0871;4.3349;
666.0000;0.0895;4.3422;
666.3000;0.0863;4.3276;
666.6000;0.0847;4.3301;
666.9000;0.0871;4.3398;
667.2000;0.0887;4.3349;
667.5000;0.0855;4.3252;
667.8000;0.0887;4.3325;
668.1000;0.0895;4.3349;
668.4000;0.0855;4.3325;
668.7000;0.0871;4.3276;
669.0000;0.0871;4.3301;
669.3000;0.0895;4.3276;
669.6000;0.0863;4.3203;
669.9000;0.0887;4.3301;
670.2000;0.0855;4.3252;
670.5000;0.0912;4.3325;
670.8000;0.0871;4.3252;
671.1000;0.0863;4.3179;
671.4000;0.0838;4.3009;
671.7000;0.0879;4.3155;
672.0000;0.0855;4.3130;
672.3000;0.0887;4.3203;
672.6000;0.0847;4.3179;
672.9000;0.0822;4.3203;
673.2000;0.0871;4.3276;
673.5000;0.0904;4.3325;
673.8000;0.0855;4.3276;
674.1000;0.0871;4.3374;
674.4000;0.0895;4.3349;
674.7000;0.0863;4.3228;
675.0000;0.0895;4.3276;
675.3000;0.0838;4.3130;
675.6000;0.0863;4.3301;
675.9000;0.0879;4.3422;
676.2000;0.0863;4.3374;
676.5000;0.0928;4.3568;
676.8000;0.0879;4.3471;
677.1000;0.0855;4.3325;
677.4000;0.0871;4.3252;
677.7000;0.0847;4.3203;
678.0000;0.0863;4.3252;
678.3000;0.0895;4.3349;
678.6000;0.0871;4.3301;
678.9000;0.0871;4.3325;
679.2000;0.0887;4.3325;
679.5000;0.0863;4.3203;
679.8000;0.0879;4.3252;
680.1000;0.0822;4.2984;
680.4000;0.0871;4.3130;
680.7000;0.0936;4.3203;
681.0000;0.0887;4.3057;
681.3000;0.0879;4.3009;
681.6000;0.0855;4.2960;
681.9000;0.0855;4.3057;
682.2000;0.0855;4.3009;
682.5000;0.0904;4.3082;
682.8000;0.0863;4.3057;
683.1000;0.0855;4.3082;
683.4000;0.0879;4.3179;
683.7000;0.0863;4.3203;
684.0000;0.0855;4.3203;
684.3000;0.0879;4.3252;
684.6000;0.0879;4.3228;
684.9000;0.0871;4.3252;
685.2000;0.0879;4.3228;
685.5000;0.0814;4.3106;
685.8000;0.0879;4.3252;
686.1000;0.0855;4.3203;
686.4000;0.0863;4.3276;
686.7000;0.0879;4.3276;
687.0000;0.0871;4.3349;
687.3000;0.0904;4.3422;
687.6000;0.0863;4.3252;
687.9000;0.0879;4.3374;
688.2000;0.0879;4.3325;
688.5000;0.0904;4.3422;
688.8000;0.0879;4.3398;
689.1000;0.0855;4.3301;
689.4000;0.0871;4.3276;
689.7000;0.0920;4.3374;
690.0000;0.0879;4.3276;
690.3000;0.0806;4.3033;
690.6000;0.0855;4.3130;
690.9000;0.0855;4.3130;
691.2000;0.0863;4.3228;
691.5000;0.0871;4.3276;
691.8000;0.0871;4.3203;
692.1000;0.0895;4.3276;
692.4000;0.0871;4.3276;
692.7000;0.0814;4.3155;
693.0000;0.0855;4.3203;
693.3000;0.0871;4.3276;
693.6000;0.0855;4.3301;
693.9000;0.0879;4.3325;
694.2000;0.0855;4.3301;
694.5000;0.0855;4.3276;
694.8000;0.0855;4.3276;
695.1000;0.0863;4.3301;
695.4000;0.0887;4.3398;
695.7000;0.0863;4.3301;
696.0000;0.0806;4.3130;
696.3000;0.0871;4.3374;
696.6000;0.0855;4.3276;
696.9000;0.0863;4.3325;
697.2000;0.0863;4.3349;
697.5000;0.0757;4.3106;
697.8000;0.0708;4.2984;
698.1000;0.0904;4.3495;
698.4000;0.0871;4.3422;
698.7000;0.0773;4.3057;
699.0000;0.0863;4.3349;
699.3000;0.0847;4.3349;
699.6000;0.0855;4.3447;
699.9000;0.0879;4.3422;
700.2000;0.0838;4.3228;
700.5000;0.0871;4.3203;
700.8000;0.0749;4.2936;
701.1000;0.0847;4.3276;
701.4000;0.0871;4.3325;
701.7000;0.0863;4.3276;
702.0000;0.0863;4.3252;
702.3000;0.0847;4.3130;
702.6000;0.0904;4.3228;
702.9000;0.0790;4.2887;
703.2000;0.0887;4.3179;
703.5000;0.0895;4.3252;
703.8000;0.0887;4.3228;
704.1000;0.0822;4.3106;
704.4000;0.0830;4.3179;
704.7000;0.0814;4.3203;
705.0000;0.0887;4.3349;
705.3000;0.0765;4.3057;
705.6000;0.0847;4.3276;
705.9000;0.0838;4.3349;
706.2000;0.0847;4.3301;
706.5000;0.0863;4.3398;
706.8000;0.0871;4.3422;
707.1000;0.0863;4.3398;
707.4000;0.0920;4.3593;
707.7000;0.0814;4.3252;
708.0000;0.0863;4.3301;
708.3000;0.0871;4.3374;
708.6000;0.0798;4.3228;
708.9000;0.0871;4.3447;
709.2000;0.0887;4.3495;
709.5000;0.0830;4.3252;
709.8000;0.0871;4.3301;
710.1000;0.0863;4.3228;
710.4000;0.0863;4.3301;
710.7000;0.0847;4.3301;
711.0000;0.0879;4.3374;
711.3000;0.0904;4.3422;
711.6000;0.0838;4.3203;
711.9000;0.0822;4.3155;
712.2000;0.0863;4.3252;
712.5000;0.0863;4.3203;
712.8000;0.0879;4.3228;
713.1000;0.0855;4.3301;
713.4000;0.0863;4.3374;
713.7000;0.0936;4.3447;
714.0000;0.0863;4.3252;
714.3000;0.0863;4.3374;
714.6000;0.0814;4.3252;
714.9000;0.0871;4.3447;
715.2000;0.0879;4.3398;
715.5000;0.0863;4.3447;
715.8000;0.0871;4.3520;
716.1000;0.0847;4.3422;
716.4000;0.0847;4.3568;
716.7000;0.0863;4.3568;
717.0000;0.0871;4.3593;
717.3000;0.0863;4.3544;
717.6000;0.0838;4.3471;
717.9000;0.0952;4.3836;
718.2000;0.0847;4.3471;
718.5000;0.0798;4.3276;
718.8000;0.0838;4.3349;
719.1000;0.0822;4.3276;
719.4000;0.0847;4.3422;
719.7000;0.0887;4.3495;
720.0000;0.0871;4.3568;
720.3000;0.0838;4.3617;
720.6000;0.0855;4.3690;
720.9000;0.0838;4.3641;
721.2000;0.0863;4.3666;
721.5000;0.0871;4.3641;
721.8000;0.0871;4.3617;
722.1000;0.0904;4.3568;
722.4000;0.0936;4.3544;
722.7000;0.0879;4.3398;
723.0000;0.0855;4.3374;
723.3000;0.0871;4.3398;
723.6000;0.0855;4.3349;
723.9000;0.0895;4.3447;
724.2000;0.0830;4.3228;
724.5000;0.0830;4.3276;
724.8000;0.0871;4.3447;
725.1000;0.0871;4.3495;
725.4000;0.0871;4.3544;
725.7000;0.0871;4.3544;
726.0000;0.0790;4.3179;
726.3000;0.0871;4.3349;
726.6000;0.0895;4.3422;
726.9000;0.0863;4.3398;
727.2000;0.0855;4.3374;
727.5000;0.0863;4.3422;
727.8000;0.0879;4.3447;
728.1000;0.0895;4.3520;
728.4000;0.0879;4.3447;
728.7000;0.0952;4.3690;
729.0000;0.0847;4.3325;
729.3000;0.0863;4.3325;
729.6000;0.0895;4.3447;
729.9000;0.0855;4.3374;
730.2000;0.0904;4.3520;
730.5000;0.0863;4.3276;
730.8000;0.0863;4.3325;
731.1000;0.0855;4.3301;
731.4000;0.0912;4.3422;
731.7000;0.0847;4.3301;
732.0000;0.0838;4.3325;
732.3000;0.0863;4.3349;
732.6000;0.0863;4.3301;
732.9000;0.0887;4.3325;
733.2000;0.0855;4.3252;
733.5000;0.0855;4.3228;
733.8000;0.0806;4.3179;
734.1000;0.0879;4.3301;
734.4000;0.0847;4.3325;
734.7000;0.0879;4.3447;
735.0000;0.0855;4.3301;
735.3000;0.0904;4.3422;
735.6000;0.0830;4.3203;
735.9000;0.0822;4.3301;
736.2000;0.0830;4.3301;
736.5000;0.0847;4.3374;
736.8000;0.0790;4.3228;
737.1000;0.0904;4.3447;
737.4000;0.0855;4.3374;
737.7000;0.0912;4.3447;
738.0000;0.0912;4.3422;
738.3000;0.0855;4.3349;
738.6000;0.0830;4.3349;
738.9000;0.0895;4.3447;
739.2000;0.0847;4.3374;
739.5000;0.0855;4.3422;
739.8000;0.0847;4.3447;
740.1000;0.0822;4.3398;
740.4000;0.0847;4.3422;
740.7000;0.0871;4.3495;
741.0000;0.0863;4.3349;
741.3000;0.0838;4.3374;
741.6000;0.0757;4.3179;
741.9000;0.0936;4.3568;
742.2000;0.0863;4.3374;
742.5000;0.0847;4.3398;
742.8000;0.0863;4.3447;
743.1000;0.0879;4.3471;
743.4000;0.0855;4.3471;
743.7000;0.0871;4.3544;
744.0000;0.0928;4.3763;
744.3000;0.0871;4.3714;
744.6000;0.0838;4.3641;
744.9000;0.0838;4.3593;
745.2000;0.0855;4.3617;
745.5000;0.0863;4.3641;
745.8000;0.0838;4.3495;
746.1000;0.0838;4.3471;
746.4000;0.0838;4.3349;
746.7000;0.0838;4.3374;
747.0000;0.0863;4.3422;
747.3000;0.0863;4.3447;
747.6000;0.0855;4.3349;
747.9000;0.0895;4.3544;
748.2000;0.0879;4.3471;
748.5000;0.0863;4.3495;
748.8000;0.0879;4.3520;
749.1000;0.0838;4.3398;
749.4000;0.0887;4.3520;
749.7000;0.0887;4.3520;
750.0000;0.0871;4.3398;
750.3000;0.0871;4.3447;
750.6000;0.0863;4.3471;
750.9000;0.0863;4.3471;
751.2000;0.0838;4.3398;
751.5000;0.0855;4.3447;
751.8000;0.0863;4.3495;
752.1000;0.0887;4.3617;
752.4000;0.0871;4.3641;
752.7000;0.0863;4.3495;
753.0000;0.0790;4.3252;
753.3000;0.0871;4.3593;
753.6000;0.0855;4.3495;
753.9000;0.0895;4.3617;
754.2000;0.0830;4.3471;
754.5000;0.0871;4.3593;
754.8000;0.0871;4.3641;
755.1000;0.0871;4.3641;
755.4000;0.0863;4.3544;
755.7000;0.0855;4.3495;
756.0000;0.0830;4.3495;
756.3000;0.0830;4.3520;
756.6000;0.0838;4.3447;
756.9000;0.0855;4.3471;
757.2000;0.0855;4.3447;
757.5000;0.0855;4.3349;
757.8000;0.0822;4.3301;
758.1000;0.0855;4.3349;
758.4000;0.0847;4.3179;
758.7000;0.0781;4.3057;
759.0000;0.0871;4.3325;
759.3000;0.0733;4.2911;
759.6000;0.0863;4.3349;
759.9000;0.0863;4.3422;
760.2000;0.0961;4.3714;
760.5000;0.0855;4.3520;
760.8000;0.0855;4.3495;
761.1000;0.0855;4.3544;
761.4000;0.0838;4.3495;
761.7000;0.0838;4.3520;
762.0000;0.0838;4.3495;
762.3000;0.0838;4.3520;
762.6000;0.0863;4.3568;
762.9000;0.0863;4.3520;
763.2000;0.0879;4.3593;
763.5000;0.0855;4.3544;
763.8000;0.0773;4.3203;
764.1000;0.0895;4.3593;
764.4000;0.0855;4.3568;
764.7000;0.0855;4.3593;
765.0000;0.0847;4.3544;
765.3000;0.0863;4.3593;
765.6000;0.0765;4.3349;
765.9000;0.0773;4.3349;
766.2000;0.0838;4.3447;
766.5000;0.0855;4.3471;
766.8000;0.0838;4.3398;
767.1000;0.0863;4.3447;
767.4000;0.0879;4.3471;
767.7000;0.0871;4.3495;
768.0000;0.0838;4.3422;
768.3000;0.0887;4.3520;
768.6000;0.0904;4.3617;
768.9000;0.0781;4.3398;
769.2000;0.0871;4.3641;
769.5000;0.0863;4.3690;
769.8000;0.0855;4.3641;
770.1000;0.0855;4.3544;
770.4000;0.0863;4.3544;
770.7000;0.0838;4.3544;
771.0000;0.0855;4.3568;
771.3000;0.0863;4.3593;
771.6000;0.0855;4.3568;
771.9000;0.0863;4.3568;
772.2000;0.0863;4.3617;
772.5000;0.0855;4.3666;
772.8000;0.0855;4.3568;
773.1000;0.0847;4.3495;
773.4000;0.0871;4.3593;
773.7000;0.0887;4.3593;
774.0000;0.0822;4.3471;
774.3000;0.0838;4.3568;
774.6000;0.0855;4.3617;
774.9000;0.0806;4.3641;
775.2000;0.0749;4.3422;
775.5000;0.0887;4.3763;
775.8000;0.0871;4.3812;
776.1000;0.0855;4.3763;
776.4000;0.0855;4.3763;
776.7000;0.0790;4.3690;
777.0000;0.0847;4.3836;
777.3000;0.0863;4.3933;
777.6000;0.0887;4.3958;
777.9000;0.0855;4.3860;
778.2000;0.0847;4.3885;
778.5000;0.0814;4.3666;
778.8000;0.0879;4.3763;
779.1000;0.0830;4.3617;
779.4000;0.0855;4.3690;
779.7000;0.0830;4.3544;
780.0000;0.0863;4.3568;
780.3000;0.0895;4.3593;
780.6000;0.0847;4.3471;
780.9000;0.0863;4.3495;
781.2000;0.0863;4.3495;
781.5000;0.0838;4.3325;
781.8000;0.0838;4.3374;
782.1000;0.0895;4.3520;
782.4000;0.0855;4.3301;
782.7000;0.0855;4.3325;
783.0000;0.0855;4.3422;
783.3000;0.0855;4.3471;
783.6000;0.0871;4.3471;
783.9000;0.0781;4.3155;
784.2000;0.0863;4.3447;
784.5000;0.0863;4.3495;
784.8000;0.0904;4.3568;
785.1000;0.0847;4.3349;
785.4000;0.0822;4.3422;
785.7000;0.0855;4.3520;
786.0000;0.0822;4.3447;
786.3000;0.0847;4.3398;
786.6000;0.0855;4.3349;
786.9000;0.0814;4.3228;
787.2000;0.0847;4.3276;
787.5000;0.0863;4.3325;
787.8000;0.0863;4.3349;
788.1000;0.0871;4.3471;
788.4000;0.0847;4.3301;
788.7000;0.0838;4.3252;
789.0000;0.0830;4.3301;
789.3000;0.0855;4.3398;
789.6000;0.0781;4.3276;
789.9000;0.0879;4.3666;
790.2000;0.0887;4.3666;
790.5000;0.0847;4.3641;
790.8000;0.0855;4.3666;
791.1000;0.0863;4.3666;
791.4000;0.0912;4.3812;
791.7000;0.0871;4.3690;
792.0000;0.0895;4.3812;
792.3000;0.0855;4.3593;
792.6000;0.0855;4.3593;
792.9000;0.0879;4.3617;
793.2000;0.0895;4.3641;
793.5000;0.0863;4.3593;
793.8000;0.0855;4.3520;
794.1000;0.0822;4.3374;
794.4000;0.0847;4.3447;
794.7000;0.0863;4.3544;
795.0000;0.0936;4.3812;
795.3000;0.0838;4.3471;
795.6000;0.0847;4.3568;
795.9000;0.0847;4.3666;
796.2000;0.0920;4.3739;
796.5000;0.0871;4.3690;
796.8000;0.0879;4.3690;
797.1000;0.0879;4.3641;
797.4000;0.0855;4.3617;
797.7000;0.0871;4.3690;
798.0000;0.0879;4.3666;
798.3000;0.0855;4.3593;
798.6000;0.0879;4.3617;
798.9000;0.0863;4.3641;
799.2000;0.0871;4.3641;
799.5000;0.0855;4.3593;
799.8000;0.0838;4.3641;
800.1000;0.0871;4.3714;
800.4000;0.0871;4.3714;
800.7000;0.0847;4.3666;
801.0000;0.0855;4.3739;
801.3000;0.0855;4.3763;
801.6000;0.0806;4.3617;
801.9000;0.0871;4.3739;
802.2000;0.0838;4.3617;
802.5000;0.0871;4.3690;
802.8000;0.0855;4.3763;
803.1000;0.0863;4.3690;
803.4000;0.0855;4.3593;
803.7000;0.0863;4.3617;
804.0000;0.0855;4.3593;
804.3000;0.0855;4.3593;
804.6000;0.0855;4.3617;
804.9000;0.0879;4.3666;
805.2000;0.0855;4.3544;
805.5000;0.0871;4.3666;
805.8000;0.0855;4.3617;
806.1000;0.0847;4.3544;
806.4000;0.0855;4.3593;
806.7000;0.0904;4.3739;
807.0000;0.0847;4.3641;
807.3000;0.0855;4.3641;
807.6000;0.0847;4.3568;
807.9000;0.0871;4.3593;
808.2000;0.0847;4.3568;
808.5000;0.0887;4.3593;
808.8000;0.0855;4.3447;
809.1000;0.0855;4.3471;
809.4000;0.0855;4.3422;
809.7000;0.0847;4.3398;
810.0000;0.0822;4.3374;
810.3000;0.0847;4.3398;
810.6000;0.0822;4.3349;
810.9000;0.0798;4.3325;
811.2000;0.0847;4.3520;
811.5000;0.0863;4.3495;
811.8000;0.0863;4.3422;
812.1000;0.0847;4.3325;
812.4000;0.0855;4.3325;
812.7000;0.0871;4.3349;
813.0000;0.0708;4.2936;
813.3000;0.0863;4.3301;
813.6000;0.0904;4.3471;
813.9000;0.0928;4.3641;
814.2000;0.0879;4.3593;
814.5000;0.0757;4.3276;
814.8000;0.0855;4.3495;
815.1000;0.0855;4.3495;
815.4000;0.0781;4.3422;
815.7000;0.0871;4.3666;
816.0000;0.0855;4.3593;
816.3000;0.0855;4.3617;
816.6000;0.0814;4.3447;
816.9000;0.0871;4.3617;
817.2000;0.0879;4.3617;
817.5000;0.0855;4.3568;
817.8000;0.0863;4.3520;
818.1000;0.0863;4.3544;
818.4000;0.0944;4.3787;
818.7000;0.0855;4.3520;
819.0000;0.0920;4.3714;
819.3000;0.0855;4.3520;
819.6000;0.0855;4.3495;
819.9000;0.0863;4.3520;
820.2000;0.0879;4.3495;
820.5000;0.0838;4.3471;
820.8000;0.0855;4.3471;
821.1000;0.0814;4.3301;
821.4000;0.0855;4.3447;
821.7000;0.0847;4.3422;
822.0000;0.0863;4.3593;
822.3000;0.0855;4.3520;
822.6000;0.0863;4.3520;
822.9000;0.0838;4.3447;
823.2000;0.0830;4.3349;
823.5000;0.0887;4.3544;
823.8000;0.0863;4.3471;
824.1000;0.0871;4.3447;
824.4000;0.0871;4.3471;
824.7000;0.0855;4.3593;
825.0000;0.0855;4.3617;
825.3000;0.0847;4.3593;
825.6000;0.0855;4.3666;
825.9000;0.0871;4.3690;
826.2000;0.0838;4.3593;
826.5000;0.0855;4.3568;
826.8000;0.0912;4.3763;
827.1000;0.0863;4.3641;
827.4000;0.0871;4.3593;
827.7000;0.0838;4.3495;
828.0000;0.0887;4.3568;
828.3000;0.0847;4.3447;
828.6000;0.0847;4.3447;
828.9000;0.0863;4.3447;
829.2000;0.0969;4.3714;
829.5000;0.0838;4.3276;
829.8000;0.0847;4.3155;
830.1000;0.0757;4.2887;
830.4000;0.0847;4.3203;
830.7000;0.0855;4.3228;
831.0000;0.0863;4.3325;
831.3000;0.0863;4.3301;
831.6000;0.0904;4.3447;
831.9000;0.0863;4.3325;
832.2000;0.0838;4.3301;
832.5000;0.0863;4.3349;
832.8000;0.0895;4.3447;
833.1000;0.0879;4.3374;
833.4000;0.0855;4.3276;
833.7000;0.0863;4.3349;
834.0000;0.0830;4.3276;
834.3000;0.0855;4.3422;
834.6000;0.0887;4.3495;
834.9000;0.0847;4.3398;
835.2000;0.0838;4.3398;
835.5000;0.0847;4.3447;
835.8000;0.0871;4.3471;
836.1000;0.0773;4.3276;
836.4000;0.0871;4.3520;
836.7000;0.0863;4.3520;
837.0000;0.0904;4.3593;
837.3000;0.0863;4.3520;
837.6000;0.0969;4.3787;
837.9000;0.0781;4.3252;
838.2000;0.0863;4.3349;
838.5000;0.0887;4.3374;
838.8000;0.0806;4.3179;
839.1000;0.0847;4.3252;
839.4000;0.0838;4.3349;
839.7000;0.0879;4.3325;
840.0000;0.0806;4.3203;
840.3000;0.0822;4.3301;
840.6000;0.0838;4.3325;
840.9000;0.0871;4.3325;
841.2000;0.0855;4.3325;
841.5000;0.0855;4.3252;
841.8000;0.0847;4.3252;
842.1000;0.0847;4.3325;
842.4000;0.0847;4.3252;
842.7000;0.0871;4.3276;
843.0000;0.0879;4.3325;
843.3000;0.0798;4.3179;
843.6000;0.0806;4.3252;
843.9000;0.0838;4.3276;
844.2000;0.0847;4.3325;
844.5000;0.0871;4.3495;
844.8000;0.0838;4.3520;
845.1000;0.0855;4.3520;
845.4000;0.0863;4.3544;
845.7000;0.0863;4.3568;
846.0000;0.0863;4.3568;
846.3000;0.0822;4.3495;
846.6000;0.0838;4.3495;
846.9000;0.0895;4.3641;
847.2000;0.0879;4.3690;
847.5000;0.0871;4.3641;
847.8000;0.0863;4.3544;
848.1000;0.0863;4.3568;
848.4000;0.0863;4.3544;
848.7000;0.0855;4.3495;
849.0000;0.0871;4.3544;
849.3000;0.0838;4.3422;
849.6000;0.0863;4.3422;
849.9000;0.0855;4.3325;
850.2000;0.0773;4.3155;
850.5000;0.0855;4.3398;
850.8000;0.0847;4.3422;
851.1000;0.0814;4.3398;
851.4000;0.0847;4.3422;
851.7000;0.0847;4.3374;
852.0000;0.0855;4.3422;
852.3000;0.0928;4.3641;
852.6000;0.0838;4.3374;
852.9000;0.0830;4.3252;
853.2000;0.0822;4.3179;
853.5000;0.0871;4.3422;
853.8000;0.0822;4.3325;
854.1000;0.0863;4.3471;
854.4000;0.0855;4.3422;
854.7000;0.0838;4.3349;
855.0000;0.0838;4.3252;
855.3000;0.0847;4.3276;
855.6000;0.0830;4.3252;
855.9000;0.0871;4.3349;
856.2000;0.0855;4.3301;
856.5000;0.0838;4.3349;
856.8000;0.0879;4.3422;
857.1000;0.0871;4.3447;
857.4000;0.0847;4.3374;
857.7000;0.0863;4.3422;
858.0000;0.0871;4.3520;
858.3000;0.0879;4.3447;
858.6000;0.0887;4.3544;
858.9000;0.0814;4.3349;
859.2000;0.0855;4.3471;
859.5000;0.0847;4.3568;
859.8000;0.0863;4.3568;
860.1000;0.0855;4.3568;
860.4000;0.0855;4.3471;
860.7000;0.0830;4.3398;
861.0000;0.0806;4.3349;
861.3000;0.0863;4.3447;
861.6000;0.0879;4.3471;
861.9000;0.0838;4.3252;
862.2000;0.0855;4.3228;
862.5000;0.0814;4.3179;
862.8000;0.0871;4.3252;
863.1000;0.0855;4.3276;
863.4000;0.0871;4.3276;
863.7000;0.0863;4.3276;
864.0000;0.0838;4.3106;
864.3000;0.0830;4.3155;
864.6000;0.0855;4.3228;
864.9000;0.0879;4.3325;
865.2000;0.0847;4.3203;
865.5000;0.0855;4.3203;
865.8000;0.0879;4.3252;
866.1000;0.0757;4.2911;
866.4000;0.0871;4.3228;
866.7000;0.0871;4.3252;
867.0000;0.0838;4.3203;
867.3000;0.0863;4.3374;
867.6000;0.0830;4.3349;
867.9000;0.0871;4.3471;
868.2000;0.0887;4.3544;
868.5000;0.0855;4.3422;
868.8000;0.0847;4.3349;
869.1000;0.0863;4.3374;
869.4000;0.0830;4.3276;
869.7000;0.0822;4.3276;
870.0000;0.0855;4.3374;
870.3000;0.0855;4.3374;
870.6000;0.0847;4.3447;
870.9000;0.0838;4.3398;
871.2000;0.0847;4.3471;
871.5000;0.0855;4.3520;
871.8000;0.0847;4.3422;
872.1000;0.0863;4.3422;
872.4000;0.0871;4.3374;
872.7000;0.0928;4.3617;
873.0000;0.0879;4.3520;
873.3000;0.0855;4.3422;
873.6000;0.0830;4.3422;
873.9000;0.0855;4.3422;
874.2000;0.0838;4.3398;
874.5000;0.0863;4.3520;
874.8000;0.0863;4.3422;
875.1000;0.0708;4.3057;
875.4000;0.0838;4.3398;
875.7000;0.0855;4.3422;
876.0000;0.0871;4.3471;
876.3000;0.0847;4.3495;
876.6000;0.0879;4.3495;
876.9000;0.0838;4.3422;
877.2000;0.0838;4.3374;
877.5000;0.0838;4.3374;
877.8000;0.0838;4.3349;
878.1000;0.0855;4.3398;
878.4000;0.0871;4.3495;
878.7000;0.0871;4.3568;
879.0000;0.0879;4.3544;
879.3000;0.0879;4.3495;
879.6000;0.0847;4.3276;
879.9000;0.0838;4.3398;
880.2000;0.0838;4.3374;
880.5000;0.0830;4.3252;
880.8000;0.0863;4.3374;
881.1000;0.0830;4.3325;
881.4000;0.0855;4.3398;
881.7000;0.0847;4.3349;
882.0000;0.0855;4.3398;
882.3000;0.0855;4.3422;
882.6000;0.0855;4.3447;
882.9000;0.0936;4.3617;
883.2000;0.0838;4.3349;
883.5000;0.0863;4.3422;
883.8000;0.0855;4.3447;
884.1000;0.0838;4.3422;
884.4000;0.0814;4.3422;
884.7000;0.0790;4.3276;
885.0000;0.0822;4.3276;
885.3000;0.0838;4.3374;
885.6000;0.0871;4.3471;
885.9000;0.0838;4.3398;
886.2000;0.0847;4.3374;
886.5000;0.0847;4.3349;
886.8000;0.0879;4.3422;
887.1000;0.0847;4.3301;
887.4000;0.0863;4.3349;
887.7000;0.0863;4.3422;
888.0000;0.0879;4.3398;
888.3000;0.0863;4.3349;
888.6000;0.0871;4.3398;
888.9000;0.0863;4.3495;
889.2000;0.0936;4.3763;
889.5000;0.0830;4.3447;
889.8000;0.0838;4.3471;
890.1000;0.0863;4.3398;
890.4000;0.0765;4.3203;
890.7000;0.0847;4.3495;
891.0000;0.0847;4.3495;
891.3000;0.0798;4.3422;
891.6000;0.0936;4.3739;
891.9000;0.0855;4.3617;
892.2000;0.0920;4.3714;
892.5000;0.0847;4.3471;
892.8000;0.0838;4.3398;
893.1000;0.0879;4.3422;
893.4000;0.0822;4.3349;
893.7000;0.0855;4.3422;
894.0000;0.0838;4.3374;
894.3000;0.0855;4.3447;
894.6000;0.0847;4.3349;
894.9000;0.0798;4.3228;
895.2000;0.0806;4.3179;
895.5000;0.0814;4.3203;
895.8000;0.0830;4.3228;
896.1000;0.0855;4.3252;
896.4000;0.0822;4.3203;
896.7000;0.0830;4.3252;
897.0000;0.0847;4.3325;
897.3000;0.0855;4.3276;
897.6000;0.0855;4.3301;
897.9000;0.0838;4.3276;
898.2000;0.0790;4.3276;
898.5000;0.0855;4.3495;
898.8000;0.0855;4.3422;
899.1000;0.0814;4.3179;
899.4000;0.0863;4.3276;
899.7000;0.0855;4.3130;
900.0000;0.0838;4.3155;
900.3000;0.0871;4.3276;
900.6000;0.0863;4.3203;
900.9000;0.0912;4.3398;
901.2000;0.0830;4.3082;
901.5000;0.0855;4.3203;
901.8000;0.0855;4.3301;
902.1000;0.0887;4.3447;
902.4000;0.0855;4.3398;
902.7000;0.0847;4.3398;
903.0000;0.0912;4.3544;
903.3000;0.0855;4.3422;
903.6000;0.0822;4.3325;
903.9000;0.0781;4.3179;
904.2000;0.0830;4.3203;
904.5000;0.0847;4.3228;
904.8000;0.0863;4.3325;
905.1000;0.0847;4.3374;
905.4000;0.0920;4.3690;
905.7000;0.0822;4.3471;
906.0000;0.0806;4.3422;
906.3000;0.0847;4.3471;
906.6000;0.0912;4.3690;
906.9000;0.0798;4.3422;
907.2000;0.0863;4.3641;
907.5000;0.0822;4.3422;
907.8000;0.0806;4.3374;
908.1000;0.0847;4.3544;
908.4000;0.0847;4.3447;
908.7000;0.0855;4.3422;
909.0000;0.0838;4.3252;
909.3000;0.0822;4.3228;
909.6000;0.0838;4.3276;
909.9000;0.0847;4.3398;
910.2000;0.0863;4.3520;
910.5000;0.0830;4.3447;
910.8000;0.0871;4.3520;
911.1000;0.0855;4.3544;
911.4000;0.0781;4.3349;
911.7000;0.0847;4.3641;
912.0000;0.0920;4.3812;
912.3000;0.0936;4.3885;
912.6000;0.0822;4.3520;
912.9000;0.0871;4.3690;
913.2000;0.0871;4.3593;
913.5000;0.0887;4.3666;
913.8000;0.0871;4.3641;
914.1000;0.0863;4.3568;
914.4000;0.0806;4.3495;
914.7000;0.0838;4.3568;
915.0000;0.0838;4.3544;
915.3000;0.0838;4.3520;
915.6000;0.0855;4.3593;
915.9000;0.0838;4.3617;
916.2000;0.0830;4.3495;
916.5000;0.0855;4.3495;
916.8000;0.0863;4.3471;
917.1000;0.0838;4.3349;
917.4000;0.0855;4.3422;
917.7000;0.0855;4.3398;
918.0000;0.0838;4.3276;
918.3000;0.0847;4.3228;
918.6000;0.0871;4.3301;
918.9000;0.0855;4.3228;
919.2000;0.0855;4.3179;
919.5000;0.0855;4.3106;
919.8000;0.0855;4.3203;
920.1000;0.0838;4.3106;
920.4000;0.0830;4.3082;
920.7000;0.0822;4.3106;
921.0000;0.0847;4.3203;
921.3000;0.0936;4.3447;
921.6000;0.0822;4.3155;
921.9000;0.0733;4.2960;
922.2000;0.0847;4.3228;
922.5000;0.0904;4.3398;
922.8000;0.0847;4.3301;
923.1000;0.0855;4.3325;
923.4000;0.0855;4.3422;
923.7000;0.0871;4.3349;
924.0000;0.0830;4.3203;
924.3000;0.0871;4.3325;
924.6000;0.0863;4.3301;
924.9000;0.0830;4.3349;
925.2000;0.0847;4.3374;
925.5000;0.0847;4.3398;
925.8000;0.0847;4.3374;
926.1000;0.0871;4.3422;
926.4000;0.0822;4.3301;
926.7000;0.0871;4.3398;
927.0000;0.0838;4.3301;
927.3000;0.0863;4.3422;
927.6000;0.0847;4.3252;
927.9000;0.0904;4.3471;
928.2000;0.0855;4.3422;
928.5000;0.0863;4.3495;
928.8000;0.0838;4.3447;
929.1000;0.0855;4.3398;
929.4000;0.0912;4.3544;
929.7000;0.0806;4.3325;
930.0000;0.0814;4.3447;
930.3000;0.0863;4.3520;
930.6000;0.0887;4.3593;
930.9000;0.0863;4.3471;
931.2000;0.0871;4.3374;
931.5000;0.0871;4.3398;
931.8000;0.0863;4.3495;
932.1000;0.0855;4.3520;
932.4000;0.0847;4.3495;
932.7000;0.0830;4.3447;
933.0000;0.0847;4.3447;
933.3000;0.0879;4.3495;
933.6000;0.0904;4.3617;
933.9000;0.0912;4.3593;
934.2000;0.0904;4.3568;
934.5000;0.0847;4.3495;
934.8000;0.0879;4.3593;
935.1000;0.0847;4.3520;
935.4000;0.0790;4.3252;
935.7000;0.0773;4.3106;
936.0000;0.0879;4.3422;
936.3000;0.0847;4.3349;
936.6000;0.0855;4.3520;
936.9000;0.0822;4.3422;
937.2000;0.0863;4.3617;
937.5000;0.0863;4.3666;
937.8000;0.0863;4.3641;
938.1000;0.0855;4.3593;
938.4000;0.0814;4.3422;
938.7000;0.0798;4.3349;
939.0000;0.0847;4.3447;
939.3000;0.0847;4.3495;
939.6000;0.0838;4.3447;
939.9000;0.0879;4.3568;
940.2000;0.0847;4.3374;
940.5000;0.0855;4.3447;
940.8000;0.0855;4.3422;
941.1000;0.0847;4.3398;
941.4000;0.0822;4.3374;
941.7000;0.0871;4.3520;
942.0000;0.0863;4.3471;
942.3000;0.0879;4.3398;
942.6000;0.0863;4.3349;
942.9000;0.0847;4.3301;
943.2000;0.0871;4.3325;
943.5000;0.0871;4.3398;
943.8000;0.0855;4.3520;
944.1000;0.0773;4.3252;
944.4000;0.0871;4.3593;
944.7000;0.0855;4.3520;
945.0000;0.0887;4.3593;
945.3000;0.0928;4.3714;
945.6000;0.0847;4.3422;
945.9000;0.0855;4.3520;
946.2000;0.0822;4.3568;
946.5000;0.0781;4.3398;
946.8000;0.0944;4.3836;
947.1000;0.0838;4.3495;
947.4000;0.0838;4.3471;
947.7000;0.0855;4.3495;
948.0000;0.0863;4.3544;
948.3000;0.0838;4.3520;
948.6000;0.0855;4.3495;
948.9000;0.0863;4.3495;
949.2000;0.0855;4.3447;
949.5000;0.0871;4.3520;
949.8000;0.0879;4.3544;
950.1000;0.0790;4.3398;
950.4000;0.0871;4.3495;
950.7000;0.0838;4.3374;
951.0000;0.0847;4.3447;
951.3000;0.0855;4.3374;
951.6000;0.0847;4.3325;
951.9000;0.0936;4.3593;
952.2000;0.0830;4.3276;
952.5000;0.0977;4.3617;
952.8000;0.0879;4.3203;
953.1000;0.0847;4.3130;
953.4000;0.0716;4.2765;
953.7000;0.0895;4.3252;
954.0000;0.0863;4.3203;
954.3000;0.0781;4.3033;
954.6000;0.0855;4.3301;
954.9000;0.0855;4.3349;
955.2000;0.0806;4.3155;
955.5000;0.0838;4.3276;
955.8000;0.0863;4.3325;
956.1000;0.0838;4.3252;
956.4000;0.0838;4.3301;
956.7000;0.0830;4.3276;
957.0000;0.0814;4.3252;
957.3000;0.0838;4.3325;
957.6000;0.0830;4.3349;
957.9000;0.0830;4.3325;
958.2000;0.0847;4.3349;
958.5000;0.0838;4.3252;
958.8000;0.0838;4.3228;
959.1000;0.0814;4.3155;
959.4000;0.0863;4.3228;
959.7000;0.0798;4.3057;
960.0000;0.0822;4.3155;
960.3000;0.0830;4.3130;
960.6000;0.0855;4.3203;
960.9000;0.0871;4.3301;
961.2000;0.0879;4.3447;
961.5000;0.0830;4.3301;
961.8000;0.0838;4.3301;
962.1000;0.0961;4.3641;
962.4000;0.0855;4.3374;
962.7000;0.0871;4.3471;
963.0000;0.0895;4.3520;
963.3000;0.0781;4.3228;
963.6000;0.0855;4.3374;
963.9000;0.0879;4.3447;
964.2000;0.0855;4.3398;
964.5000;0.0855;4.3349;
964.8000;0.0855;4.3422;
965.1000;0.0920;4.3617;
965.4000;0.0847;4.3447;
965.7000;0.0847;4.3471;
966.0000;0.0749;4.3301;
966.3000;0.0790;4.3374;
966.6000;0.0863;4.3568;
966.9000;0.0847;4.3520;
967.2000;0.0798;4.3325;
967.5000;0.0879;4.3447;
967.8000;0.0814;4.3325;
968.1000;0.0822;4.3325;
968.4000;0.0887;4.3422;
968.7000;0.0863;4.3447;
969.0000;0.0879;4.3495;
969.3000;0.0847;4.3447;
969.6000;0.0855;4.3544;
969.9000;0.0806;4.3422;
970.2000;0.0855;4.3544;
970.5000;0.0847;4.3471;
970.8000;0.0814;4.3398;
971.1000;0.0855;4.3544;
971.4000;0.0855;4.3495;
971.7000;0.0855;4.3495;
972.0000;0.0838;4.3520;
972.3000;0.0830;4.3617;
972.6000;0.0838;4.3617;
972.9000;0.0838;4.3593;
973.2000;0.0879;4.3666;
973.5000;0.0838;4.3495;
973.8000;0.0855;4.3471;
974.1000;0.0863;4.3398;
974.4000;0.0863;4.3398;
974.7000;0.0806;4.3301;
975.0000;0.0855;4.3447;
975.3000;0.0855;4.3447;
975.6000;0.0798;4.3203;
975.9000;0.0904;4.3422;
976.2000;0.0830;4.3203;
976.5000;0.0855;4.3252;
976.8000;0.0871;4.3252;
977.1000;0.0847;4.3276;
977.4000;0.0838;4.3228;
977.7000;0.0879;4.3325;
978.0000;0.0863;4.3301;
978.3000;0.0838;4.3252;
978.6000;0.0798;4.3179;
978.9000;0.0830;4.3228;
979.2000;0.0855;4.3276;
979.5000;0.0871;4.3349;
979.8000;0.0830;4.3252;
980.1000;0.0855;4.3325;
980.4000;0.0863;4.3252;
980.7000;0.0879;4.3301;
981.0000;0.0830;4.3252;
981.3000;0.0830;4.3252;
981.6000;0.0855;4.3398;
981.9000;0.0863;4.3447;
982.2000;0.0830;4.3301;
982.5000;0.0855;4.3398;
982.8000;0.0871;4.3447;
983.1000;0.0855;4.3276;
983.4000;0.0895;4.3374;
983.7000;0.0838;4.3301;
984.0000;0.0814;4.3130;
984.3000;0.0871;4.3471;
984.6000;0.0847;4.3398;
984.9000;0.0830;4.3325;
985.2000;0.0806;4.3349;
985.5000;0.0790;4.3374;
985.8000;0.0830;4.3495;
986.1000;0.0904;4.3568;
986.4000;0.0838;4.3422;
986.7000;0.0855;4.3447;
987.0000;0.0847;4.3568;
987.3000;0.0863;4.3617;
987.6000;0.0830;4.3520;
987.9000;0.0871;4.3593;
988.2000;0.0855;4.3641;
988.5000;0.0855;4.3568;
988.8000;0.0847;4.3544;
989.1000;0.0993;4.3909;
989.4000;0.0822;4.3398;
989.7000;0.0863;4.3495;
990.0000;0.0830;4.3422;
990.3000;0.0855;4.3495;
990.6000;0.0847;4.3495;
990.9000;0.0716;4.3155;
991.2000;0.0847;4.3447;
991.5000;0.0822;4.3325;
991.8000;0.0904;4.3471;
992.1000;0.0904;4.3447;
992.4000;0.0838;4.3155;
992.7000;0.0733;4.2862;
993.0000;0.0838;4.3203;
993.3000;0.0830;4.3228;
993.6000;0.0830;4.3276;
993.9000;0.0863;4.3349;
994.2000;0.0863;4.3325;
994.5000;0.0847;4.3301;
994.8000;0.0871;4.3447;
995.1000;0.0838;4.3422;
995.4000;0.0871;4.3544;
995.7000;0.0838;4.3471;
996.0000;0.0879;4.3568;
996.3000;0.0863;4.3495;
996.6000;0.0847;4.3422;
996.9000;0.0855;4.3495;
997.2000;0.0855;4.3520;
997.5000;0.0855;4.3520;
997.8000;0.0871;4.3593;
998.1000;0.0855;4.3568;
998.4000;0.0847;4.3447;
998.7000;0.0879;4.3520;
999.0000;0.0855;4.3447;
999.3000;0.0855;4.3447;
999.6000;0.0863;4.3495;
999.9000;0.0871;4.3568;
1000.2000;0.0838;4.3544;
1000.5000;0.0838;4.3495;
1000.8000;0.0855;4.3471;
1001.1000;0.0863;4.3422;
1001.4000;0.0855;4.3301;
1001.7000;0.0847;4.3252;
1002.0000;0.0838;4.3228;
1002.3000;0.0855;4.3325;
1002.6000;0.0790;4.3155;
1002.9000;0.0838;4.3252;
1003.2000;0.0871;4.3374;
1003.5000;0.0855;4.3398;
1003.8000;0.0912;4.3471;
1004.1000;0.0904;4.3568;
1004.4000;0.0863;4.3422;
1004.7000;0.0871;4.3422;
1005.0000;0.0847;4.3398;
1005.3000;0.0830;4.3325;
1005.6000;0.0855;4.3447;
1005.9000;0.0863;4.3495;
1006.2000;0.0928;4.3714;
1006.5000;0.0863;4.3568;
1006.8000;0.0830;4.3520;
1007.1000;0.0781;4.3349;
1007.4000;0.0855;4.3471;
1007.7000;0.0871;4.3447;
1008.0000;0.0781;4.3179;
1008.3000;0.0863;4.3301;
1008.6000;0.0847;4.3252;
1008.9000;0.0871;4.3228;
1009.2000;0.0936;4.3471;
1009.5000;0.0871;4.3325;
1009.8000;0.0847;4.3301;
1010.1000;0.0936;4.3544;
1010.4000;0.0830;4.3325;
1010.7000;0.0798;4.3301;
1011.0000;0.0887;4.3593;
1011.3000;0.0814;4.3495;
1011.6000;0.0855;4.3641;
1011.9000;0.0855;4.3617;
1012.2000;0.0855;4.3617;
1012.5000;0.0847;4.3495;
1012.8000;0.0920;4.3641;
1013.1000;0.0814;4.3471;
1013.4000;0.0871;4.3568;
1013.7000;0.0904;4.3593;
1014.0000;0.0887;4.3568;
1014.3000;0.0847;4.3447;
1014.6000;0.0855;4.3447;
1014.9000;0.0871;4.3398;
1015.2000;0.0838;4.3398;
1015.5000;0.0961;4.3787;
1015.8000;0.0863;4.3568;
1016.1000;0.0855;4.3544;
1016.4000;0.0847;4.3544;
1016.7000;0.0814;4.3374;
1017.0000;0.0830;4.3276;
1017.3000;0.0879;4.3301;
1017.6000;0.0863;4.3252;
1017.9000;0.0855;4.3228;
1018.2000;0.0863;4.3276;
1018.5000;0.0847;4.3349;
1018.8000;0.0863;4.3325;
1019.1000;0.0863;4.3252;
1019.4000;0.0855;4.3252;
1019.7000;0.0733;4.2911;
1020.0000;0.0838;4.3252;
1020.3000;0.0847;4.3301;
1020.6000;0.0830;4.3301;
1020.9000;0.0871;4.3374;
1021.2000;0.0879;4.3447;
1021.5000;0.0838;4.3276;
1021.8000;0.0847;4.3398;
1022.1000;0.0838;4.3398;
1022.4000;0.0855;4.3374;
1022.7000;0.0855;4.3398;
1023.0000;0.0855;4.3422;
1023.3000;0.0871;4.3495;
1023.6000;0.0871;4.3471;
1023.9000;0.0749;4.3082;
1024.2000;0.0838;4.3398;
1024.5000;0.0855;4.3398;
1024.8000;0.0863;4.3349;
1025.1000;0.0944;4.3593;
1025.4000;0.0822;4.3374;
1025.7000;0.0944;4.3690;
1026.0000;0.0863;4.3544;
1026.3000;0.0855;4.3447;
1026.6000;0.0847;4.3422;
1026.9000;0.0838;4.3349;
1027.2000;0.0830;4.3374;
1027.5000;0.0920;4.3495;
1027.8000;0.0847;4.3252;
1028.1000;0.0887;4.3301;
1028.4000;0.0830;4.3155;
1028.7000;0.0855;4.3276;
1029.0000;0.0830;4.3155;
1029.3000;0.0847;4.3276;
1029.6000;0.0847;4.3422;
1029.9000;0.0863;4.3422;
1030.2000;0.0838;4.3398;
1030.5000;0.0855;4.3422;
1030.8000;0.0847;4.3422;
1031.1000;0.0863;4.3398;
1031.4000;0.0838;4.3349;
1031.7000;0.0855;4.3349;
1032.0000;0.0855;4.3398;
1032.3000;0.0855;4.3447;
1032.6000;0.0847;4.3495;
1032.9000;0.0855;4.3568;
1033.2000;0.0822;4.3471;
1033.5000;0.0871;4.3593;
1033.8000;0.0863;4.3568;
1034.1000;0.0863;4.3617;
1034.4000;0.0830;4.3422;
1034.7000;0.0838;4.3495;
1035.0000;0.0871;4.3593;
1035.3000;0.0847;4.3544;
1035.6000;0.0847;4.3617;
1035.9000;0.0855;4.3471;
1036.2000;0.0863;4.3495;
1036.5000;0.0952;4.3787;
1036.8000;0.0830;4.3447;
1037.1000;0.0830;4.3398;
1037.4000;0.0855;4.3495;
1037.7000;0.0952;4.3739;
1038.0000;0.0847;4.3398;
1038.3000;0.0863;4.3349;
1038.6000;0.0863;4.3374;
1038.9000;0.0838;4.3325;
1039.2000;0.0855;4.3495;
1039.5000;0.0912;4.3763;
1039.8000;0.0847;4.3593;
1040.1000;0.0814;4.3495;
1040.4000;0.0838;4.3471;
1040.7000;0.0814;4.3422;
1041.0000;0.0838;4.3495;
1041.3000;0.0806;4.3276;
1041.6000;0.0855;4.3447;
1041.9000;0.0944;4.3690;
1042.2000;0.0822;4.3228;
1042.5000;0.0847;4.3276;
1042.8000;0.0855;4.3301;
1043.1000;0.0855;4.3301;
1043.4000;0.0855;4.3301;
1043.7000;0.0806;4.3228;
1044.0000;0.0773;4.3057;
1044.3000;0.0838;4.3276;
1044.6000;0.0920;4.3447;
1044.9000;0.0830;4.3325;
1045.2000;0.0871;4.3374;
1045.5000;0.0838;4.3349;
1045.8000;0.0830;4.3447;
1046.1000;0.0814;4.3398;
1046.4000;0.0847;4.3471;
1046.7000;0.0847;4.3422;
1047.0000;0.0895;4.3593;
1047.3000;0.0855;4.3520;
1047.6000;0.0871;4.3568;
1047.9000;0.0863;4.3544;
1048.2000;0.0838;4.3495;
1048.5000;0.0863;4.3471;
1048.8000;0.0855;4.3544;
1049.1000;0.0863;4.3593;
1049.4000;0.0847;4.3544;
1049.7000;0.0822;4.3422;
1050.0000;0.0904;4.3544;
1050.3000;0.0847;4.3544;
1050.6000;0.0830;4.3495;
1050.9000;0.0822;4.3374;
1051.2000;0.0838;4.3325;
1051.5000;0.0838;4.3422;
1051.8000;0.0863;4.3495;
1052.1000;0.0798;4.3179;
1052.4000;0.0855;4.3301;
1052.7000;0.0863;4.3325;
1053.0000;0.0871;4.3422;
1053.3000;0.0847;4.3349;
1053.6000;0.0920;4.3593;
1053.9000;0.0847;4.3422;
1054.2000;0.0822;4.3276;
1054.5000;0.0822;4.3203;
1054.8000;0.0961;4.3593;
1055.1000;0.0838;4.3325;
1055.4000;0.0863;4.3398;
1055.7000;0.0863;4.3349;
1056.0000;0.0822;4.3276;
1056.3000;0.0822;4.3301;
1056.6000;0.0863;4.3398;
1056.9000;0.0806;4.3301;
1057.2000;0.0830;4.3349;
1057.5000;0.0838;4.3374;
1057.8000;0.0822;4.3349;
1058.1000;0.0855;4.3471;
1058.4000;0.0871;4.3593;
1058.7000;0.0887;4.3641;
1059.0000;0.0855;4.3471;
1059.3000;0.0879;4.3544;
1059.6000;0.0847;4.3495;
1059.9000;0.0757;4.3325;
1060.2000;0.0944;4.3836;
1060.5000;0.0847;4.3544;
1060.8000;0.0822;4.3544;
1061.1000;0.0838;4.3544;
1061.4000;0.0855;4.3520;
1061.7000;0.0838;4.3495;
1062.0000;0.0847;4.3495;
1062.3000;0.0798;4.3301;
1062.6000;0.0863;4.3520;
1062.9000;0.0855;4.3422;
1063.2000;0.0952;4.3666;
1063.5000;0.0838;4.3252;
1063.8000;0.0847;4.3252;
1064.1000;0.0871;4.3349;
1064.4000;0.0830;4.3252;
1064.7000;0.0822;4.3228;
1065.0000;0.0871;4.3301;
1065.3000;0.0814;4.3276;
1065.6000;0.0838;4.3301;
1065.9000;0.0863;4.3374;
1066.2000;0.0871;4.3422;
1066.5000;0.0904;4.3544;
1066.8000;0.0879;4.3544;
1067.1000;0.0806;4.3276;
1067.4000;0.0871;4.3471;
1067.7000;0.0904;4.3544;
1068.0000;0.0879;4.3495;
1068.3000;0.0855;4.3422;
1068.6000;0.0863;4.3471;
1068.9000;0.0863;4.3520;
1069.2000;0.0847;4.3520;
1069.5000;0.0847;4.3374;
1069.8000;0.0863;4.3374;
1070.1000;0.0822;4.3276;
1070.4000;0.0838;4.3276;
1070.7000;0.0830;4.3325;
1071.0000;0.0863;4.3398;
1071.3000;0.0838;4.3447;
1071.6000;0.0855;4.3471;
1071.9000;0.0838;4.3447;
1072.2000;0.0838;4.3374;
1072.5000;0.0847;4.3301;
1072.8000;0.0814;4.3301;
1073.1000;0.0830;4.3374;
1073.4000;0.0830;4.3374;
1073.7000;0.0847;4.3495;
1074.0000;0.0855;4.3422;
1074.3000;0.0887;4.3520;
1074.6000;0.0838;4.3374;
1074.9000;0.0822;4.3252;
1075.2000;0.0806;4.3130;
1075.5000;0.0838;4.3325;
1075.8000;0.0822;4.3252;
1076.1000;0.0863;4.3349;
1076.4000;0.0855;4.3398;
1076.7000;0.0863;4.3398;
1077.0000;0.0855;4.3447;
1077.3000;0.0895;4.3544;
1077.6000;0.0887;4.3447;
1077.9000;0.0765;4.3033;
1078.2000;0.0871;4.3301;
1078.5000;0.0863;4.3252;
1078.8000;0.0822;4.3228;
1079.1000;0.0863;4.3374;
1079.4000;0.0855;4.3349;
1079.7000;0.0773;4.3106;
1080.0000;0.0863;4.3252;
1080.3000;0.0855;4.3276;
1080.6000;0.0838;4.3252;
1080.9000;0.0830;4.3203;
1081.2000;0.0781;4.3130;
1081.5000;0.0838;4.3276;
1081.8000;0.0863;4.3301;
1082.1000;0.0847;4.3301;
1082.4000;0.0855;4.3228;
1082.7000;0.0830;4.3155;
1083.0000;0.0830;4.3203;
1083.3000;0.0790;4.3155;
1083.6000;0.0863;4.3422;
1083.9000;0.0847;4.3325;
1084.2000;0.0920;4.3520;
1084.5000;0.0855;4.3349;
1084.8000;0.0977;4.3568;
1085.1000;0.0912;4.3398;
1085.4000;0.0847;4.3276;
1085.7000;0.0847;4.3276;
1086.0000;0.0855;4.3276;
1086.3000;0.0928;4.3495;
1086.6000;0.0838;4.3252;
1086.9000;0.0838;4.3325;
1087.2000;0.0920;4.3593;
1087.5000;0.0838;4.3447;
1087.8000;0.0895;4.3520;
1088.1000;0.0855;4.3374;
1088.4000;0.0847;4.3374;
1088.7000;0.0855;4.3252;
1089.0000;0.0855;4.3276;
1089.3000;0.0838;4.3276;
1089.6000;0.0847;4.3374;
1089.9000;0.0847;4.3398;
1090.2000;0.0830;4.3301;
1090.5000;0.0847;4.3325;
1090.8000;0.0838;4.3325;
1091.1000;0.0879;4.3349;
1091.4000;0.0847;4.3179;
1091.7000;0.0855;4.3252;
1092.0000;0.0871;4.3276;
1092.3000;0.0855;4.3276;
1092.6000;0.0879;4.3422;
1092.9000;0.0871;4.3422;
1093.2000;0.0855;4.3398;
1093.5000;0.0855;4.3471;
1093.8000;0.0838;4.3349;
1094.1000;0.0855;4.3544;
1094.4000;0.0863;4.3666;
1094.7000;0.0871;4.3593;
1095.0000;0.0838;4.3568;
1095.3000;0.0887;4.3714;
1095.6000;0.0838;4.3666;
1095.9000;0.0822;4.3593;
1096.2000;0.0855;4.3641;
1096.5000;0.0830;4.3666;
1096.8000;0.0822;4.3593;
1097.1000;0.0830;4.3544;
1097.4000;0.0855;4.3593;
1097.7000;0.0806;4.3471;
1098.0000;0.0879;4.3544;
1098.3000;0.0847;4.3495;
1098.6000;0.0879;4.3520;
1098.9000;0.0887;4.3471;
1099.2000;0.0838;4.3398;
1099.5000;0.0879;4.3568;
1099.8000;0.0863;4.3471;
1100.1000;0.0863;4.3447;
1100.4000;0.0773;4.3082;
1100.7000;0.0822;4.3203;
1101.0000;0.0855;4.3276;
1101.3000;0.0838;4.3301;
1101.6000;0.0814;4.3252;
1101.9000;0.0838;4.3374;
1102.2000;0.0847;4.3325;
1102.5000;0.0773;4.3009;
1102.8000;0.0847;4.3203;
1103.1000;0.0863;4.3276;
1103.4000;0.0847;4.3325;
1103.7000;0.0838;4.3349;
1104.0000;0.0847;4.3447;
1104.3000;0.0830;4.3374;
1104.6000;0.0847;4.3447;
1104.9000;0.0838;4.3422;
1105.2000;0.0863;4.3447;
1105.5000;0.0847;4.3422;
1105.8000;0.0847;4.3374;
1106.1000;0.0847;4.3447;
1106.4000;0.0847;4.3495;
1106.7000;0.0855;4.3495;
1107.0000;0.0855;4.3593;
1107.3000;0.0863;4.3568;
1107.6000;0.0814;4.3471;
1107.9000;0.0830;4.3495;
1108.2000;0.0871;4.3520;
1108.5000;0.0814;4.3374;
1108.8000;0.0830;4.3447;
1109.1000;0.0814;4.3447;
1109.4000;0.0887;4.3641;
1109.7000;0.0847;4.3544;
1110.0000;0.0863;4.3593;
1110.3000;0.0879;4.3641;
1110.6000;0.0838;4.3495;
1110.9000;0.0847;4.3374;
1111.2000;0.0830;4.3325;
1111.5000;0.0887;4.3422;
1111.8000;0.0814;4.3325;
1112.1000;0.0822;4.3276;
1112.4000;0.0847;4.3301;
1112.7000;0.0838;4.3276;
1113.0000;0.0830;4.3301;
1113.3000;0.0863;4.3471;
1113.6000;0.0847;4.3349;
1113.9000;0.0855;4.3349;
1114.2000;0.0847;4.3325;
1114.5000;0.0830;4.3301;
1114.8000;0.0847;4.3495;
1115.1000;0.0822;4.3422;
1115.4000;0.0855;4.3422;
1115.7000;0.0838;4.3422;
1116.0000;0.0781;4.3130;
1116.3000;0.0847;4.3374;
1116.6000;0.0847;4.3349;
1116.9000;0.0847;4.3422;
1117.2000;0.0855;4.3422;
1117.5000;0.0879;4.3568;
1117.8000;0.0855;4.3495;
1118.1000;0.0830;4.3422;
1118.4000;0.0855;4.3520;
1118.7000;0.0830;4.3544;
1119.0000;0.0847;4.3641;
1119.3000;0.0863;4.3690;
1119.6000;0.0806;4.3544;
1119.9000;0.0838;4.3714;
1120.2000;0.0847;4.3666;
1120.5000;0.0904;4.3739;
1120.8000;0.0814;4.3422;
1121.1000;0.0838;4.3471;
1121.4000;0.0855;4.3447;
1121.7000;0.0838;4.3398;
1122.0000;0.0806;4.3276;
1122.3000;0.0814;4.3325;
1122.6000;0.0855;4.3349;
1122.9000;0.0830;4.3374;
1123.2000;0.0830;4.3374;
1123.5000;0.0855;4.3374;
1123.8000;0.0863;4.3349;
1124.1000;0.0863;4.3301;
1124.4000;0.0936;4.3398;
1124.7000;0.0863;4.3179;
1125.0000;0.0822;4.3130;
1125.3000;0.0798;4.3033;
1125.6000;0.0822;4.3106;
1125.9000;0.0847;4.3130;
1126.2000;0.0830;4.3179;
1126.5000;0.0871;4.3252;
1126.8000;0.0855;4.3276;
1127.1000;0.0830;4.3398;
1127.4000;0.0863;4.3544;
1127.7000;0.0863;4.3520;
1128.0000;0.0863;4.3568;
1128.3000;0.0847;4.3471;
1128.6000;0.0863;4.3544;
1128.9000;0.0855;4.3471;
1129.2000;0.0855;4.3495;
1129.5000;0.0855;4.3398;
1129.8000;0.0871;4.3325;
1130.1000;0.0838;4.3228;
1130.4000;0.0847;4.3276;
1130.7000;0.0847;4.3301;
1131.0000;0.0847;4.3325;
1131.3000;0.0830;4.3276;
1131.6000;0.0855;4.3398;
1131.9000;0.0830;4.3398;
1132.2000;0.0814;4.3349;
1132.5000;0.0863;4.3520;
1132.8000;0.0733;4.3155;
1133.1000;0.0855;4.3495;
1133.4000;0.0847;4.3520;
1133.7000;0.0855;4.3520;
1134.0000;0.0879;4.3544;
1134.3000;0.0855;4.3495;
1134.6000;0.0830;4.3349;
1134.9000;0.0830;4.3374;
1135.2000;0.0814;4.3349;
1135.5000;0.0838;4.3325;
1135.8000;0.0863;4.3349;
1136.1000;0.0814;4.3203;
1136.4000;0.0855;4.3228;
1136.7000;0.0847;4.3203;
1137.0000;0.0871;4.3155;
1137.3000;0.0847;4.3130;
1137.6000;0.0847;4.3106;
1137.9000;0.0928;4.3349;
1138.2000;0.0863;4.3203;
1138.5000;0.0863;4.3228;
1138.8000;0.0855;4.3276;
1139.1000;0.0887;4.3398;
1139.4000;0.0855;4.3325;
1139.7000;0.0838;4.3276;
1140.0000;0.0879;4.3422;
1140.3000;0.0863;4.3301;
1140.6000;0.0765;4.3106;
1140.9000;0.0855;4.3349;
1141.2000;0.0847;4.3349;
1141.5000;0.0871;4.3447;
1141.8000;0.0863;4.3422;
1142.1000;0.0847;4.3471;
1142.4000;0.0863;4.3520;
1142.7000;0.0855;4.3520;
1143.0000;0.0879;4.3568;
1143.3000;0.0863;4.3471;
1143.6000;0.0855;4.3471;
1143.9000;0.0871;4.3520;
1144.2000;0.0855;4.3471;
1144.5000;0.0863;4.3544;
1144.8000;0.0838;4.3495;
1145.1000;0.0838;4.3690;
1145.4000;0.0863;4.3690;
1145.7000;0.0822;4.3593;
1146.0000;0.0838;4.3666;
1146.3000;0.0798;4.3471;
1146.6000;0.0798;4.3374;
1146.9000;0.0838;4.3495;
1147.2000;0.0838;4.3422;
1147.5000;0.0847;4.3422;
1147.8000;0.0855;4.3471;
1148.1000;0.0855;4.3447;
1148.4000;0.0847;4.3471;
1148.7000;0.0912;4.3739;
1149.0000;0.0887;4.3568;
1149.3000;0.0830;4.3398;
1149.6000;0.0790;4.3228;
1149.9000;0.0879;4.3374;
1150.2000;0.0863;4.3374;
1150.5000;0.0871;4.3349;
1150.8000;0.0855;4.3252;
1151.1000;0.0855;4.3276;
1151.4000;0.0936;4.3593;
1151.7000;0.0838;4.3374;
1152.0000;0.0855;4.3398;
1152.3000;0.0863;4.3349;
1152.6000;0.0822;4.3325;
1152.9000;0.0855;4.3398;
1153.2000;0.0847;4.3471;
1153.5000;0.0855;4.3520;
1153.8000;0.0830;4.3471;
1154.1000;0.0855;4.3471;
1154.4000;0.0847;4.3447;
1154.7000;0.0847;4.3374;
1155.0000;0.0838;4.3301;
1155.3000;0.0847;4.3374;
1155.6000;0.0912;4.3520;
1155.9000;0.0855;4.3398;
1156.2000;0.0838;4.3325;
1156.5000;0.0871;4.3398;
1156.8000;0.0895;4.3568;
1157.1000;0.0847;4.3422;
1157.4000;0.0847;4.3447;
1157.7000;0.0741;4.3179;
1158.0000;0.0855;4.3447;
1158.3000;0.0863;4.3349;
1158.6000;0.0871;4.3349;
1158.9000;0.0855;4.3276;
1159.2000;0.0887;4.3471;
1159.5000;0.0838;4.3422;
1159.8000;0.0838;4.3398;
1160.1000;0.0879;4.3422;
1160.4000;0.0920;4.3447;
1160.7000;0.0847;4.3203;
1161.0000;0.0871;4.3179;
1161.3000;0.0847;4.3106;
1161.6000;0.0838;4.3130;
1161.9000;0.0871;4.3325;
1162.2000;0.0855;4.3349;
1162.5000;0.0847;4.3276;
1162.8000;0.0830;4.3276;
1163.1000;0.0855;4.3398;
1163.4000;0.0847;4.3398;
1163.7000;0.0830;4.3349;
1164.0000;0.0798;4.3252;
1164.3000;0.0838;4.3349;
1164.6000;0.0806;4.3228;
1164.9000;0.0855;4.3301;
1165.2000;0.0838;4.3349;
1165.5000;0.0847;4.3325;
1165.8000;0.0855;4.3374;
1166.1000;0.0863;4.3325;
1166.4000;0.0887;4.3325;
1166.7000;0.0855;4.3252;
1167.0000;0.0871;4.3252;
1167.3000;0.0895;4.3349;
1167.6000;0.0871;4.3325;
1167.9000;0.0863;4.3301;
1168.2000;0.0855;4.3179;
1168.5000;0.0855;4.3252;
1168.8000;0.0855;4.3252;
1169.1000;0.0830;4.3130;
1169.4000;0.0887;4.3349;
1169.7000;0.0847;4.3252;
1170.0000;0.0830;4.3155;
1170.3000;0.0847;4.3179;
1170.6000;0.0830;4.3033;
1170.9000;0.0838;4.3082;
1171.2000;0.0757;4.2838;
1171.5000;0.0855;4.3228;
1171.8000;0.0838;4.3155;
1172.1000;0.0838;4.3228;
1172.4000;0.0895;4.3349;
1172.7000;0.0855;4.3203;
1173.0000;0.0855;4.3228;
1173.3000;0.0847;4.3179;
1173.6000;0.0871;4.3228;
1173.9000;0.0847;4.3203;
1174.2000;0.0863;4.3252;
1174.5000;0.0920;4.3398;
1174.8000;0.0830;4.3130;
1175.1000;0.0863;4.3301;
1175.4000;0.0838;4.3301;
1175.7000;0.0781;4.3155;
1176.0000;0.0838;4.3301;
1176.3000;0.0855;4.3349;
1176.6000;0.0838;4.3374;
1176.9000;0.0855;4.3471;
1177.2000;0.0847;4.3471;
1177.5000;0.0855;4.3568;
1177.8000;0.0920;4.3714;
1178.1000;0.0855;4.3568;
1178.4000;0.0863;4.3471;
1178.7000;0.0822;4.3325;
1179.0000;0.1001;4.3860;
1179.3000;0.0855;4.3520;
1179.6000;0.0773;4.3325;
1179.9000;0.0863;4.3471;
1180.2000;0.0838;4.3374;
1180.5000;0.0871;4.3422;
1180.8000;0.0781;4.3228;
1181.1000;0.0814;4.3325;
1181.4000;0.0871;4.3349;
1181.7000;0.0985;4.3641;
1182.0000;0.0838;4.3203;
1182.3000;0.0838;4.3179;
1182.6000;0.0855;4.3228;
1182.9000;0.0855;4.3252;
1183.2000;0.0847;4.3325;
1183.5000;0.0863;4.3422;
1183.8000;0.0904;4.3544;
1184.1000;0.0855;4.3301;
1184.4000;0.0863;4.3349;
1184.7000;0.0855;4.3422;
1185.0000;0.0847;4.3422;
1185.3000;0.0855;4.3447;
1185.6000;0.0838;4.3447;
1185.9000;0.0814;4.3349;
1186.2000;0.0952;4.3714;
1186.5000;0.0847;4.3447;
1186.8000;0.0855;4.3495;
1187.1000;0.0830;4.3495;
1187.4000;0.0855;4.3568;
1187.7000;0.1042;4.4031;
1188.0000;0.0855;4.3568;
1188.3000;0.0847;4.3520;
1188.6000;0.0895;4.3568;
1188.9000;0.0863;4.3398;
1189.2000;0.0855;4.3447;
1189.5000;0.0830;4.3349;
1189.8000;0.0806;4.3228;
1190.1000;0.0855;4.3349;
1190.4000;0.0838;4.3276;
1190.7000;0.0847;4.3325;
1191.0000;0.0879;4.3349;
1191.3000;0.0814;4.3179;
1191.6000;0.0855;4.3325;
1191.9000;0.0855;4.3276;
1192.2000;0.0822;4.3082;
1192.5000;0.0798;4.2984;
1192.8000;0.0879;4.3374;
1193.1000;0.0838;4.3301;
1193.4000;0.0928;4.3568;
1193.7000;0.0847;4.3349;
1194.0000;0.0887;4.3495;
1194.3000;0.0855;4.3325;
1194.6000;0.0781;4.3033;
1194.9000;0.0855;4.3301;
1195.2000;0.0871;4.3349;
1195.5000;0.0847;4.3349;
1195.8000;0.0822;4.3325;
1196.1000;0.0863;4.3447;
1196.4000;0.0895;4.3544;
1196.7000;0.0985;4.3787;
1197.0000;0.0781;4.3325;
1197.3000;0.0855;4.3568;
1197.6000;0.0822;4.3447;
1197.9000;0.0847;4.3447;
1198.2000;0.0838;4.3471;
1198.5000;0.0847;4.3471;
1198.8000;0.0855;4.3471;
1199.1000;0.0855;4.3374;
1199.4000;0.0822;4.3374;
1199.7000;0.0863;4.3544;
1200.0000;0.0904;4.3593;
1200.3000;0.0871;4.3471;
1200.6000;0.0838;4.3374;
1200.9000;0.0863;4.3398;
1201.2000;0.0863;4.3422;
1201.5000;0.0871;4.3374;
1201.8000;0.0847;4.3276;
1202.1000;0.0838;4.3398;
1202.4000;0.0863;4.3520;
1202.7000;0.0838;4.3495;
1203.0000;0.0781;4.3301;
1203.3000;0.0847;4.3422;
1203.6000;0.0814;4.3349;
1203.9000;0.0847;4.3276;
1204.2000;0.0871;4.3398;
1204.5000;0.0838;4.3325;
1204.8000;0.0887;4.3495;
1205.1000;0.0855;4.3520;
1205.4000;0.0838;4.3422;
1205.7000;0.0830;4.3374;
1206.0000;0.0847;4.3398;
1206.3000;0.0838;4.3398;
1206.6000;0.0847;4.3301;
1206.9000;0.0855;4.3398;
1207.2000;0.0863;4.3544;
1207.5000;0.0863;4.3544;
1207.8000;0.0871;4.3568;
1208.1000;0.0757;4.3301;
1208.4000;0.0838;4.3544;
1208.7000;0.0814;4.3520;
1209.0000;0.0863;4.3568;
1209.3000;0.0822;4.3520;
1209.6000;0.0814;4.3447;
1209.9000;0.0830;4.3520;
1210.2000;0.0855;4.3471;
1210.5000;0.0847;4.3374;
1210.8000;0.0863;4.3301;
1211.1000;0.0863;4.3349;
1211.4000;0.0863;4.3276;
1211.7000;0.0847;4.3203;
1212.0000;0.0830;4.3179;
1212.3000;0.0847;4.3228;
1212.6000;0.0847;4.3228;
1212.9000;0.0904;4.3349;
1213.2000;0.0838;4.3106;
1213.5000;0.0838;4.3130;
1213.8000;0.0879;4.3252;
1214.1000;0.0838;4.3203;
1214.4000;0.0847;4.3179;
1214.7000;0.0757;4.2960;
1215.0000;0.0904;4.3301;
1215.3000;0.0895;4.3301;
1215.6000;0.0847;4.3203;
1215.9000;0.0847;4.3252;
1216.2000;0.0838;4.3325;
1216.5000;0.0879;4.3398;
1216.8000;0.0855;4.3374;
1217.1000;0.0814;4.3301;
1217.4000;0.0847;4.3398;
1217.7000;0.0871;4.3422;
1218.0000;0.0863;4.3447;
1218.3000;0.0863;4.3398;
1218.6000;0.0847;4.3325;
1218.9000;0.0830;4.3325;
1219.2000;0.0838;4.3301;
1219.5000;0.0830;4.3276;
1219.8000;0.0863;4.3301;
1220.1000;0.0847;4.3252;
1220.4000;0.0838;4.3179;
1220.7000;0.0822;4.3203;
1221.0000;0.0838;4.3252;
1221.3000;0.0855;4.3325;
1221.6000;0.0879;4.3447;
1221.9000;0.0847;4.3349;
1222.2000;0.0838;4.3325;
1222.5000;0.0928;4.3593;
1222.8000;0.0838;4.3398;
1223.1000;0.0847;4.3398;
1223.4000;0.0855;4.3422;
1223.7000;0.0838;4.3398;
1224.0000;0.0847;4.3374;
1224.3000;0.0871;4.3374;
1224.6000;0.0895;4.3471;
1224.9000;0.0928;4.3641;
1225.2000;0.0879;4.3568;
1225.5000;0.0887;4.3471;
1225.8000;0.0830;4.3325;
1226.1000;0.0838;4.3374;
1226.4000;0.0879;4.3471;
1226.7000;0.0741;4.3130;
1227.0000;0.0871;4.3422;
1227.3000;0.0830;4.3276;
1227.6000;0.0855;4.3398;
1227.9000;0.0887;4.3520;
1228.2000;0.0855;4.3447;
1228.5000;0.0863;4.3422;
1228.8000;0.0895;4.3568;
1229.1000;0.0838;4.3447;
1229.4000;0.0847;4.3422;
1229.7000;0.0822;4.3398;
1230.0000;0.0879;4.3374;
1230.3000;0.0838;4.3179;
1230.6000;0.0855;4.3252;
1230.9000;0.0847;4.3252;
1231.2000;0.0863;4.3301;
1231.5000;0.0855;4.3325;
1231.8000;0.0912;4.3422;
1232.1000;0.0757;4.3106;
1232.4000;0.0855;4.3349;
1232.7000;0.0904;4.3398;
1233.0000;0.0855;4.3325;
1233.3000;0.0830;4.3325;
1233.6000;0.0887;4.3520;
1233.9000;0.0920;4.3520;
1234.2000;0.0830;4.3398;
1234.5000;0.0863;4.3447;
1234.8000;0.0879;4.3520;
1235.1000;0.0871;4.3447;
1235.4000;0.0855;4.3471;
1235.7000;0.0838;4.3471;
1236.0000;0.0847;4.3422;
1236.3000;0.0863;4.3447;
1236.6000;0.0847;4.3422;
1236.9000;0.0871;4.3495;
1237.2000;0.0879;4.3641;
1237.5000;0.0830;4.3398;
1237.8000;0.0855;4.3568;
1238.1000;0.0855;4.3495;
1238.4000;0.0904;4.3568;
1238.7000;0.0863;4.3544;
1239.0000;0.0830;4.3447;
1239.3000;0.0863;4.3471;
1239.6000;0.0838;4.3398;
1239.9000;0.0863;4.3422;
1240.2000;0.0806;4.3349;
1240.5000;0.0741;4.3130;
1240.8000;0.0830;4.3495;
1241.1000;0.0838;4.3495;
1241.4000;0.0863;4.3471;
1241.7000;0.0863;4.3447;
1242.0000;0.0838;4.3374;
1242.3000;0.0871;4.3544;
1242.6000;0.0838;4.3495;
1242.9000;0.0855;4.3422;
1243.2000;0.0871;4.3495;
1243.5000;0.0847;4.3422;
1243.8000;0.0822;4.3325;
1244.1000;0.0847;4.3447;
1244.4000;0.0838;4.3471;
1244.7000;0.0855;4.3544;
1245.0000;0.0822;4.3495;
1245.3000;0.0871;4.3593;
1245.6000;0.0741;4.3179;
1245.9000;0.0871;4.3471;
1246.2000;0.0838;4.3374;
1246.5000;0.0863;4.3471;
1246.8000;0.0757;4.3228;
1247.1000;0.0830;4.3520;
1247.4000;0.0847;4.3544;
1247.7000;0.0838;4.3495;
1248.0000;0.0847;4.3447;
1248.3000;0.0855;4.3471;
1248.6000;0.0879;4.3544;
1248.9000;0.0814;4.3422;
1249.2000;0.0855;4.3495;
1249.5000;0.0855;4.3520;
1249.8000;0.0838;4.3617;
1250.1000;0.0838;4.3641;
1250.4000;0.0855;4.3690;
1250.7000;0.0806;4.3520;
1251.0000;0.0847;4.3690;
1251.3000;0.0847;4.3666;
1251.6000;0.0822;4.3593;
1251.9000;0.0830;4.3520;
1252.2000;0.0847;4.3544;
1252.5000;0.0847;4.3422;
1252.8000;0.0977;4.3763;
1253.1000;0.0847;4.3349;
1253.4000;0.0863;4.3325;
1253.7000;0.0855;4.3398;
1254.0000;0.0847;4.3422;
1254.3000;0.0863;4.3495;
1254.6000;0.0838;4.3471;
1254.9000;0.0936;4.3641;
1255.2000;0.0912;4.3617;
1255.5000;0.0847;4.3471;
1255.8000;0.0847;4.3471;
1256.1000;0.0757;4.3179;
1256.4000;0.0822;4.3325;
1256.7000;0.0847;4.3325;
1257.0000;0.0855;4.3349;
1257.3000;0.0855;4.3325;
1257.6000;0.0830;4.3228;
1257.9000;0.0838;4.3228;
1258.2000;0.0863;4.3276;
1258.5000;0.0798;4.3130;
1258.8000;0.0838;4.3325;
1259.1000;0.0855;4.3252;
1259.4000;0.0830;4.3252;
1259.7000;0.0993;4.3860;
1260.0000;0.0830;4.3471;
1260.3000;0.0830;4.3520;
1260.6000;0.0773;4.3325;
1260.9000;0.0847;4.3495;
1261.2000;0.0838;4.3471;
1261.5000;0.0847;4.3495;
1261.8000;0.0847;4.3447;
1262.1000;0.0855;4.3422;
1262.4000;0.0830;4.3471;
1262.7000;0.0961;4.3836;
1263.0000;0.0847;4.3422;
1263.3000;0.0855;4.3544;
1263.6000;0.0838;4.3495;
1263.9000;0.0879;4.3544;
1264.2000;0.0855;4.3349;
1264.5000;0.0814;4.3252;
1264.8000;0.0757;4.3082;
1265.1000;0.0830;4.3374;
1265.4000;0.0765;4.3130;
1265.7000;0.0838;4.3325;
1266.0000;0.0847;4.3301;
1266.3000;0.0863;4.3349;
1266.6000;0.0855;4.3349;
1266.9000;0.0847;4.3349;
1267.2000;0.0887;4.3422;
1267.5000;0.0879;4.3301;
1267.8000;0.0871;4.3325;
1268.1000;0.0879;4.3228;
1268.4000;0.0847;4.3276;
1268.7000;0.0847;4.3252;
1269.0000;0.0830;4.3228;
1269.3000;0.0814;4.3106;
1269.6000;0.0855;4.3349;
1269.9000;0.0790;4.3130;
1270.2000;0.0863;4.3374;
1270.5000;0.0838;4.3228;
1270.8000;0.0855;4.3276;
1271.1000;0.0838;4.3179;
1271.4000;0.0847;4.3301;
1271.7000;0.0855;4.3325;
1272.0000;0.0993;4.3690;
1272.3000;0.0847;4.3325;
1272.6000;0.0855;4.3301;
1272.9000;0.0887;4.3471;
1273.2000;0.0838;4.3422;
1273.5000;0.0863;4.3447;
1273.8000;0.0855;4.3349;
1274.1000;0.0855;4.3398;
1274.4000;0.0838;4.3447;
1274.7000;0.0887;4.3568;
1275.0000;0.0871;4.3495;
1275.3000;0.0879;4.3447;
1275.6000;0.0887;4.3325;
1275.9000;0.0847;4.3252;
1276.2000;0.0887;4.3374;
1276.5000;0.0847;4.3276;
1276.8000;0.0871;4.3374;
1277.1000;0.0871;4.3349;
1277.4000;0.0871;4.3349;
1277.7000;0.0855;4.3349;
1278.0000;0.0838;4.3301;
1278.3000;0.0838;4.3301;
1278.6000;0.0871;4.3276;
1278.9000;0.0847;4.3276;
1279.2000;0.0847;4.3325;
1279.5000;0.0863;4.3349;
1279.8000;0.0879;4.3374;
1280.1000;0.0863;4.3495;
1280.4000;0.0855;4.3495;
1280.7000;0.0863;4.3520;
1281.0000;0.0887;4.3495;
1281.3000;0.0781;4.3252;
1281.6000;0.0838;4.3422;
1281.9000;0.0822;4.3374;
1282.2000;0.0847;4.3398;
1282.5000;0.0863;4.3398;
1282.8000;0.0863;4.3495;
1283.1000;0.0806;4.3374;
1283.4000;0.0838;4.3398;
1283.7000;0.0847;4.3495;
1284.0000;0.0847;4.3544;
1284.3000;0.0838;4.3520;
1284.6000;0.0855;4.3544;
1284.9000;0.0847;4.3471;
1285.2000;0.0855;4.3471;
1285.5000;0.0895;4.3471;
1285.8000;0.0838;4.3276;
1286.1000;0.0863;4.3276;
1286.4000;0.0855;4.3228;
1286.7000;0.0863;4.3203;
1287.0000;0.0847;4.3155;
1287.3000;0.0863;4.3179;
1287.6000;0.0855;4.3203;
1287.9000;0.0920;4.3349;
1288.2000;0.0749;4.2765;
1288.5000;0.0863;4.2960;
1288.8000;0.0895;4.3130;
1289.1000;0.0773;4.2741;
1289.4000;0.0855;4.3033;
1289.7000;0.0838;4.3033;
1290.0000;0.0855;4.3155;
1290.3000;0.0847;4.3179;
1290.6000;0.0855;4.3155;
1290.9000;0.0838;4.3228;
1291.2000;0.0855;4.3325;
1291.5000;0.0855;4.3349;
1291.8000;0.0855;4.3374;
1292.1000;0.0830;4.3276;
1292.4000;0.0879;4.3374;
1292.7000;0.0838;4.3252;
1293.0000;0.0871;4.3276;
1293.3000;0.0871;4.3301;
1293.6000;0.0790;4.3130;
1293.9000;0.0822;4.3228;
1294.2000;0.0838;4.3252;
1294.5000;0.0847;4.3276;
1294.8000;0.0904;4.3398;
1295.1000;0.0806;4.3179;
1295.4000;0.0855;4.3228;
1295.7000;0.0847;4.3203;
1296.0000;0.0838;4.3228;
1296.3000;0.0855;4.3325;
1296.6000;0.0863;4.3422;
1296.9000;0.0863;4.3447;
1297.2000;0.0838;4.3422;
1297.5000;0.0879;4.3495;
1297.8000;0.0830;4.3422;
1298.1000;0.0855;4.3544;
1298.4000;0.0847;4.3544;
1298.7000;0.0847;4.3520;
1299.0000;0.0855;4.3495;
1299.3000;0.0798;4.3374;
1299.6000;0.0830;4.3374;
1299.9000;0.0895;4.3495;
1300.2000;0.0822;4.3276;
1300.5000;0.0863;4.3422;
1300.8000;0.0879;4.3544;
1301.1000;0.0822;4.3398;
1301.4000;0.0814;4.3301;
1301.7000;0.0887;4.3447;
1302.0000;0.0863;4.3325;
1302.3000;0.0830;4.3203;
1302.6000;0.0879;4.3398;
1302.9000;0.0912;4.3471;
1303.2000;0.0871;4.3301;
1303.5000;0.0879;4.3398;
1303.8000;0.0847;4.3203;
1304.1000;0.0855;4.3325;
1304.4000;0.0855;4.3374;
1304.7000;0.0822;4.3398;
1305.0000;0.0855;4.3398;
1305.3000;0.0855;4.3422;
1305.6000;0.0863;4.3495;
1305.9000;0.0822;4.3495;
1306.2000;0.0822;4.3495;
1306.5000;0.0855;4.3568;
1306.8000;0.0830;4.3447;
1307.1000;0.0838;4.3495;
1307.4000;0.0814;4.3471;
1307.7000;0.0847;4.3568;
1308.0000;0.0790;4.3544;
1308.3000;0.0895;4.3787;
1308.6000;0.0822;4.3714;
1308.9000;0.0855;4.3763;
1309.2000;0.0855;4.3763;
1309.5000;0.0749;4.3398;
1309.8000;0.0912;4.3787;
1310.1000;0.0773;4.3447;
1310.4000;0.0790;4.3520;
1310.7000;0.0855;4.3690;
1311.0000;0.0863;4.3714;
1311.3000;0.0798;4.3544;
1311.6000;0.0904;4.3812;
1311.9000;0.0781;4.3301;
1312.2000;0.0830;4.3495;
1312.5000;0.0855;4.3593;
1312.8000;0.0879;4.3520;
1313.1000;0.0920;4.3568;
1313.4000;0.0847;4.3374;
1313.7000;0.0863;4.3520;
1314.0000;0.0847;4.3568;
1314.3000;0.0863;4.3666;
1314.6000;0.0847;4.3641;
1314.9000;0.0773;4.3495;
1315.2000;0.0895;4.3885;
1315.5000;0.0830;4.3739;
1315.8000;0.0847;4.3763;
1316.1000;0.0822;4.3690;
1316.4000;0.0838;4.3617;
1316.7000;0.0830;4.3593;
1317.0000;0.0830;4.3641;
1317.3000;0.0838;4.3617;
1317.6000;0.0879;4.3641;
1317.9000;0.0895;4.3690;
1318.2000;0.0863;4.3568;
1318.5000;0.0822;4.3398;
1318.8000;0.0847;4.3447;
1319.1000;0.0871;4.3641;
1319.4000;0.0871;4.3617;
1319.7000;0.0855;4.3544;
1320.0000;0.0855;4.3544;
1320.3000;0.0855;4.3495;
1320.6000;0.0855;4.3471;
1320.9000;0.0838;4.3495;
1321.2000;0.0838;4.3471;
1321.5000;0.0798;4.3349;
1321.8000;0.0863;4.3544;
1322.1000;0.0871;4.3593;
1322.4000;0.0806;4.3374;
1322.7000;0.0847;4.3593;
1323.0000;0.0863;4.3617;
1323.3000;0.0830;4.3520;
1323.6000;0.0830;4.3544;
1323.9000;0.0749;4.3422;
1324.2000;0.0781;4.3495;
1324.5000;0.0855;4.3568;
1324.8000;0.0822;4.3495;
1325.1000;0.0838;4.3544;
1325.4000;0.0855;4.3520;
1325.7000;0.0855;4.3593;
1326.0000;0.0847;4.3617;
1326.3000;0.0830;4.3641;
1326.6000;0.0830;4.3544;
1326.9000;0.0830;4.3568;
1327.2000;0.0822;4.3422;
1327.5000;0.0838;4.3447;
1327.8000;0.0822;4.3471;
1328.1000;0.0855;4.3593;
1328.4000;0.0871;4.3666;
1328.7000;0.0830;4.3568;
1329.0000;0.0798;4.3471;
1329.3000;0.0855;4.3593;
1329.6000;0.0806;4.3398;
1329.9000;0.0855;4.3520;
1330.2000;0.0879;4.3544;
1330.5000;0.0855;4.3495;
1330.8000;0.0895;4.3617;
1331.1000;0.0855;4.3520;
1331.4000;0.0871;4.3544;
1331.7000;0.0757;4.3349;
1332.0000;0.0822;4.3495;
1332.3000;0.0912;4.3666;
1332.6000;0.0847;4.3544;
1332.9000;0.0855;4.3495;
1333.2000;0.0863;4.3471;
1333.5000;0.0855;4.3422;
1333.8000;0.0847;4.3325;
1334.1000;0.0830;4.3130;
1334.4000;0.0863;4.3228;
1334.7000;0.0781;4.2936;
1335.0000;0.0920;4.3203;
1335.3000;0.0838;4.3009;
1335.6000;0.0847;4.3057;
1335.9000;0.0879;4.3179;
1336.2000;0.0871;4.3155;
1336.5000;0.0863;4.3155;
1336.8000;0.0944;4.3447;
1337.1000;0.0847;4.3301;
1337.4000;0.0879;4.3568;
1337.7000;0.0871;4.3568;
1338.0000;0.0847;4.3544;
1338.3000;0.0847;4.3617;
1338.6000;0.0838;4.3544;
1338.9000;0.0847;4.3520;
1339.2000;0.0855;4.3398;
1339.5000;0.0814;4.3349;
1339.8000;0.0830;4.3374;
1340.1000;0.0838;4.3398;
1340.4000;0.0838;4.3325;
1340.7000;0.0847;4.3398;
1341.0000;0.0830;4.3422;
1341.3000;0.0847;4.3520;
1341.6000;0.0830;4.3495;
1341.9000;0.0879;4.3641;
1342.2000;0.0871;4.3593;
1342.5000;0.0855;4.3593;
1342.8000;0.0977;4.3836;
1343.1000;0.0879;4.3641;
1343.4000;0.0863;4.3641;
1343.7000;0.0887;4.3739;
1344.0000;0.0814;4.3398;
1344.3000;0.0847;4.3398;
1344.6000;0.0847;4.3325;
1344.9000;0.0847;4.3325;
1345.2000;0.0830;4.3179;
1345.5000;0.0855;4.3325;
1345.8000;0.0871;4.3398;
1346.1000;0.0838;4.3422;
1346.4000;0.0822;4.3301;
1346.7000;0.0863;4.3374;
1347.0000;0.0855;4.3398;
1347.3000;0.0879;4.3544;
1347.6000;0.0847;4.3422;
1347.9000;0.0912;4.3568;
1348.2000;0.0847;4.3422;
1348.5000;0.0830;4.3495;
1348.8000;0.0847;4.3447;
1349.1000;0.0822;4.3495;
1349.4000;0.0822;4.3471;
1349.7000;0.0830;4.3447;
1350.0000;0.0952;4.3836;
1350.3000;0.0855;4.3593;
1350.6000;0.0879;4.3617;
1350.9000;0.0863;4.3666;
1351.2000;0.0871;4.3617;
1351.5000;0.0879;4.3520;
1351.8000;0.0822;4.3228;
1352.1000;0.0863;4.3325;
1352.4000;0.0855;4.3276;
1352.7000;0.0855;4.3252;
1353.0000;0.0952;4.3447;
1353.3000;0.0863;4.3130;
1353.6000;0.0855;4.3179;
1353.9000;0.0887;4.3276;
1354.2000;0.0855;4.3228;
1354.5000;0.0863;4.3325;
1354.8000;0.0887;4.3325;
1355.1000;0.0847;4.3374;
1355.4000;0.0847;4.3495;
1355.7000;0.0847;4.3471;
1356.0000;0.0855;4.3520;
1356.3000;0.0944;4.3690;
1356.6000;0.0944;4.3763;
1356.9000;0.0863;4.3520;
1357.2000;0.0838;4.3422;
1357.5000;0.0855;4.3471;
1357.8000;0.0863;4.3617;
1358.1000;0.0855;4.3544;
1358.4000;0.0847;4.3593;
1358.7000;0.0855;4.3617;
1359.0000;0.0847;4.3568;
1359.3000;0.0863;4.3568;
1359.6000;0.0847;4.3447;
1359.9000;0.0830;4.3349;
1360.2000;0.0863;4.3447;
1360.5000;0.0855;4.3422;
1360.8000;0.0830;4.3374;
1361.1000;0.0887;4.3544;
1361.4000;0.0895;4.3568;
1361.7000;0.0838;4.3398;
1362.0000;0.0863;4.3374;
1362.3000;0.0863;4.3252;
1362.6000;0.0847;4.3228;
1362.9000;0.0863;4.3374;
1363.2000;0.0847;4.3276;
1363.5000;0.0838;4.3155;
1363.8000;0.0863;4.3228;
1364.1000;0.0830;4.3057;
1364.4000;0.0847;4.3106;
1364.7000;0.0847;4.3130;
1365.0000;0.0781;4.3009;
1365.3000;0.0822;4.3203;
1365.6000;0.0830;4.3179;
1365.9000;0.0871;4.3276;
1366.2000;0.0855;4.3398;
1366.5000;0.0855;4.3447;
1366.8000;0.0838;4.3325;
1367.1000;0.0871;4.3349;
1367.4000;0.0871;4.3301;
1367.7000;0.0871;4.3276;
1368.0000;0.0830;4.3276;
1368.3000;0.0879;4.3447;
1368.6000;0.0912;4.3520;
1368.9000;0.0879;4.3422;
1369.2000;0.0847;4.3301;
1369.5000;0.0847;4.3301;
1369.8000;0.0838;4.3228;
1370.1000;0.0822;4.3106;
1370.4000;0.0847;4.3179;
1370.7000;0.0847;4.3228;
1371.0000;0.0798;4.3155;
1371.3000;0.0887;4.3349;
1371.6000;0.0855;4.3228;
1371.9000;0.0855;4.3228;
1372.2000;0.0790;4.2984;
1372.5000;0.0871;4.3179;
1372.8000;0.0838;4.3106;
1373.1000;0.0871;4.3276;
1373.4000;0.0830;4.3228;
1373.7000;0.0822;4.3203;
1374.0000;0.0871;4.3447;
1374.3000;0.0847;4.3301;
1374.6000;0.0855;4.3349;
1374.9000;0.0847;4.3422;
1375.2000;0.0855;4.3471;
1375.5000;0.0855;4.3447;
1375.8000;0.0887;4.3568;
1376.1000;0.0830;4.3398;
1376.4000;0.0871;4.3447;
1376.7000;0.0830;4.3349;
1377.0000;0.0855;4.3447;
1377.3000;0.0863;4.3471;
1377.6000;0.0863;4.3471;
1377.9000;0.0871;4.3398;
1378.2000;0.0855;4.3301;
1378.5000;0.0928;4.3447;
1378.8000;0.0847;4.3252;
1379.1000;0.0847;4.3276;
1379.4000;0.0806;4.3155;
1379.7000;0.0912;4.3471;
1380.0000;0.0855;4.3447;
1380.3000;0.0838;4.3301;
1380.6000;0.0895;4.3447;
1380.9000;0.0765;4.3203;
1381.2000;0.0838;4.3398;
1381.5000;0.0855;4.3422;
1381.8000;0.0936;4.3690;
1382.1000;0.0847;4.3422;
1382.4000;0.0855;4.3447;
1382.7000;0.0863;4.3471;
1383.0000;0.0855;4.3422;
1383.3000;0.0847;4.3374;
1383.6000;0.0773;4.3106;
1383.9000;0.0863;4.3471;
1384.2000;0.0863;4.3495;
1384.5000;0.0781;4.3325;
1384.8000;0.0887;4.3520;
1385.1000;0.0830;4.3422;
1385.4000;0.0847;4.3495;
1385.7000;0.0830;4.3495;
1386.0000;0.0830;4.3447;
1386.3000;0.0863;4.3520;
1386.6000;0.0855;4.3520;
1386.9000;0.0798;4.3349;
1387.2000;0.0871;4.3398;
1387.5000;0.0904;4.3495;
1387.8000;0.0936;4.3666;
1388.1000;0.0838;4.3349;
1388.4000;0.0855;4.3325;
1388.7000;0.0838;4.3325;
1389.0000;0.0847;4.3252;
1389.3000;0.0838;4.3179;
1389.6000;0.0855;4.3228;
1389.9000;0.0863;4.3301;
1390.2000;0.0838;4.3228;
1390.5000;0.0871;4.3301;
1390.8000;0.0830;4.3252;
1391.1000;0.0855;4.3276;
1391.4000;0.0855;4.3325;
1391.7000;0.0863;4.3325;
1392.0000;0.0863;4.3398;
1392.3000;0.0871;4.3301;
1392.6000;0.0855;4.3301;
1392.9000;0.0765;4.3155;
1393.2000;0.0855;4.3374;
1393.5000;0.0847;4.3301;
1393.8000;0.0806;4.3155;
1394.1000;0.0838;4.3276;
1394.4000;0.0871;4.3349;
1394.7000;0.0855;4.3301;
1395.0000;0.0871;4.3349;
1395.3000;0.0822;4.3276;
1395.6000;0.0855;4.3374;
1395.9000;0.0814;4.3301;
1396.2000;0.0838;4.3349;
1396.5000;0.0838;4.3447;
1396.8000;0.0855;4.3495;
1397.1000;0.0871;4.3471;
1397.4000;0.0863;4.3398;
1397.7000;0.0863;4.3471;
1398.0000;0.0724;4.3106;
1398.3000;0.0838;4.3301;
1398.6000;0.0879;4.3471;
1398.9000;0.0863;4.3398;
1399.2000;0.0847;4.3422;
1399.5000;0.0838;4.3349;
1399.8000;0.0895;4.3520;
