time/ms;Fluo/V;P700 deltaI/I x10³;
-199.8000;0.0920;4.3593;
-199.5000;0.0936;4.3690;
-199.2000;0.0871;4.3471;
-198.9000;0.0912;4.3617;
-198.6000;0.0920;4.3568;
-198.3000;0.1066;4.3933;
-198.0000;0.0985;4.3739;
-197.7000;0.0912;4.3593;
-197.4000;0.0871;4.3544;
-197.1000;0.0944;4.3787;
-196.8000;0.0912;4.3763;
-196.5000;0.0928;4.3763;
-196.2000;0.0928;4.3714;
-195.9000;0.0952;4.3739;
-195.6000;0.0928;4.3641;
-195.3000;0.0944;4.3739;
-195.0000;0.0887;4.3739;
-194.7000;0.0961;4.3860;
-194.4000;0.0920;4.3787;
-194.1000;0.0871;4.3714;
-193.8000;0.0879;4.3690;
-193.5000;0.0928;4.3885;
-193.2000;0.0904;4.3885;
-192.9000;0.0912;4.3909;
-192.6000;0.0912;4.3982;
-192.3000;0.0936;4.4006;
-192.0000;0.0887;4.3909;
-191.7000;0.0895;4.3836;
-191.4000;0.0895;4.3714;
-191.1000;0.0838;4.3447;
-190.8000;0.0952;4.3787;
-190.5000;0.0879;4.3617;
-190.2000;0.0944;4.3714;
-189.9000;0.0912;4.3544;
-189.6000;0.0920;4.3617;
-189.3000;0.0871;4.3471;
-189.0000;0.0895;4.3544;
-188.7000;0.0904;4.3544;
-188.4000;0.0920;4.3544;
-188.1000;0.0887;4.3568;
-187.8000;0.0920;4.3641;
-187.5000;0.0969;4.3763;
-187.2000;0.0944;4.3714;
-186.9000;0.0944;4.3666;
-186.6000;0.0904;4.3471;
-186.3000;0.0985;4.3787;
-186.0000;0.0920;4.3666;
-185.7000;0.1026;4.4006;
-185.4000;0.0895;4.3690;
-185.1000;0.0928;4.3690;
-184.8000;0.0871;4.3568;
-184.5000;0.0895;4.3617;
-184.2000;0.0936;4.3739;
-183.9000;0.0912;4.3714;
-183.6000;0.0895;4.3666;
-183.3000;0.0904;4.3666;
-183.0000;0.0936;4.3739;
-182.7000;0.0936;4.3787;
-182.4000;0.0863;4.3666;
-182.1000;0.0944;4.3933;
-181.8000;0.0969;4.3958;
-181.5000;0.0944;4.3958;
-181.2000;0.0985;4.4055;
-180.9000;0.0944;4.4006;
-180.6000;0.0961;4.4153;
-180.3000;0.0936;4.4055;
-180.0000;0.0928;4.3909;
-179.7000;0.0936;4.3909;
-179.4000;0.0952;4.4055;
-179.1000;0.0895;4.3885;
-178.8000;0.0944;4.3982;
-178.5000;0.0936;4.4055;
-178.2000;0.0912;4.3933;
-177.9000;0.0952;4.4031;
-177.6000;0.0936;4.4006;
-177.3000;0.0928;4.4031;
-177.0000;0.0952;4.4031;
-176.7000;0.0895;4.3812;
-176.4000;0.0944;4.3958;
-176.1000;0.0952;4.4031;
-175.8000;0.0952;4.4104;
-175.5000;0.0920;4.4079;
-175.2000;0.0895;4.3933;
-174.9000;0.0936;4.3982;
-174.6000;0.0920;4.3958;
-174.3000;0.0920;4.3836;
-174.0000;0.0912;4.3885;
-173.7000;0.0936;4.3933;
-173.4000;0.0887;4.3812;
-173.1000;0.0928;4.3933;
-172.8000;0.0912;4.3860;
-172.5000;0.0936;4.3933;
-172.2000;0.0928;4.3885;
-171.9000;0.0952;4.3933;
-171.6000;0.0977;4.4006;
-171.3000;0.0895;4.3836;
-171.0000;0.0920;4.4006;
-170.7000;0.0928;4.4031;
-170.4000;0.0944;4.4055;
-170.1000;0.0904;4.3885;
-169.8000;0.0952;4.3982;
-169.5000;0.0952;4.3909;
-169.2000;0.0920;4.3836;
-168.9000;0.0904;4.3714;
-168.6000;0.0887;4.3641;
-168.3000;0.0944;4.3787;
-168.0000;0.0936;4.3763;
-167.7000;0.0920;4.3763;
-167.4000;0.0895;4.3836;
-167.1000;0.0928;4.3885;
-166.8000;0.0920;4.3836;
-166.5000;0.0952;4.4006;
-166.2000;0.0912;4.3836;
-165.9000;0.0928;4.4031;
-165.6000;0.0920;4.4006;
-165.3000;0.0944;4.3982;
-165.0000;0.0904;4.3933;
-164.7000;0.0912;4.3909;
-164.4000;0.0806;4.3714;
-164.1000;0.0944;4.4079;
-163.8000;0.0952;4.4006;
-163.5000;0.0928;4.3958;
-163.2000;0.0985;4.4128;
-162.9000;0.0936;4.3982;
-162.6000;0.0952;4.4055;
-162.3000;0.0961;4.4079;
-162.0000;0.0920;4.4031;
-161.7000;0.0920;4.3958;
-161.4000;0.0952;4.3958;
-161.1000;0.0993;4.4128;
-160.8000;0.0920;4.3909;
-160.5000;0.0936;4.3860;
-160.2000;0.0952;4.3982;
-159.9000;0.0936;4.3982;
-159.6000;0.0904;4.3812;
-159.3000;0.1026;4.4031;
-159.0000;0.0952;4.3812;
-158.7000;0.0928;4.3787;
-158.4000;0.0904;4.3666;
-158.1000;0.0944;4.3836;
-157.8000;0.0928;4.3860;
-157.5000;0.0920;4.3885;
-157.2000;0.0952;4.3982;
-156.9000;0.0928;4.3909;
-156.6000;0.0936;4.3958;
-156.3000;0.0904;4.3787;
-156.0000;0.0952;4.3836;
-155.7000;0.0920;4.3763;
-155.4000;0.0855;4.3617;
-155.1000;0.0920;4.3787;
-154.8000;0.0920;4.3812;
-154.5000;0.0863;4.3593;
-154.2000;0.0936;4.3812;
-153.9000;0.0952;4.3958;
-153.6000;0.0944;4.3933;
-153.3000;0.0863;4.3714;
-153.0000;0.0961;4.4031;
-152.7000;0.0944;4.3933;
-152.4000;0.0944;4.3958;
-152.1000;0.0920;4.4031;
-151.8000;0.0912;4.3958;
-151.5000;0.0798;4.3544;
-151.2000;0.0928;4.3860;
-150.9000;0.0920;4.3812;
-150.6000;0.0920;4.3787;
-150.3000;0.0961;4.3909;
-150.0000;0.0936;4.3860;
-149.7000;0.0936;4.3763;
-149.4000;0.0952;4.3860;
-149.1000;0.0838;4.3617;
-148.8000;0.0920;4.3787;
-148.5000;0.0920;4.3763;
-148.2000;0.0944;4.3763;
-147.9000;0.0912;4.3739;
-147.6000;0.0928;4.3812;
-147.3000;0.0912;4.3860;
-147.0000;0.0904;4.3860;
-146.7000;0.0920;4.3860;
-146.4000;0.0936;4.3860;
-146.1000;0.0928;4.3958;
-145.8000;0.0928;4.4031;
-145.5000;0.0912;4.3982;
-145.2000;0.0952;4.4079;
-144.9000;0.0952;4.4079;
-144.6000;0.0920;4.4006;
-144.3000;0.0904;4.3933;
-144.0000;0.0977;4.4079;
-143.7000;0.1042;4.4177;
-143.4000;0.1009;4.4128;
-143.1000;0.0920;4.3909;
-142.8000;0.0904;4.3836;
-142.5000;0.0936;4.3982;
-142.2000;0.0895;4.3860;
-141.9000;0.0887;4.3812;
-141.6000;0.1001;4.4104;
-141.3000;0.0944;4.3958;
-141.0000;0.1074;4.4347;
-140.7000;0.0887;4.3860;
-140.4000;0.0904;4.3885;
-140.1000;0.0928;4.3933;
-139.8000;0.0928;4.3909;
-139.5000;0.0928;4.3885;
-139.2000;0.0912;4.3885;
-138.9000;0.0936;4.3958;
-138.6000;0.0904;4.3933;
-138.3000;0.0920;4.4006;
-138.0000;0.0912;4.3909;
-137.7000;0.0928;4.3836;
-137.4000;0.0944;4.3958;
-137.1000;0.0928;4.3933;
-136.8000;0.0928;4.3958;
-136.5000;0.0912;4.4031;
-136.2000;0.0928;4.4128;
-135.9000;0.0798;4.3763;
-135.6000;0.1009;4.4372;
-135.3000;0.0936;4.4055;
-135.0000;0.0912;4.3909;
-134.7000;0.0920;4.3933;
-134.4000;0.1009;4.4201;
-134.1000;0.0904;4.3933;
-133.8000;0.0944;4.4006;
-133.5000;0.0928;4.3958;
-133.2000;0.0936;4.3958;
-132.9000;0.0920;4.4006;
-132.6000;0.0928;4.4055;
-132.3000;0.0920;4.3933;
-132.0000;0.0928;4.4031;
-131.7000;0.0936;4.4055;
-131.4000;0.0952;4.4079;
-131.1000;0.0928;4.4055;
-130.8000;0.0961;4.4079;
-130.5000;0.0969;4.4055;
-130.2000;0.0952;4.3982;
-129.9000;0.0920;4.3958;
-129.6000;0.0936;4.3958;
-129.3000;0.0895;4.3933;
-129.0000;0.0920;4.4031;
-128.7000;0.0928;4.4031;
-128.4000;0.0904;4.4055;
-128.1000;0.0920;4.4055;
-127.8000;0.0936;4.4079;
-127.5000;0.0936;4.4031;
-127.2000;0.0969;4.4128;
-126.9000;0.1009;4.4250;
-126.6000;0.0887;4.3812;
-126.3000;0.0952;4.4079;
-126.0000;0.0920;4.3933;
-125.7000;0.0912;4.3885;
-125.4000;0.0904;4.3836;
-125.1000;0.0920;4.3933;
-124.8000;0.0871;4.3714;
-124.5000;0.1042;4.4128;
-124.2000;0.0904;4.3666;
-123.9000;0.1001;4.3909;
-123.6000;0.0928;4.3690;
-123.3000;0.0936;4.3593;
-123.0000;0.1001;4.3787;
-122.7000;0.0912;4.3617;
-122.4000;0.0920;4.3666;
-122.1000;0.0936;4.3739;
-121.8000;0.0887;4.3568;
-121.5000;0.0920;4.3714;
-121.2000;0.1009;4.4006;
-120.9000;0.0985;4.3909;
-120.6000;0.0936;4.3885;
-120.3000;0.0936;4.3787;
-120.0000;0.0806;4.3617;
-119.7000;0.0936;4.3909;
-119.4000;0.0920;4.3860;
-119.1000;0.0944;4.3982;
-118.8000;0.1034;4.4323;
-118.5000;0.0904;4.3982;
-118.2000;0.0904;4.4006;
-117.9000;0.0969;4.4153;
-117.6000;0.0928;4.4031;
-117.3000;0.0928;4.4006;
-117.0000;0.0928;4.4031;
-116.7000;0.0904;4.3958;
-116.4000;0.0936;4.4031;
-116.1000;0.0920;4.4006;
-115.8000;0.0928;4.4031;
-115.5000;0.0928;4.4031;
-115.2000;0.0928;4.3982;
-114.9000;0.0912;4.3909;
-114.6000;0.0985;4.4055;
-114.3000;0.0904;4.3812;
-114.0000;0.0912;4.3836;
-113.7000;0.0920;4.3860;
-113.4000;0.0912;4.3860;
-113.1000;0.1042;4.4250;
-112.8000;0.0936;4.4031;
-112.5000;0.0944;4.3982;
-112.2000;0.0920;4.3909;
-111.9000;0.0912;4.4006;
-111.6000;0.0912;4.3933;
-111.3000;0.0904;4.3933;
-111.0000;0.0904;4.3836;
-110.7000;0.0928;4.3958;
-110.4000;0.0920;4.4006;
-110.1000;0.0920;4.4055;
-109.8000;0.0904;4.3982;
-109.5000;0.0920;4.4006;
-109.2000;0.0961;4.4006;
-108.9000;0.0904;4.3909;
-108.6000;0.0912;4.3860;
-108.3000;0.0952;4.3982;
-108.0000;0.0936;4.3982;
-107.7000;0.0936;4.4006;
-107.4000;0.1001;4.4274;
-107.1000;0.0961;4.4128;
-106.8000;0.0944;4.4104;
-106.5000;0.0985;4.4226;
-106.2000;0.0912;4.4006;
-105.9000;0.0936;4.4055;
-105.6000;0.0871;4.3933;
-105.3000;0.0928;4.4031;
-105.0000;0.0904;4.3958;
-104.7000;0.0928;4.4031;
-104.4000;0.0904;4.3885;
-104.1000;0.0920;4.3885;
-103.8000;0.0920;4.3885;
-103.5000;0.0936;4.3860;
-103.2000;0.0936;4.3885;
-102.9000;0.0904;4.3763;
-102.6000;0.0936;4.3836;
-102.3000;0.0928;4.3933;
-102.0000;0.0928;4.4031;
-101.7000;0.0944;4.4128;
-101.4000;0.0920;4.4055;
-101.1000;0.0944;4.4031;
-100.8000;0.0944;4.4055;
-100.5000;0.0936;4.4104;
-100.2000;0.0944;4.4055;
-99.9000;0.0944;4.4153;
-99.6000;0.0985;4.4347;
-99.3000;0.0936;4.4153;
-99.0000;0.0847;4.3860;
-98.7000;0.0928;4.3982;
-98.4000;0.0904;4.3909;
-98.1000;0.0928;4.4079;
-97.8000;0.0993;4.4201;
-97.5000;0.0936;4.4079;
-97.2000;0.0887;4.3885;
-96.9000;0.0952;4.3982;
-96.6000;0.0822;4.3593;
-96.3000;0.0928;4.3909;
-96.0000;0.0952;4.3958;
-95.7000;0.0912;4.3933;
-95.4000;0.0961;4.4079;
-95.1000;0.0936;4.4006;
-94.8000;0.0904;4.3836;
-94.5000;0.0912;4.3787;
-94.2000;0.0928;4.3933;
-93.9000;0.0928;4.3909;
-93.6000;0.0969;4.3982;
-93.3000;0.0944;4.3885;
-93.0000;0.1009;4.4006;
-92.7000;0.0944;4.3885;
-92.4000;0.0928;4.3812;
-92.1000;0.0879;4.3690;
-91.8000;0.0904;4.3739;
-91.5000;0.0936;4.3836;
-91.2000;0.0912;4.3787;
-90.9000;0.0830;4.3593;
-90.6000;0.0912;4.3836;
-90.3000;0.0928;4.3909;
-90.0000;0.0847;4.3617;
-89.7000;0.0912;4.3714;
-89.4000;0.0895;4.3739;
-89.1000;0.0969;4.3933;
-88.8000;0.0920;4.3714;
-88.5000;0.0912;4.3690;
-88.2000;0.0928;4.3739;
-87.9000;0.0961;4.3836;
-87.6000;0.0912;4.3641;
-87.3000;0.0920;4.3666;
-87.0000;0.0952;4.3714;
-86.7000;0.0952;4.3666;
-86.4000;0.0912;4.3593;
-86.1000;0.0904;4.3739;
-85.8000;0.0920;4.3787;
-85.5000;0.0969;4.3812;
-85.2000;0.0936;4.3714;
-84.9000;0.0920;4.3739;
-84.6000;0.0773;4.3349;
-84.3000;0.0887;4.3593;
-84.0000;0.0920;4.3690;
-83.7000;0.0944;4.3787;
-83.4000;0.0912;4.3739;
-83.1000;0.0928;4.3787;
-82.8000;0.0936;4.3787;
-82.5000;0.0928;4.3763;
-82.2000;0.0879;4.3666;
-81.9000;0.0944;4.3836;
-81.6000;0.0928;4.3787;
-81.3000;0.0920;4.3787;
-81.0000;0.0904;4.3763;
-80.7000;0.0936;4.3787;
-80.4000;0.0920;4.3714;
-80.1000;0.0912;4.3812;
-79.8000;0.0944;4.3885;
-79.5000;0.0936;4.3836;
-79.2000;0.0936;4.3787;
-78.9000;0.0912;4.3617;
-78.6000;0.0936;4.3568;
-78.3000;0.0928;4.3520;
-78.0000;0.0936;4.3568;
-77.7000;0.0952;4.3617;
-77.4000;0.0871;4.3374;
-77.1000;0.0936;4.3641;
-76.8000;0.0928;4.3641;
-76.5000;0.0936;4.3641;
-76.2000;0.0944;4.3690;
-75.9000;0.0912;4.3593;
-75.6000;0.0952;4.3690;
-75.3000;0.0912;4.3617;
-75.0000;0.1009;4.3885;
-74.7000;0.0895;4.3544;
-74.4000;0.0879;4.3520;
-74.1000;0.0790;4.3301;
-73.8000;0.0928;4.3739;
-73.5000;0.0830;4.3495;
-73.2000;0.0912;4.3641;
-72.9000;0.0928;4.3690;
-72.6000;0.0936;4.3593;
-72.3000;0.1018;4.3763;
-72.0000;0.0904;4.3568;
-71.7000;0.0936;4.3690;
-71.4000;0.0928;4.3739;
-71.1000;0.0936;4.3690;
-70.8000;0.0912;4.3568;
-70.5000;0.0871;4.3349;
-70.2000;0.0920;4.3593;
-69.9000;0.0977;4.3666;
-69.6000;0.0912;4.3568;
-69.3000;0.0936;4.3666;
-69.0000;0.0936;4.3787;
-68.7000;0.0936;4.3763;
-68.4000;0.0912;4.3812;
-68.1000;0.0863;4.3666;
-67.8000;0.0936;4.3982;
-67.5000;0.0920;4.3933;
-67.2000;0.0928;4.3909;
-66.9000;0.0912;4.3958;
-66.6000;0.0928;4.4031;
-66.3000;0.0969;4.4128;
-66.0000;0.0912;4.3982;
-65.7000;0.0928;4.3982;
-65.4000;0.0928;4.3958;
-65.1000;0.0928;4.3909;
-64.8000;0.0928;4.3885;
-64.5000;0.0944;4.3933;
-64.2000;0.0944;4.3933;
-63.9000;0.0920;4.3860;
-63.6000;0.0961;4.3909;
-63.3000;0.0944;4.3885;
-63.0000;0.0912;4.3763;
-62.7000;0.0936;4.3787;
-62.4000;0.0928;4.3739;
-62.1000;0.1042;4.3958;
-61.8000;0.1083;4.4079;
-61.5000;0.0920;4.3641;
-61.2000;0.0863;4.3520;
-60.9000;0.0928;4.3763;
-60.6000;0.0733;4.3349;
-60.3000;0.0895;4.3763;
-60.0000;0.0961;4.3860;
-59.7000;0.0904;4.3763;
-59.4000;0.0863;4.3763;
-59.1000;0.1009;4.4226;
-58.8000;0.0961;4.4226;
-58.5000;0.0928;4.4079;
-58.2000;0.1001;4.4128;
-57.9000;0.0928;4.3836;
-57.6000;0.0944;4.3860;
-57.3000;0.0928;4.3739;
-57.0000;0.0952;4.3885;
-56.7000;0.0928;4.3812;
-56.4000;0.0847;4.3568;
-56.1000;0.0928;4.3714;
-55.8000;0.0952;4.3860;
-55.5000;0.0928;4.3812;
-55.2000;0.0920;4.3812;
-54.9000;0.0952;4.3885;
-54.6000;0.0920;4.3836;
-54.3000;0.0928;4.3836;
-54.0000;0.0928;4.3787;
-53.7000;0.0920;4.3812;
-53.4000;0.0806;4.3374;
-53.1000;0.0936;4.3763;
-52.8000;0.0952;4.3909;
-52.5000;0.0920;4.3933;
-52.2000;0.0944;4.3958;
-51.9000;0.0912;4.3909;
-51.6000;0.0904;4.3812;
-51.3000;0.0863;4.3714;
-51.0000;0.1042;4.4079;
-50.7000;0.0944;4.3836;
-50.4000;0.0936;4.3909;
-50.1000;0.0920;4.3836;
-49.8000;0.0977;4.3958;
-49.5000;0.0993;4.4006;
-49.2000;0.0904;4.3763;
-48.9000;0.1058;4.4177;
-48.6000;0.0952;4.3933;
-48.3000;0.0920;4.3958;
-48.0000;0.0928;4.3982;
-47.7000;0.0961;4.3982;
-47.4000;0.0928;4.3885;
-47.1000;0.0920;4.3860;
-46.8000;0.0944;4.3909;
-46.5000;0.0977;4.4055;
-46.2000;0.0961;4.4055;
-45.9000;0.0985;4.4128;
-45.6000;0.0838;4.3739;
-45.3000;0.0928;4.3836;
-45.0000;0.0920;4.3909;
-44.7000;0.0928;4.3860;
-44.4000;0.0936;4.3909;
-44.1000;0.0920;4.3933;
-43.8000;0.0944;4.4006;
-43.5000;0.0961;4.3958;
-43.2000;0.0944;4.3885;
-42.9000;0.0944;4.3860;
-42.6000;0.0944;4.3909;
-42.3000;0.0944;4.3958;
-42.0000;0.0993;4.4006;
-41.7000;0.0912;4.3763;
-41.4000;0.0920;4.3714;
-41.1000;0.0920;4.3690;
-40.8000;0.0936;4.3617;
-40.5000;0.0936;4.3617;
-40.2000;0.0895;4.3471;
-39.9000;0.0912;4.3447;
-39.6000;0.0928;4.3544;
-39.3000;0.0961;4.3690;
-39.0000;0.0912;4.3641;
-38.7000;0.0928;4.3714;
-38.4000;0.0936;4.3787;
-38.1000;0.0920;4.3714;
-37.8000;0.0944;4.3739;
-37.5000;0.0961;4.3787;
-37.2000;0.0936;4.3690;
-36.9000;0.0936;4.3739;
-36.6000;0.0920;4.3666;
-36.3000;0.0912;4.3739;
-36.0000;0.0936;4.3860;
-35.7000;0.0936;4.3885;
-35.4000;0.0879;4.3739;
-35.1000;0.0912;4.3836;
-34.8000;0.0920;4.3836;
-34.5000;0.0936;4.3836;
-34.2000;0.0920;4.3836;
-33.9000;0.0952;4.3909;
-33.6000;0.0936;4.3885;
-33.3000;0.0944;4.3836;
-33.0000;0.0936;4.3836;
-32.7000;0.0855;4.3690;
-32.4000;0.0879;4.3787;
-32.1000;0.0969;4.4055;
-31.8000;0.0895;4.3933;
-31.5000;0.0887;4.3885;
-31.2000;0.1001;4.4274;
-30.9000;0.0912;4.3958;
-30.6000;0.0928;4.3958;
-30.3000;0.0936;4.3909;
-30.0000;0.0904;4.3860;
-29.7000;0.0895;4.3885;
-29.4000;0.0969;4.4031;
-29.1000;0.0920;4.3958;
-28.8000;0.0912;4.3860;
-28.5000;0.0952;4.3860;
-28.2000;0.0920;4.3714;
-27.9000;0.0895;4.3666;
-27.6000;0.0920;4.3763;
-27.3000;0.0944;4.3860;
-27.0000;0.1001;4.4031;
-26.7000;0.0969;4.3933;
-26.4000;0.0928;4.3812;
-26.1000;0.0928;4.3787;
-25.8000;0.0985;4.3885;
-25.5000;0.0904;4.3641;
-25.2000;0.0920;4.3714;
-24.9000;0.0912;4.3714;
-24.6000;0.0944;4.3909;
-24.3000;0.0936;4.3836;
-24.0000;0.0847;4.3593;
-23.7000;0.0920;4.3787;
-23.4000;0.0920;4.3812;
-23.1000;0.0936;4.3836;
-22.8000;0.0912;4.3812;
-22.5000;0.0928;4.3860;
-22.2000;0.0952;4.3860;
-21.9000;0.0952;4.3836;
-21.6000;0.1058;4.4177;
-21.3000;0.0928;4.3836;
-21.0000;0.0944;4.3909;
-20.7000;0.0895;4.3909;
-20.4000;0.0920;4.3958;
-20.1000;0.0928;4.3933;
-19.8000;0.0920;4.3982;
-19.5000;0.0993;4.4177;
-19.2000;0.0928;4.3982;
-18.9000;0.0912;4.3909;
-18.6000;0.0928;4.3885;
-18.3000;0.0936;4.3836;
-18.0000;0.0895;4.3763;
-17.7000;0.0895;4.3739;
-17.4000;0.0912;4.3739;
-17.1000;0.0912;4.3690;
-16.8000;0.0912;4.3690;
-16.5000;0.0928;4.3714;
-16.2000;0.0847;4.3495;
-15.9000;0.0936;4.3763;
-15.6000;0.0920;4.3714;
-15.3000;0.0944;4.3739;
-15.0000;0.0944;4.3836;
-14.7000;0.0928;4.3860;
-14.4000;0.0847;4.3666;
-14.1000;0.0977;4.4031;
-13.8000;0.0936;4.3885;
-13.5000;0.0733;4.3398;
-13.2000;0.0887;4.3787;
-12.9000;0.0904;4.3885;
-12.6000;0.0895;4.3787;
-12.3000;0.0936;4.3860;
-12.0000;0.0912;4.3787;
-11.7000;0.0928;4.3860;
-11.4000;0.0961;4.3909;
-11.1000;0.0928;4.3860;
-10.8000;0.0920;4.3860;
-10.5000;0.0904;4.3763;
-10.2000;0.0912;4.3714;
-9.9000;0.0944;4.3860;
-9.6000;0.0912;4.3739;
-9.3000;0.0928;4.3860;
-9.0000;0.0920;4.3909;
-8.7000;0.0928;4.3909;
-8.4000;0.0936;4.3982;
-8.1000;0.0993;4.3958;
-7.8000;0.0952;4.3909;
-7.5000;0.0928;4.3909;
-7.2000;0.0904;4.3933;
-6.9000;0.0969;4.4055;
-6.6000;0.0936;4.4055;
-6.3000;0.0920;4.4006;
-6.0000;0.0904;4.3836;
-5.7000;0.0985;4.4104;
-5.4000;0.0928;4.3860;
-5.1000;0.0944;4.3958;
-4.8000;0.0920;4.3933;
-4.5000;0.0944;4.4128;
-4.2000;0.0871;4.3933;
-3.9000;0.0887;4.3885;
-3.6000;0.0912;4.3958;
-3.3000;0.0928;4.3933;
-3.0000;0.0912;4.3885;
-2.7000;0.0936;4.3909;
-2.4000;0.0944;4.3933;
-2.1000;0.0944;4.3909;
-1.8000;0.0895;4.3812;
-1.5000;0.0961;4.3933;
-1.2000;0.0944;4.3787;
-0.9000;0.0936;4.3714;
-0.6000;0.0855;4.3471;
-0.3000;0.0928;4.3666;
0.0000;0.0928;4.3666;
0.3000;0.0920;4.3568;
0.6000;0.0855;4.3471;
0.9000;0.0961;4.3909;
1.2000;0.0993;4.4128;
1.5000;0.1009;4.4201;
1.8000;0.0977;4.4250;
2.1000;0.0993;4.4396;
2.4000;0.1009;4.4566;
2.7000;0.0993;4.4518;
3.0000;0.0969;4.4493;
3.3000;0.0920;4.4372;
3.6000;0.1042;4.4737;
3.9000;0.0985;4.4566;
4.2000;0.1018;4.4688;
4.5000;0.1034;4.4883;
4.8000;0.1034;4.4834;
5.1000;0.0993;4.4834;
5.4000;0.0993;4.4810;
5.7000;0.1009;4.4858;
6.0000;0.1026;4.4907;
6.3000;0.1026;4.4980;
6.6000;0.0985;4.4956;
6.9000;0.1034;4.5150;
7.2000;0.1058;4.5175;
7.5000;0.1001;4.5029;
7.8000;0.1009;4.5102;
8.1000;0.1042;4.5199;
8.4000;0.1026;4.5175;
8.7000;0.0993;4.5004;
9.0000;0.0985;4.5053;
9.3000;0.0993;4.5029;
9.6000;0.1083;4.5296;
9.9000;0.1009;4.5053;
10.2000;0.1026;4.5102;
10.5000;0.1066;4.5175;
10.8000;0.0993;4.5004;
11.1000;0.1018;4.5102;
11.4000;0.1018;4.5053;
11.7000;0.1001;4.5029;
12.0000;0.1042;4.5102;
12.3000;0.1042;4.5077;
12.6000;0.1018;4.5004;
12.9000;0.1026;4.4907;
13.2000;0.1034;4.4956;
13.5000;0.1050;4.5004;
13.8000;0.1018;4.4980;
14.1000;0.1034;4.5029;
14.4000;0.1018;4.5053;
14.7000;0.1018;4.4956;
15.0000;0.1042;4.5004;
15.3000;0.1026;4.4956;
15.6000;0.1050;4.5004;
15.9000;0.1042;4.4956;
16.2000;0.1001;4.4785;
16.5000;0.1034;4.4810;
16.8000;0.1058;4.4956;
17.1000;0.1026;4.4810;
17.4000;0.1034;4.4785;
17.7000;0.1034;4.4858;
18.0000;0.1034;4.4858;
18.3000;0.1001;4.4737;
18.6000;0.1034;4.4883;
18.9000;0.1026;4.4834;
19.2000;0.1034;4.4761;
19.5000;0.1026;4.4834;
19.8000;0.1156;4.5296;
20.1000;0.1018;4.5004;
20.4000;0.1034;4.5077;
20.7000;0.1018;4.5102;
21.0000;0.1042;4.5175;
21.3000;0.1026;4.5077;
21.6000;0.1018;4.4980;
21.9000;0.1026;4.4956;
22.2000;0.1034;4.5029;
22.5000;0.1009;4.4931;
22.8000;0.1034;4.4956;
23.1000;0.1042;4.4883;
23.4000;0.1066;4.4931;
23.7000;0.1042;4.4931;
24.0000;0.1058;4.4931;
24.3000;0.1034;4.4907;
24.6000;0.1066;4.4980;
24.9000;0.1050;4.4931;
25.2000;0.1034;4.4931;
25.5000;0.1034;4.4931;
25.8000;0.1042;4.4980;
26.1000;0.1083;4.5150;
26.4000;0.1083;4.5053;
26.7000;0.1009;4.4883;
27.0000;0.1018;4.4883;
27.3000;0.1050;4.4980;
27.6000;0.1058;4.4883;
27.9000;0.1042;4.4810;
28.2000;0.0985;4.4664;
28.5000;0.1026;4.4785;
28.8000;0.1018;4.4834;
29.1000;0.0985;4.4785;
29.4000;0.1026;4.4810;
29.7000;0.1074;4.4956;
30.0000;0.1026;4.4931;
30.3000;0.1050;4.4980;
30.6000;0.1042;4.4883;
30.9000;0.1026;4.4858;
31.2000;0.0928;4.4639;
31.5000;0.1042;4.4980;
31.8000;0.0993;4.4834;
32.1000;0.1042;4.4883;
32.4000;0.1083;4.4956;
32.7000;0.1001;4.4737;
33.0000;0.1018;4.4810;
33.3000;0.1026;4.4834;
33.6000;0.1042;4.4785;
33.9000;0.1001;4.4761;
34.2000;0.1009;4.4737;
34.5000;0.1042;4.4737;
34.8000;0.1026;4.4712;
35.1000;0.1026;4.4858;
35.4000;0.1018;4.4834;
35.7000;0.0985;4.4664;
36.0000;0.1018;4.4834;
36.3000;0.1099;4.5004;
36.6000;0.1058;4.4834;
36.9000;0.1042;4.4737;
37.2000;0.1034;4.4737;
37.5000;0.1034;4.4810;
37.8000;0.1050;4.4883;
38.1000;0.1034;4.4810;
38.4000;0.1026;4.4810;
38.7000;0.1018;4.4737;
39.0000;0.1042;4.4931;
39.3000;0.1018;4.4883;
39.6000;0.1018;4.4810;
39.9000;0.0977;4.4664;
40.2000;0.1026;4.4737;
40.5000;0.1026;4.4785;
40.8000;0.0969;4.4615;
41.1000;0.1034;4.4761;
41.4000;0.1026;4.4737;
41.7000;0.1026;4.4639;
42.0000;0.1050;4.4810;
42.3000;0.1066;4.4883;
42.6000;0.1009;4.4834;
42.9000;0.1026;4.4956;
43.2000;0.1050;4.5126;
43.5000;0.1026;4.5126;
43.8000;0.1066;4.5272;
44.1000;0.1050;4.5126;
44.4000;0.1066;4.5248;
44.7000;0.1058;4.5321;
45.0000;0.1034;4.5272;
45.3000;0.1034;4.5248;
45.6000;0.1058;4.5296;
45.9000;0.1009;4.5175;
46.2000;0.1050;4.5199;
46.5000;0.1034;4.5296;
46.8000;0.1050;4.5321;
47.1000;0.1172;4.5589;
47.4000;0.1034;4.5223;
47.7000;0.1034;4.5199;
48.0000;0.1066;4.5296;
48.3000;0.1018;4.5175;
48.6000;0.1026;4.5126;
48.9000;0.1099;4.5248;
49.2000;0.1058;4.4980;
49.5000;0.1026;4.4931;
49.8000;0.1042;4.4907;
50.1000;0.1026;4.4883;
50.4000;0.0985;4.4688;
50.7000;0.1058;4.4931;
51.0000;0.1034;4.5029;
51.3000;0.1099;4.5199;
51.6000;0.1058;4.4931;
51.9000;0.1058;4.4980;
52.2000;0.1050;4.5077;
52.5000;0.1042;4.5077;
52.8000;0.1050;4.5102;
53.1000;0.1058;4.5248;
53.4000;0.1034;4.5175;
53.7000;0.1083;4.5248;
54.0000;0.1050;4.5126;
54.3000;0.0961;4.4883;
54.6000;0.1018;4.5053;
54.9000;0.1026;4.5053;
55.2000;0.1026;4.5029;
55.5000;0.1042;4.5029;
55.8000;0.1018;4.4980;
56.1000;0.1042;4.4956;
56.4000;0.1034;4.4956;
56.7000;0.1091;4.5150;
57.0000;0.1050;4.5102;
57.3000;0.1042;4.5053;
57.6000;0.1131;4.5369;
57.9000;0.1050;4.5150;
58.2000;0.1099;4.5272;
58.5000;0.1066;4.5102;
58.8000;0.1018;4.4907;
59.1000;0.0961;4.4785;
59.4000;0.1009;4.4907;
59.7000;0.1066;4.5077;
60.0000;0.1001;4.4956;
60.3000;0.1018;4.5126;
60.6000;0.1009;4.4907;
60.9000;0.1009;4.4785;
61.2000;0.1115;4.5077;
61.5000;0.1058;4.4931;
61.8000;0.1091;4.5004;
62.1000;0.1001;4.4810;
62.4000;0.1050;4.5004;
62.7000;0.1001;4.4858;
63.0000;0.0969;4.4688;
63.3000;0.1058;4.4931;
63.6000;0.1009;4.4810;
63.9000;0.1091;4.5029;
64.2000;0.1066;4.5102;
64.5000;0.1018;4.5004;
64.8000;0.0749;4.4274;
65.1000;0.1050;4.4980;
65.4000;0.1042;4.5004;
65.7000;0.1066;4.5175;
66.0000;0.1050;4.5102;
66.3000;0.1066;4.5004;
66.6000;0.1034;4.4931;
66.9000;0.1058;4.4956;
67.2000;0.1034;4.4907;
67.5000;0.1066;4.5004;
67.8000;0.0961;4.4737;
68.1000;0.1066;4.4956;
68.4000;0.1058;4.4956;
68.7000;0.1026;4.4956;
69.0000;0.1034;4.5004;
69.3000;0.1066;4.5077;
69.6000;0.1058;4.5126;
69.9000;0.1058;4.5150;
70.2000;0.1042;4.5102;
70.5000;0.1009;4.5053;
70.8000;0.1058;4.5150;
71.1000;0.1018;4.5175;
71.4000;0.1050;4.5150;
71.7000;0.1034;4.5077;
72.0000;0.1058;4.5102;
72.3000;0.1058;4.5102;
72.6000;0.1107;4.5223;
72.9000;0.1050;4.5077;
73.2000;0.1026;4.4931;
73.5000;0.1083;4.5175;
73.8000;0.1050;4.5199;
74.1000;0.1026;4.5029;
74.4000;0.1034;4.5004;
74.7000;0.1026;4.5029;
75.0000;0.1009;4.5053;
75.3000;0.1034;4.5077;
75.6000;0.1050;4.5102;
75.9000;0.1018;4.5029;
76.2000;0.1042;4.5029;
76.5000;0.1042;4.5175;
76.8000;0.1074;4.5223;
77.1000;0.1042;4.5102;
77.4000;0.1018;4.5004;
77.7000;0.1018;4.5053;
78.0000;0.1058;4.5248;
78.3000;0.1066;4.5248;
78.6000;0.1042;4.5126;
78.9000;0.1034;4.5150;
79.2000;0.1026;4.5126;
79.5000;0.1066;4.5150;
79.8000;0.1042;4.5053;
80.1000;0.1050;4.5126;
80.4000;0.1042;4.5053;
80.7000;0.1107;4.5223;
81.0000;0.1050;4.5077;
81.3000;0.1058;4.5126;
81.6000;0.1042;4.5102;
81.9000;0.1026;4.5029;
82.2000;0.1042;4.5102;
82.5000;0.1066;4.5126;
82.8000;0.1042;4.5102;
83.1000;0.1066;4.5126;
83.4000;0.1034;4.5102;
83.7000;0.1074;4.5369;
84.0000;0.1066;4.5296;
84.3000;0.0993;4.5150;
84.6000;0.1074;4.5296;
84.9000;0.0985;4.5053;
85.2000;0.0985;4.5004;
85.5000;0.1026;4.5053;
85.8000;0.1066;4.5199;
86.1000;0.1115;4.5345;
86.4000;0.1050;4.5126;
86.7000;0.1026;4.5102;
87.0000;0.0920;4.4785;
87.3000;0.0936;4.4834;
87.6000;0.1009;4.5175;
87.9000;0.1042;4.5296;
88.2000;0.1050;4.5369;
88.5000;0.1066;4.5418;
88.8000;0.1205;4.5759;
89.1000;0.1058;4.5394;
89.4000;0.1042;4.5272;
89.7000;0.1018;4.5175;
90.0000;0.1058;4.5223;
90.3000;0.1009;4.5102;
90.6000;0.1058;4.5150;
90.9000;0.1058;4.5077;
91.2000;0.1066;4.5053;
91.5000;0.1026;4.4980;
91.8000;0.0977;4.4907;
92.1000;0.1026;4.4980;
92.4000;0.1066;4.5029;
92.7000;0.1018;4.5029;
93.0000;0.1034;4.5150;
93.3000;0.1050;4.5126;
93.6000;0.0944;4.4785;
93.9000;0.1058;4.5102;
94.2000;0.1034;4.5004;
94.5000;0.1018;4.4980;
94.8000;0.1034;4.5029;
95.1000;0.1050;4.5126;
95.4000;0.1042;4.5150;
95.7000;0.1034;4.5029;
96.0000;0.1083;4.5102;
96.3000;0.1026;4.5029;
96.6000;0.0936;4.4761;
96.9000;0.1018;4.5126;
97.2000;0.1034;4.5175;
97.5000;0.1034;4.5272;
97.8000;0.1058;4.5418;
98.1000;0.1034;4.5443;
98.4000;0.1018;4.5467;
98.7000;0.1066;4.5613;
99.0000;0.1026;4.5491;
99.3000;0.1042;4.5467;
99.6000;0.1034;4.5369;
99.9000;0.1050;4.5394;
100.2000;0.1034;4.5223;
100.5000;0.1066;4.5272;
100.8000;0.1074;4.5272;
101.1000;0.1083;4.5248;
101.4000;0.1018;4.5150;
101.7000;0.1026;4.5150;
102.0000;0.1091;4.5296;
102.3000;0.1066;4.5223;
102.6000;0.1074;4.5248;
102.9000;0.1099;4.5296;
103.2000;0.1034;4.5102;
103.5000;0.1042;4.5077;
103.8000;0.1034;4.5029;
104.1000;0.1042;4.5029;
104.4000;0.1066;4.5053;
104.7000;0.1083;4.5150;
105.0000;0.1058;4.5004;
105.3000;0.1066;4.4956;
105.6000;0.1058;4.4907;
105.9000;0.1042;4.4907;
106.2000;0.1066;4.4931;
106.5000;0.1050;4.4956;
106.8000;0.1058;4.5029;
107.1000;0.1042;4.4980;
107.4000;0.1034;4.5004;
107.7000;0.1001;4.4883;
108.0000;0.1058;4.5029;
108.3000;0.1050;4.5004;
108.6000;0.1034;4.5077;
108.9000;0.1042;4.5150;
109.2000;0.1026;4.5102;
109.5000;0.1042;4.5199;
109.8000;0.1034;4.5175;
110.1000;0.1050;4.5296;
110.4000;0.1042;4.5199;
110.7000;0.1034;4.5199;
111.0000;0.1050;4.5345;
111.3000;0.1034;4.5321;
111.6000;0.1066;4.5369;
111.9000;0.0952;4.5102;
112.2000;0.1034;4.5248;
112.5000;0.1050;4.5150;
112.8000;0.1074;4.5150;
113.1000;0.0993;4.5029;
113.4000;0.1050;4.5150;
113.7000;0.1009;4.4956;
114.0000;0.1058;4.5150;
114.3000;0.1034;4.5077;
114.6000;0.1050;4.5029;
114.9000;0.1042;4.5053;
115.2000;0.1050;4.5150;
115.5000;0.1009;4.5053;
115.8000;0.1034;4.5029;
116.1000;0.1058;4.5029;
116.4000;0.1034;4.5053;
116.7000;0.1034;4.5077;
117.0000;0.1050;4.5053;
117.3000;0.1042;4.4956;
117.6000;0.1026;4.4834;
117.9000;0.1009;4.4810;
118.2000;0.1026;4.5004;
118.5000;0.1066;4.5126;
118.8000;0.1042;4.5102;
119.1000;0.1026;4.5004;
119.4000;0.1050;4.5102;
119.7000;0.1042;4.5150;
120.0000;0.0936;4.4834;
120.3000;0.0904;4.4664;
120.6000;0.0944;4.4785;
120.9000;0.1042;4.5029;
121.2000;0.0944;4.4737;
121.5000;0.1050;4.5077;
121.8000;0.1058;4.5102;
122.1000;0.1034;4.4980;
122.4000;0.1058;4.5102;
122.7000;0.1131;4.5272;
123.0000;0.1026;4.5053;
123.3000;0.1042;4.5077;
123.6000;0.1034;4.5077;
123.9000;0.1042;4.5102;
124.2000;0.1050;4.5053;
124.5000;0.1050;4.5150;
124.8000;0.1026;4.5077;
125.1000;0.1034;4.5053;
125.4000;0.1034;4.5053;
125.7000;0.1026;4.4931;
126.0000;0.1034;4.4907;
126.3000;0.1050;4.4931;
126.6000;0.1074;4.5029;
126.9000;0.1058;4.5004;
127.2000;0.1042;4.5004;
127.5000;0.1026;4.4931;
127.8000;0.1123;4.5199;
128.1000;0.1058;4.5053;
128.4000;0.1050;4.5029;
128.7000;0.1034;4.4931;
129.0000;0.1058;4.5029;
129.3000;0.1042;4.5029;
129.6000;0.1050;4.5029;
129.9000;0.1034;4.5029;
130.2000;0.1083;4.5102;
130.5000;0.1042;4.5150;
130.8000;0.1042;4.5077;
131.1000;0.1042;4.5077;
131.4000;0.1026;4.4931;
131.7000;0.1058;4.4931;
132.0000;0.1058;4.4931;
132.3000;0.1026;4.4883;
132.6000;0.1050;4.5053;
132.9000;0.1034;4.5150;
133.2000;0.1050;4.5126;
133.5000;0.1034;4.5004;
133.8000;0.1034;4.5077;
134.1000;0.1034;4.5126;
134.4000;0.1034;4.5102;
134.7000;0.1009;4.5102;
135.0000;0.1034;4.5150;
135.3000;0.1050;4.5126;
135.6000;0.0944;4.4785;
135.9000;0.1050;4.5029;
136.2000;0.1131;4.5223;
136.5000;0.1034;4.4834;
136.8000;0.1050;4.4931;
137.1000;0.1058;4.5004;
137.4000;0.0993;4.4834;
137.7000;0.1042;4.4931;
138.0000;0.1058;4.5004;
138.3000;0.1042;4.4956;
138.6000;0.1058;4.5004;
138.9000;0.0977;4.4615;
139.2000;0.1050;4.4737;
139.5000;0.0993;4.4591;
139.8000;0.1018;4.4737;
140.1000;0.1042;4.4810;
140.4000;0.1026;4.4883;
140.7000;0.1018;4.4883;
141.0000;0.1099;4.5102;
141.3000;0.1107;4.5175;
141.6000;0.1083;4.5150;
141.9000;0.1115;4.5199;
142.2000;0.1091;4.5077;
142.5000;0.1107;4.5126;
142.8000;0.1050;4.5029;
143.1000;0.0993;4.4907;
143.4000;0.0961;4.4834;
143.7000;0.1058;4.5126;
144.0000;0.1042;4.5029;
144.3000;0.1034;4.5004;
144.6000;0.1050;4.5029;
144.9000;0.1026;4.4858;
145.2000;0.1034;4.4858;
145.5000;0.1026;4.4883;
145.8000;0.1050;4.4931;
146.1000;0.1042;4.5004;
146.4000;0.1026;4.4956;
146.7000;0.1034;4.4980;
147.0000;0.1066;4.4980;
147.3000;0.1042;4.4858;
147.6000;0.1034;4.4785;
147.9000;0.1074;4.4810;
148.2000;0.1050;4.4810;
148.5000;0.1050;4.4834;
148.8000;0.1042;4.4737;
149.1000;0.1034;4.4761;
149.4000;0.1034;4.4810;
149.7000;0.1001;4.4688;
150.0000;0.1050;4.4810;
150.3000;0.1034;4.4931;
150.6000;0.1050;4.4931;
150.9000;0.1034;4.4883;
151.2000;0.1058;4.4834;
151.5000;0.1034;4.4785;
151.8000;0.1050;4.4858;
152.1000;0.1050;4.4810;
152.4000;0.1009;4.4737;
152.7000;0.1034;4.4810;
153.0000;0.1042;4.4785;
153.3000;0.1042;4.4810;
153.6000;0.1074;4.4907;
153.9000;0.1026;4.4785;
154.2000;0.1074;4.4883;
154.5000;0.1058;4.4834;
154.8000;0.1115;4.4907;
155.1000;0.1034;4.4615;
155.4000;0.1058;4.4785;
155.7000;0.1050;4.4834;
156.0000;0.1001;4.4737;
156.3000;0.1058;4.4956;
156.6000;0.1058;4.4883;
156.9000;0.1107;4.5053;
157.2000;0.1050;4.4834;
157.5000;0.1058;4.5053;
157.8000;0.1026;4.4980;
158.1000;0.1091;4.5150;
158.4000;0.1042;4.5004;
158.7000;0.1156;4.5369;
159.0000;0.1050;4.5053;
159.3000;0.1099;4.5223;
159.6000;0.1009;4.5004;
159.9000;0.1042;4.5077;
160.2000;0.0961;4.4858;
160.5000;0.1066;4.5102;
160.8000;0.1050;4.5004;
161.1000;0.1107;4.5272;
161.4000;0.0993;4.5029;
161.7000;0.1066;4.5175;
162.0000;0.1091;4.5175;
162.3000;0.0977;4.4858;
162.6000;0.1018;4.4980;
162.9000;0.1034;4.5004;
163.2000;0.0944;4.4761;
163.5000;0.1074;4.5102;
163.8000;0.1083;4.5102;
164.1000;0.1050;4.4931;
164.4000;0.0993;4.4883;
164.7000;0.1026;4.4956;
165.0000;0.1026;4.4956;
165.3000;0.1026;4.4907;
165.6000;0.1123;4.5223;
165.9000;0.1058;4.5029;
166.2000;0.1197;4.5369;
166.5000;0.1066;4.5102;
166.8000;0.1018;4.5053;
167.1000;0.1058;4.5150;
167.4000;0.0952;4.4858;
167.7000;0.1050;4.5126;
168.0000;0.1018;4.4980;
168.3000;0.1066;4.5077;
168.6000;0.1042;4.4980;
168.9000;0.1034;4.5053;
169.2000;0.1050;4.5175;
169.5000;0.1042;4.5102;
169.8000;0.1026;4.5150;
170.1000;0.1058;4.5175;
170.4000;0.1058;4.5077;
170.7000;0.0985;4.4883;
171.0000;0.1066;4.5053;
171.3000;0.1042;4.5053;
171.6000;0.1066;4.5126;
171.9000;0.1091;4.5248;
172.2000;0.1074;4.5296;
172.5000;0.1074;4.5150;
172.8000;0.1083;4.5272;
173.1000;0.1042;4.5077;
173.4000;0.1058;4.5126;
173.7000;0.1042;4.5102;
174.0000;0.1042;4.5077;
174.3000;0.1009;4.5029;
174.6000;0.1172;4.5491;
174.9000;0.1058;4.5150;
175.2000;0.1074;4.5272;
175.5000;0.1034;4.5126;
175.8000;0.1058;4.5126;
176.1000;0.1066;4.5077;
176.4000;0.1074;4.5102;
176.7000;0.1009;4.4931;
177.0000;0.1058;4.5029;
177.3000;0.1026;4.5004;
177.6000;0.1050;4.5077;
177.9000;0.1058;4.5102;
178.2000;0.1058;4.5102;
178.5000;0.1042;4.5077;
178.8000;0.0977;4.4858;
179.1000;0.1066;4.5053;
179.4000;0.1042;4.5077;
179.7000;0.1009;4.4980;
180.0000;0.0895;4.4664;
180.3000;0.1034;4.4980;
180.6000;0.1009;4.4883;
180.9000;0.1034;4.4956;
181.2000;0.1042;4.4980;
181.5000;0.1058;4.4956;
181.8000;0.0961;4.4737;
182.1000;0.1026;4.4883;
182.4000;0.1083;4.5077;
182.7000;0.0993;4.4712;
183.0000;0.1026;4.4785;
183.3000;0.1074;4.4883;
183.6000;0.1099;4.5029;
183.9000;0.1042;4.4858;
184.2000;0.1066;4.4858;
184.5000;0.0969;4.4639;
184.8000;0.1034;4.4858;
185.1000;0.1058;4.4956;
185.4000;0.1091;4.5053;
185.7000;0.1050;4.4907;
186.0000;0.1034;4.4761;
186.3000;0.0993;4.4712;
186.6000;0.1026;4.4785;
186.9000;0.1042;4.4883;
187.2000;0.1042;4.4858;
187.5000;0.1050;4.4883;
187.8000;0.1042;4.4858;
188.1000;0.1026;4.4834;
188.4000;0.1074;4.4834;
188.7000;0.1034;4.4664;
189.0000;0.1099;4.4761;
189.3000;0.1001;4.4518;
189.6000;0.1058;4.4664;
189.9000;0.0887;4.4226;
190.2000;0.1091;4.4785;
190.5000;0.1050;4.4737;
190.8000;0.1091;4.4883;
191.1000;0.1042;4.4737;
191.4000;0.1026;4.4712;
191.7000;0.1050;4.4737;
192.0000;0.1009;4.4591;
192.3000;0.1042;4.4785;
192.6000;0.1058;4.4785;
192.9000;0.1050;4.4688;
193.2000;0.1131;4.4980;
193.5000;0.1058;4.4810;
193.8000;0.1074;4.4907;
194.1000;0.1018;4.4737;
194.4000;0.1050;4.4883;
194.7000;0.1026;4.4785;
195.0000;0.1026;4.4810;
195.3000;0.1050;4.4834;
195.6000;0.1066;4.4858;
195.9000;0.1001;4.4712;
196.2000;0.1042;4.4834;
196.5000;0.0985;4.4712;
196.8000;0.0961;4.4639;
197.1000;0.1009;4.4810;
197.4000;0.1140;4.5150;
197.7000;0.1034;4.4883;
198.0000;0.1066;4.4931;
198.3000;0.0993;4.4688;
198.6000;0.0985;4.4639;
198.9000;0.1083;4.4980;
199.2000;0.1050;4.4980;
199.5000;0.1058;4.4980;
199.8000;0.1034;4.4907;
200.1000;0.1050;4.4980;
200.4000;0.1074;4.4980;
200.7000;0.1009;4.4785;
201.0000;0.1058;4.4907;
201.3000;0.1050;4.4810;
201.6000;0.1066;4.4834;
201.9000;0.1034;4.4883;
202.2000;0.1018;4.4907;
202.5000;0.1050;4.5004;
202.8000;0.1066;4.5053;
203.1000;0.1058;4.5004;
203.4000;0.1018;4.4931;
203.7000;0.1050;4.5077;
204.0000;0.1026;4.5029;
204.3000;0.1050;4.5126;
204.6000;0.1058;4.5077;
204.9000;0.1091;4.5175;
205.2000;0.1050;4.5077;
205.5000;0.1058;4.5077;
205.8000;0.1026;4.4980;
206.1000;0.1050;4.5102;
206.4000;0.1058;4.5223;
206.7000;0.1042;4.5126;
207.0000;0.1034;4.5150;
207.3000;0.0961;4.4907;
207.6000;0.1034;4.5077;
207.9000;0.1058;4.5102;
208.2000;0.1050;4.5150;
208.5000;0.1091;4.5199;
208.8000;0.1058;4.5126;
209.1000;0.1026;4.5077;
209.4000;0.1034;4.5126;
209.7000;0.1042;4.5004;
210.0000;0.1034;4.4931;
210.3000;0.1042;4.4907;
210.6000;0.1009;4.4737;
210.9000;0.1009;4.4834;
211.2000;0.1034;4.4931;
211.5000;0.1034;4.4931;
211.8000;0.1026;4.4931;
212.1000;0.1050;4.4980;
212.4000;0.1034;4.4907;
212.7000;0.1042;4.4980;
213.0000;0.1050;4.5077;
213.3000;0.1042;4.5029;
213.6000;0.1115;4.5272;
213.9000;0.1058;4.5102;
214.2000;0.1026;4.4931;
214.5000;0.1042;4.4883;
214.8000;0.1018;4.4785;
215.1000;0.1050;4.4980;
215.4000;0.1091;4.5126;
215.7000;0.1034;4.4980;
216.0000;0.1018;4.4907;
216.3000;0.1042;4.5029;
216.6000;0.1026;4.4956;
216.9000;0.1050;4.5004;
217.2000;0.1018;4.4980;
217.5000;0.1026;4.4980;
217.8000;0.0985;4.4858;
218.1000;0.1066;4.4956;
218.4000;0.1034;4.4858;
218.7000;0.1091;4.4956;
219.0000;0.1034;4.4810;
219.3000;0.1034;4.4785;
219.6000;0.1083;4.4834;
219.9000;0.1042;4.4712;
220.2000;0.1091;4.4785;
220.5000;0.1074;4.4810;
220.8000;0.1131;4.4956;
221.1000;0.1009;4.4615;
221.4000;0.1058;4.4785;
221.7000;0.1058;4.4834;
222.0000;0.1050;4.4858;
222.3000;0.1074;4.4980;
222.6000;0.1034;4.4883;
222.9000;0.1058;4.4883;
223.2000;0.1058;4.4956;
223.5000;0.1050;4.4956;
223.8000;0.1026;4.4907;
224.1000;0.1066;4.5004;
224.4000;0.1066;4.5126;
224.7000;0.1042;4.5077;
225.0000;0.1026;4.5004;
225.3000;0.1050;4.5029;
225.6000;0.1042;4.5029;
225.9000;0.1018;4.5029;
226.2000;0.1050;4.5077;
226.5000;0.1042;4.5053;
226.8000;0.1026;4.4956;
227.1000;0.1050;4.4931;
227.4000;0.1050;4.4931;
227.7000;0.1018;4.4858;
228.0000;0.1034;4.4858;
228.3000;0.1042;4.4956;
228.6000;0.1050;4.5053;
228.9000;0.1050;4.4980;
229.2000;0.1074;4.5053;
229.5000;0.1034;4.5029;
229.8000;0.1058;4.4907;
230.1000;0.1018;4.4907;
230.4000;0.1034;4.4858;
230.7000;0.1034;4.4883;
231.0000;0.1026;4.4834;
231.3000;0.1066;4.4980;
231.6000;0.1042;4.4931;
231.9000;0.1050;4.4931;
232.2000;0.1083;4.4907;
232.5000;0.1091;4.5029;
232.8000;0.1034;4.4931;
233.1000;0.1026;4.4907;
233.4000;0.1083;4.5126;
233.7000;0.1026;4.4931;
234.0000;0.1066;4.4980;
234.3000;0.0969;4.4712;
234.6000;0.1058;4.4956;
234.9000;0.1115;4.5175;
235.2000;0.1034;4.5004;
235.5000;0.1009;4.4956;
235.8000;0.1001;4.4858;
236.1000;0.1091;4.5077;
236.4000;0.1050;4.4956;
236.7000;0.1042;4.4883;
237.0000;0.1042;4.4883;
237.3000;0.0936;4.4445;
237.6000;0.0993;4.4566;
237.9000;0.1050;4.4761;
238.2000;0.1050;4.4737;
238.5000;0.1034;4.4737;
238.8000;0.1042;4.4761;
239.1000;0.1034;4.4712;
239.4000;0.1074;4.4810;
239.7000;0.1026;4.4737;
240.0000;0.1042;4.4785;
240.3000;0.1018;4.4664;
240.6000;0.1042;4.4688;
240.9000;0.1066;4.4785;
241.2000;0.1034;4.4785;
241.5000;0.1050;4.4785;
241.8000;0.1042;4.4785;
242.1000;0.1066;4.4834;
242.4000;0.1066;4.4834;
242.7000;0.1042;4.4761;
243.0000;0.1034;4.4688;
243.3000;0.1042;4.4688;
243.6000;0.1066;4.4858;
243.9000;0.1058;4.4907;
244.2000;0.1083;4.4834;
244.5000;0.1107;4.4980;
244.8000;0.0985;4.4712;
245.1000;0.1026;4.4810;
245.4000;0.1009;4.4785;
245.7000;0.1042;4.4858;
246.0000;0.1050;4.4883;
246.3000;0.1074;4.4883;
246.6000;0.1042;4.4907;
246.9000;0.1058;4.5077;
247.2000;0.1034;4.4931;
247.5000;0.1009;4.4980;
247.8000;0.1034;4.4956;
248.1000;0.1050;4.4931;
248.4000;0.1066;4.4907;
248.7000;0.1050;4.4737;
249.0000;0.1123;4.4883;
249.3000;0.1042;4.4664;
249.6000;0.1034;4.4615;
249.9000;0.1050;4.4688;
250.2000;0.1026;4.4615;
250.5000;0.1042;4.4639;
250.8000;0.1034;4.4566;
251.1000;0.1026;4.4566;
251.4000;0.1026;4.4688;
251.7000;0.1058;4.4810;
252.0000;0.1115;4.4980;
252.3000;0.1074;4.4907;
252.6000;0.1042;4.4785;
252.9000;0.1034;4.4785;
253.2000;0.1026;4.4712;
253.5000;0.0977;4.4566;
253.8000;0.1066;4.4737;
254.1000;0.1066;4.4834;
254.4000;0.1050;4.4761;
254.7000;0.1042;4.4785;
255.0000;0.1026;4.4761;
255.3000;0.1066;4.4883;
255.6000;0.1042;4.4834;
255.9000;0.0985;4.4688;
256.2000;0.1009;4.4737;
256.5000;0.0977;4.4566;
256.8000;0.1123;4.4956;
257.1000;0.1042;4.4737;
257.4000;0.1083;4.4785;
257.7000;0.1074;4.4712;
258.0000;0.1050;4.4615;
258.3000;0.0993;4.4518;
258.6000;0.1091;4.4761;
258.9000;0.1058;4.4712;
259.2000;0.1050;4.4712;
259.5000;0.1050;4.4737;
259.8000;0.1107;4.4883;
260.1000;0.0977;4.4518;
260.4000;0.1026;4.4664;
260.7000;0.1058;4.4737;
261.0000;0.1026;4.4688;
261.3000;0.1050;4.4737;
261.6000;0.1034;4.4712;
261.9000;0.1026;4.4785;
262.2000;0.1058;4.4907;
262.5000;0.1042;4.4858;
262.8000;0.1034;4.4858;
263.1000;0.1034;4.4858;
263.4000;0.1042;4.4883;
263.7000;0.1050;4.4883;
264.0000;0.1050;4.4931;
264.3000;0.1034;4.4883;
264.6000;0.1050;4.4980;
264.9000;0.1066;4.4980;
265.2000;0.1042;4.4907;
265.5000;0.1091;4.5126;
265.8000;0.0977;4.4907;
266.1000;0.1042;4.4956;
266.4000;0.1034;4.4883;
266.7000;0.1091;4.5029;
267.0000;0.1050;4.4907;
267.3000;0.1026;4.4834;
267.6000;0.1058;4.4956;
267.9000;0.1156;4.5199;
268.2000;0.1034;4.4858;
268.5000;0.1083;4.4931;
268.8000;0.1050;4.4761;
269.1000;0.1042;4.4712;
269.4000;0.1042;4.4688;
269.7000;0.1066;4.4761;
270.0000;0.1034;4.4712;
270.3000;0.1050;4.4688;
270.6000;0.1034;4.4712;
270.9000;0.1026;4.4712;
271.2000;0.1050;4.4761;
271.5000;0.1058;4.4737;
271.8000;0.0977;4.4591;
272.1000;0.1034;4.4761;
272.4000;0.1058;4.4810;
272.7000;0.1034;4.4858;
273.0000;0.1001;4.4785;
273.3000;0.1034;4.4737;
273.6000;0.1042;4.4785;
273.9000;0.1058;4.4858;
274.2000;0.1050;4.4907;
274.5000;0.1026;4.4883;
274.8000;0.1074;4.5126;
275.1000;0.1123;4.5345;
275.4000;0.0993;4.4956;
275.7000;0.1050;4.5053;
276.0000;0.1066;4.5029;
276.3000;0.0961;4.4639;
276.6000;0.1050;4.4810;
276.9000;0.1042;4.4712;
277.2000;0.1050;4.4785;
277.5000;0.0993;4.4615;
277.8000;0.1058;4.4761;
278.1000;0.1058;4.4737;
278.4000;0.1034;4.4688;
278.7000;0.1034;4.4688;
279.0000;0.1115;4.4858;
279.3000;0.1099;4.4907;
279.6000;0.1034;4.4785;
279.9000;0.1009;4.4664;
280.2000;0.1042;4.4785;
280.5000;0.1074;4.4883;
280.8000;0.1058;4.4834;
281.1000;0.1042;4.4761;
281.4000;0.1050;4.4785;
281.7000;0.1066;4.4834;
282.0000;0.1009;4.4664;
282.3000;0.1026;4.4737;
282.6000;0.1042;4.4785;
282.9000;0.1034;4.4810;
283.2000;0.1034;4.4810;
283.5000;0.1058;4.4883;
283.8000;0.1001;4.4785;
284.1000;0.1042;4.5004;
284.4000;0.1034;4.4980;
284.7000;0.1042;4.4858;
285.0000;0.1026;4.4810;
285.3000;0.1050;4.4907;
285.6000;0.1042;4.4956;
285.9000;0.1058;4.4883;
286.2000;0.1058;4.4980;
286.5000;0.1034;4.4931;
286.8000;0.1066;4.4956;
287.1000;0.1050;4.4907;
287.4000;0.1042;4.4858;
287.7000;0.1066;4.4956;
288.0000;0.1042;4.4907;
288.3000;0.1026;4.4931;
288.6000;0.1115;4.5150;
288.9000;0.1074;4.4980;
289.2000;0.1058;4.4980;
289.5000;0.1115;4.5102;
289.8000;0.1083;4.4956;
290.1000;0.1042;4.4785;
290.4000;0.1042;4.4834;
290.7000;0.1050;4.4907;
291.0000;0.1026;4.4761;
291.3000;0.1026;4.4785;
291.6000;0.0952;4.4542;
291.9000;0.1050;4.4858;
292.2000;0.1058;4.4858;
292.5000;0.1058;4.4883;
292.8000;0.1058;4.4907;
293.1000;0.1058;4.4931;
293.4000;0.1050;4.4907;
293.7000;0.1042;4.4883;
294.0000;0.1034;4.4834;
294.3000;0.1026;4.4907;
294.6000;0.1058;4.5077;
294.9000;0.1034;4.5053;
295.2000;0.1042;4.5077;
295.5000;0.1083;4.5150;
295.8000;0.1026;4.4907;
296.1000;0.1058;4.4931;
296.4000;0.1042;4.4956;
296.7000;0.1018;4.4956;
297.0000;0.1050;4.5004;
297.3000;0.1042;4.4907;
297.6000;0.1009;4.4834;
297.9000;0.1026;4.4883;
298.2000;0.1026;4.4810;
298.5000;0.1026;4.4883;
298.8000;0.1066;4.4980;
299.1000;0.1066;4.4834;
299.4000;0.0985;4.4664;
299.7000;0.1050;4.4834;
300.0000;0.1156;4.5077;
300.3000;0.1050;4.4858;
300.6000;0.1001;4.4761;
300.9000;0.1074;4.4980;
301.2000;0.1001;4.4639;
301.5000;0.1034;4.4785;
301.8000;0.1058;4.4834;
302.1000;0.1050;4.4907;
302.4000;0.1050;4.4883;
302.7000;0.1009;4.4785;
303.0000;0.1066;4.4907;
303.3000;0.1042;4.4834;
303.6000;0.1034;4.4834;
303.9000;0.1034;4.4883;
304.2000;0.1050;4.4907;
304.5000;0.0977;4.4664;
304.8000;0.1026;4.4810;
305.1000;0.1180;4.5199;
305.4000;0.1058;4.4834;
305.7000;0.1026;4.4737;
306.0000;0.1034;4.4785;
306.3000;0.1034;4.4834;
306.6000;0.1050;4.4883;
306.9000;0.1058;4.4883;
307.2000;0.1042;4.4834;
307.5000;0.0961;4.4664;
307.8000;0.0944;4.4566;
308.1000;0.1050;4.4810;
308.4000;0.1066;4.4883;
308.7000;0.1058;4.4931;
309.0000;0.1058;4.4883;
309.3000;0.1042;4.4785;
309.6000;0.1050;4.4858;
309.9000;0.1050;4.4858;
310.2000;0.1034;4.4883;
310.5000;0.1066;4.4931;
310.8000;0.1034;4.4931;
311.1000;0.1091;4.5029;
311.4000;0.1050;4.4810;
311.7000;0.1001;4.4664;
312.0000;0.1018;4.4688;
312.3000;0.1026;4.4737;
312.6000;0.1018;4.4688;
312.9000;0.1042;4.4664;
313.2000;0.1050;4.4737;
313.5000;0.1083;4.4883;
313.8000;0.1074;4.4907;
314.1000;0.1018;4.4785;
314.4000;0.1026;4.4907;
314.7000;0.1058;4.5029;
315.0000;0.1034;4.4907;
315.3000;0.1026;4.4931;
315.6000;0.1026;4.4907;
315.9000;0.1131;4.5150;
316.2000;0.1026;4.4834;
316.5000;0.1026;4.4785;
316.8000;0.1042;4.4858;
317.1000;0.1074;4.4834;
317.4000;0.1050;4.4761;
317.7000;0.1058;4.4761;
318.0000;0.1091;4.4810;
318.3000;0.1066;4.4712;
318.6000;0.1042;4.4712;
318.9000;0.1123;4.5004;
319.2000;0.1034;4.4810;
319.5000;0.1066;4.4858;
319.8000;0.1074;4.4834;
320.1000;0.1058;4.4785;
320.4000;0.1058;4.4883;
320.7000;0.1042;4.4810;
321.0000;0.1018;4.4737;
321.3000;0.1050;4.4834;
321.6000;0.1083;4.4858;
321.9000;0.1050;4.4834;
322.2000;0.1042;4.4785;
322.5000;0.1058;4.4810;
322.8000;0.1050;4.4664;
323.1000;0.1050;4.4639;
323.4000;0.1083;4.4737;
323.7000;0.1050;4.4712;
324.0000;0.1009;4.4688;
324.3000;0.1034;4.4737;
324.6000;0.1018;4.4785;
324.9000;0.1050;4.4834;
325.2000;0.1026;4.4810;
325.5000;0.0944;4.4615;
325.8000;0.1050;4.4931;
326.1000;0.1050;4.4956;
326.4000;0.1042;4.4956;
326.7000;0.1066;4.5102;
327.0000;0.1042;4.5029;
327.3000;0.1050;4.5077;
327.6000;0.1034;4.5053;
327.9000;0.1205;4.5564;
328.2000;0.1074;4.5126;
328.5000;0.1091;4.5077;
328.8000;0.1066;4.4931;
329.1000;0.1009;4.4858;
329.4000;0.1034;4.4858;
329.7000;0.1009;4.4737;
330.0000;0.1066;4.4883;
330.3000;0.1058;4.4810;
330.6000;0.0993;4.4591;
330.9000;0.1042;4.4688;
331.2000;0.1066;4.4712;
331.5000;0.1034;4.4688;
331.8000;0.1074;4.4688;
332.1000;0.0969;4.4493;
332.4000;0.1050;4.4834;
332.7000;0.1083;4.4931;
333.0000;0.1034;4.4883;
333.3000;0.1034;4.4980;
333.6000;0.1050;4.5077;
333.9000;0.1034;4.5004;
334.2000;0.1042;4.4956;
334.5000;0.1074;4.5150;
334.8000;0.1050;4.5102;
335.1000;0.1042;4.5053;
335.4000;0.1026;4.4980;
335.7000;0.1001;4.4931;
336.0000;0.1042;4.4956;
336.3000;0.1107;4.5126;
336.6000;0.1018;4.4810;
336.9000;0.1018;4.4858;
337.2000;0.1050;4.4980;
337.5000;0.1058;4.5053;
337.8000;0.1058;4.5029;
338.1000;0.0985;4.4834;
338.4000;0.1009;4.4956;
338.7000;0.1074;4.5175;
339.0000;0.0993;4.4980;
339.3000;0.1018;4.5053;
339.6000;0.1066;4.5150;
339.9000;0.0977;4.4931;
340.2000;0.1042;4.5029;
340.5000;0.1026;4.4931;
340.8000;0.1001;4.4883;
341.1000;0.1009;4.4858;
341.4000;0.1042;4.4956;
341.7000;0.1050;4.4956;
342.0000;0.1074;4.5077;
342.3000;0.1066;4.5004;
342.6000;0.1042;4.4931;
342.9000;0.1034;4.4956;
343.2000;0.1026;4.4883;
343.5000;0.1074;4.4980;
343.8000;0.1050;4.4931;
344.1000;0.1009;4.4785;
344.4000;0.1018;4.4834;
344.7000;0.1042;4.4907;
345.0000;0.1164;4.5223;
345.3000;0.1001;4.4907;
345.6000;0.1058;4.5029;
345.9000;0.1026;4.4834;
346.2000;0.1066;4.4931;
346.5000;0.1034;4.4834;
346.8000;0.1042;4.4931;
347.1000;0.1026;4.4956;
347.4000;0.0985;4.4907;
347.7000;0.1026;4.5004;
348.0000;0.1018;4.5053;
348.3000;0.0952;4.4883;
348.6000;0.1050;4.5223;
348.9000;0.1042;4.5150;
349.2000;0.1026;4.5150;
349.5000;0.0847;4.4639;
349.8000;0.1099;4.5248;
350.1000;0.0920;4.4761;
350.4000;0.1001;4.5004;
350.7000;0.1001;4.5004;
351.0000;0.1042;4.5077;
351.3000;0.1050;4.5126;
351.6000;0.1066;4.5150;
351.9000;0.1034;4.5053;
352.2000;0.1018;4.5004;
352.5000;0.1009;4.4931;
352.8000;0.1050;4.5077;
353.1000;0.1034;4.5004;
353.4000;0.1018;4.4956;
353.7000;0.1091;4.5175;
354.0000;0.1026;4.5004;
354.3000;0.1018;4.4931;
354.6000;0.0977;4.4810;
354.9000;0.0952;4.4639;
355.2000;0.1091;4.4956;
355.5000;0.1042;4.4785;
355.8000;0.1009;4.4761;
356.1000;0.1042;4.4883;
356.4000;0.1091;4.4980;
356.7000;0.0993;4.4712;
357.0000;0.1026;4.4785;
357.3000;0.1050;4.4785;
357.6000;0.1058;4.4761;
357.9000;0.1042;4.4712;
358.2000;0.1026;4.4639;
358.5000;0.1034;4.4712;
358.8000;0.1042;4.4785;
359.1000;0.1026;4.4785;
359.4000;0.1009;4.4883;
359.7000;0.1026;4.4737;
360.0000;0.1050;4.4785;
360.3000;0.1034;4.4761;
360.6000;0.1018;4.4688;
360.9000;0.1034;4.4712;
361.2000;0.1042;4.4737;
361.5000;0.1034;4.4761;
361.8000;0.1050;4.4712;
362.1000;0.1050;4.4785;
362.4000;0.1034;4.4810;
362.7000;0.1034;4.4834;
363.0000;0.1058;4.4980;
363.3000;0.1026;4.4907;
363.6000;0.1018;4.4931;
363.9000;0.1034;4.4980;
364.2000;0.1042;4.5053;
364.5000;0.1042;4.5126;
364.8000;0.1050;4.5077;
365.1000;0.1001;4.4883;
365.4000;0.1018;4.4931;
365.7000;0.1034;4.4956;
366.0000;0.1018;4.4931;
366.3000;0.1009;4.4883;
366.6000;0.1018;4.4956;
366.9000;0.1034;4.4956;
367.2000;0.1018;4.4883;
367.5000;0.1091;4.5053;
367.8000;0.1009;4.4858;
368.1000;0.1018;4.4858;
368.4000;0.1018;4.4956;
368.7000;0.1042;4.5102;
369.0000;0.1058;4.5126;
369.3000;0.1091;4.5175;
369.6000;0.1034;4.5102;
369.9000;0.1018;4.5077;
370.2000;0.1042;4.5077;
370.5000;0.1026;4.5029;
370.8000;0.1026;4.4980;
371.1000;0.1034;4.4956;
371.4000;0.1083;4.5102;
371.7000;0.1026;4.4956;
372.0000;0.1034;4.5053;
372.3000;0.1026;4.5004;
372.6000;0.1050;4.5077;
372.9000;0.1058;4.5053;
373.2000;0.1042;4.5053;
373.5000;0.1107;4.5175;
373.8000;0.1050;4.5029;
374.1000;0.1042;4.4980;
374.4000;0.1050;4.5029;
374.7000;0.1026;4.4956;
375.0000;0.1026;4.4907;
375.3000;0.1026;4.4883;
375.6000;0.0969;4.4931;
375.9000;0.1042;4.4980;
376.2000;0.1026;4.4980;
376.5000;0.0912;4.4639;
376.8000;0.1066;4.4956;
377.1000;0.1042;4.4956;
377.4000;0.1009;4.4810;
377.7000;0.1018;4.4834;
378.0000;0.1034;4.4931;
378.3000;0.1026;4.4980;
378.6000;0.1058;4.5126;
378.9000;0.1074;4.5102;
379.2000;0.1042;4.5004;
379.5000;0.1058;4.5053;
379.8000;0.1026;4.4931;
380.1000;0.0993;4.4931;
380.4000;0.1042;4.4980;
380.7000;0.1042;4.4980;
381.0000;0.1034;4.5102;
381.3000;0.1034;4.4931;
381.6000;0.1042;4.4980;
381.9000;0.1107;4.5102;
382.2000;0.1042;4.4907;
382.5000;0.1034;4.4956;
382.8000;0.1042;4.4956;
383.1000;0.1050;4.4956;
383.4000;0.1066;4.5004;
383.7000;0.1091;4.5004;
384.0000;0.1034;4.4931;
384.3000;0.1066;4.5053;
384.6000;0.1026;4.4931;
384.9000;0.1042;4.4907;
385.2000;0.1034;4.4858;
385.5000;0.1042;4.4810;
385.8000;0.1034;4.4858;
386.1000;0.1026;4.4858;
386.4000;0.1018;4.4712;
386.7000;0.1050;4.4712;
387.0000;0.1058;4.4639;
387.3000;0.1074;4.4664;
387.6000;0.1018;4.4591;
387.9000;0.1050;4.4810;
388.2000;0.1042;4.4883;
388.5000;0.1034;4.4883;
388.8000;0.1018;4.4883;
389.1000;0.1034;4.4980;
389.4000;0.1034;4.4980;
389.7000;0.1034;4.5029;
390.0000;0.1009;4.5029;
390.3000;0.1050;4.5102;
390.6000;0.1074;4.5102;
390.9000;0.1083;4.5053;
391.2000;0.1034;4.4931;
391.5000;0.1009;4.4883;
391.8000;0.1050;4.4907;
392.1000;0.1042;4.4883;
392.4000;0.1083;4.5029;
392.7000;0.1058;4.4907;
393.0000;0.1115;4.5004;
393.3000;0.1001;4.4737;
393.6000;0.1026;4.4737;
393.9000;0.1018;4.4712;
394.2000;0.1042;4.4834;
394.5000;0.1099;4.4980;
394.8000;0.1042;4.4956;
395.1000;0.1066;4.4980;
395.4000;0.1026;4.4956;
395.7000;0.1026;4.4931;
396.0000;0.1034;4.5004;
396.3000;0.0895;4.4688;
396.6000;0.1148;4.5394;
396.9000;0.1066;4.5223;
397.2000;0.1009;4.5029;
397.5000;0.1131;4.5272;
397.8000;0.1018;4.4931;
398.1000;0.1123;4.5223;
398.4000;0.1050;4.4980;
398.7000;0.1034;4.4931;
399.0000;0.1034;4.4883;
399.3000;0.1042;4.5029;
399.6000;0.0920;4.4712;
399.9000;0.0920;4.4615;
400.2000;0.1018;4.4907;
400.5000;0.1026;4.4980;
400.8000;0.1042;4.4931;
401.1000;0.1050;4.4834;
401.4000;0.1042;4.4883;
401.7000;0.1050;4.4907;
402.0000;0.1058;4.4980;
402.3000;0.1018;4.5004;
402.6000;0.1026;4.4883;
402.9000;0.1009;4.4834;
403.2000;0.1050;4.4907;
403.5000;0.1042;4.4931;
403.8000;0.1034;4.4858;
404.1000;0.1026;4.4907;
404.4000;0.1042;4.4858;
404.7000;0.1188;4.5394;
405.0000;0.1058;4.5077;
405.3000;0.1026;4.4980;
405.6000;0.0969;4.4785;
405.9000;0.0969;4.4785;
406.2000;0.0977;4.4834;
406.5000;0.1123;4.5175;
406.8000;0.1001;4.4858;
407.1000;0.1050;4.4907;
407.4000;0.1050;4.5004;
407.7000;0.1042;4.4980;
408.0000;0.1083;4.5150;
408.3000;0.1050;4.5029;
408.6000;0.1115;4.5223;
408.9000;0.1034;4.5053;
409.2000;0.1050;4.5126;
409.5000;0.1050;4.5175;
409.8000;0.1066;4.5223;
410.1000;0.1050;4.5199;
410.4000;0.1026;4.5102;
410.7000;0.1058;4.5248;
411.0000;0.1034;4.5248;
411.3000;0.1034;4.5223;
411.6000;0.1091;4.5369;
411.9000;0.1034;4.5150;
412.2000;0.1009;4.5150;
412.5000;0.1050;4.5175;
412.8000;0.1026;4.5102;
413.1000;0.1050;4.5199;
413.4000;0.1058;4.5272;
413.7000;0.1050;4.5199;
414.0000;0.1050;4.5248;
414.3000;0.1050;4.5175;
414.6000;0.1042;4.5126;
414.9000;0.1042;4.5126;
415.2000;0.1026;4.5053;
415.5000;0.1042;4.5053;
415.8000;0.1009;4.4931;
416.1000;0.1050;4.4956;
416.4000;0.1042;4.4956;
416.7000;0.1083;4.5077;
417.0000;0.1026;4.5004;
417.3000;0.1009;4.4907;
417.6000;0.1066;4.4931;
417.9000;0.1074;4.5004;
418.2000;0.1034;4.5004;
418.5000;0.1050;4.5077;
418.8000;0.0993;4.4931;
419.1000;0.1034;4.4956;
419.4000;0.1018;4.4907;
419.7000;0.1018;4.4956;
420.0000;0.1026;4.5004;
420.3000;0.1058;4.5029;
420.6000;0.1115;4.5150;
420.9000;0.1091;4.5077;
421.2000;0.1050;4.4956;
421.5000;0.1058;4.5102;
421.8000;0.1034;4.5077;
422.1000;0.0871;4.4591;
422.4000;0.1058;4.5126;
422.7000;0.1042;4.5102;
423.0000;0.1009;4.5029;
423.3000;0.1026;4.5077;
423.6000;0.1018;4.5053;
423.9000;0.0993;4.4931;
424.2000;0.1009;4.5004;
424.5000;0.1034;4.5102;
424.8000;0.1050;4.5077;
425.1000;0.1050;4.5053;
425.4000;0.1034;4.4980;
425.7000;0.1050;4.5029;
426.0000;0.1034;4.4956;
426.3000;0.1034;4.4931;
426.6000;0.1083;4.5102;
426.9000;0.1034;4.4980;
427.2000;0.1066;4.4956;
427.5000;0.1026;4.4834;
427.8000;0.1058;4.4931;
428.1000;0.1050;4.4931;
428.4000;0.1050;4.5004;
428.7000;0.1042;4.5053;
429.0000;0.1050;4.5004;
429.3000;0.1050;4.5029;
429.6000;0.0961;4.4761;
429.9000;0.1042;4.4956;
430.2000;0.1001;4.4907;
430.5000;0.0961;4.4761;
430.8000;0.1018;4.4956;
431.1000;0.1066;4.5102;
431.4000;0.1083;4.5102;
431.7000;0.1058;4.5077;
432.0000;0.1034;4.4980;
432.3000;0.1042;4.5077;
432.6000;0.1058;4.5126;
432.9000;0.1058;4.5126;
433.2000;0.1050;4.5077;
433.5000;0.1001;4.4956;
433.8000;0.1042;4.5029;
434.1000;0.1050;4.5029;
434.4000;0.1026;4.5077;
434.7000;0.1026;4.5077;
435.0000;0.1042;4.5150;
435.3000;0.1018;4.5102;
435.6000;0.1034;4.5102;
435.9000;0.1074;4.5102;
436.2000;0.1034;4.5053;
436.5000;0.1042;4.5126;
436.8000;0.0961;4.5029;
437.1000;0.1050;4.5223;
437.4000;0.1050;4.5223;
437.7000;0.1066;4.5223;
438.0000;0.1107;4.5345;
438.3000;0.1050;4.5126;
438.6000;0.1058;4.5102;
438.9000;0.1058;4.5077;
439.2000;0.1018;4.4907;
439.5000;0.1050;4.4980;
439.8000;0.1034;4.4956;
440.1000;0.1034;4.4956;
440.4000;0.1115;4.5126;
440.7000;0.0985;4.4834;
441.0000;0.1018;4.5077;
441.3000;0.1099;4.5223;
441.6000;0.1050;4.5053;
441.9000;0.1074;4.5077;
442.2000;0.1018;4.4956;
442.5000;0.1091;4.5102;
442.8000;0.1058;4.5004;
443.1000;0.1026;4.4858;
443.4000;0.1026;4.4931;
443.7000;0.1018;4.4858;
444.0000;0.1009;4.4712;
444.3000;0.1042;4.4907;
444.6000;0.1115;4.5126;
444.9000;0.1042;4.4956;
445.2000;0.1050;4.5029;
445.5000;0.0944;4.4664;
445.8000;0.1034;4.4980;
446.1000;0.1042;4.4980;
446.4000;0.1058;4.5053;
446.7000;0.1050;4.5053;
447.0000;0.1188;4.5394;
447.3000;0.1042;4.5053;
447.6000;0.1001;4.4931;
447.9000;0.1042;4.4980;
448.2000;0.1034;4.5029;
448.5000;0.1034;4.4980;
448.8000;0.1066;4.5029;
449.1000;0.1018;4.4980;
449.4000;0.1066;4.5102;
449.7000;0.1058;4.5126;
450.0000;0.1091;4.5296;
450.3000;0.1042;4.5102;
450.6000;0.1042;4.5004;
450.9000;0.1058;4.5077;
451.2000;0.1042;4.5029;
451.5000;0.1050;4.5102;
451.8000;0.1066;4.5223;
452.1000;0.1050;4.5199;
452.4000;0.1074;4.5272;
452.7000;0.1066;4.5248;
453.0000;0.1050;4.5248;
453.3000;0.0977;4.5077;
453.6000;0.1058;4.5272;
453.9000;0.1050;4.5199;
454.2000;0.1099;4.5223;
454.5000;0.1058;4.5126;
454.8000;0.1018;4.5102;
455.1000;0.1042;4.5199;
455.4000;0.1050;4.5150;
455.7000;0.1026;4.5029;
456.0000;0.1026;4.5102;
456.3000;0.1058;4.5102;
456.6000;0.1050;4.5102;
456.9000;0.1026;4.5053;
457.2000;0.1034;4.5029;
457.5000;0.1034;4.5077;
457.8000;0.1034;4.5004;
458.1000;0.1066;4.5004;
458.4000;0.1034;4.4858;
458.7000;0.1042;4.4980;
459.0000;0.1058;4.4931;
459.3000;0.1050;4.4956;
459.6000;0.1058;4.4858;
459.9000;0.1042;4.4785;
460.2000;0.1042;4.4883;
460.5000;0.1018;4.4980;
460.8000;0.1050;4.5102;
461.1000;0.1001;4.4931;
461.4000;0.1083;4.5223;
461.7000;0.1042;4.5126;
462.0000;0.1058;4.5077;
462.3000;0.1042;4.4980;
462.6000;0.1009;4.4907;
462.9000;0.1034;4.4956;
463.2000;0.1034;4.4931;
463.5000;0.1034;4.4883;
463.8000;0.1034;4.4858;
464.1000;0.1050;4.4883;
464.4000;0.0879;4.4347;
464.7000;0.1018;4.4712;
465.0000;0.1026;4.4785;
465.3000;0.1042;4.4956;
465.6000;0.1050;4.5004;
465.9000;0.1026;4.4980;
466.2000;0.1099;4.5053;
466.5000;0.1034;4.4907;
466.8000;0.1066;4.4980;
467.1000;0.1058;4.5029;
467.4000;0.1026;4.4980;
467.7000;0.1042;4.4956;
468.0000;0.0993;4.4737;
468.3000;0.1050;4.4956;
468.6000;0.1034;4.5029;
468.9000;0.1066;4.5126;
469.2000;0.1018;4.5053;
469.5000;0.1034;4.4980;
469.8000;0.1018;4.4834;
470.1000;0.1050;4.4907;
470.4000;0.1083;4.4980;
470.7000;0.1034;4.4931;
471.0000;0.1083;4.5126;
471.3000;0.1034;4.5053;
471.6000;0.1050;4.5053;
471.9000;0.1074;4.5150;
472.2000;0.1066;4.5102;
472.5000;0.1042;4.5004;
472.8000;0.1034;4.5029;
473.1000;0.1042;4.5126;
473.4000;0.1018;4.5077;
473.7000;0.1042;4.5150;
474.0000;0.1009;4.5029;
474.3000;0.1042;4.5077;
474.6000;0.1058;4.5029;
474.9000;0.0952;4.4639;
475.2000;0.1018;4.4834;
475.5000;0.1026;4.4907;
475.8000;0.1074;4.4980;
476.1000;0.1042;4.4931;
476.4000;0.1066;4.5102;
476.7000;0.0928;4.4737;
477.0000;0.1009;4.4931;
477.3000;0.1042;4.5053;
477.6000;0.1058;4.5126;
477.9000;0.1074;4.5199;
478.2000;0.1050;4.5004;
478.5000;0.1042;4.4980;
478.8000;0.1034;4.5004;
479.1000;0.1026;4.5004;
479.4000;0.1050;4.5077;
479.7000;0.1026;4.5004;
480.0000;0.1050;4.5077;
480.3000;0.1058;4.5053;
480.6000;0.1026;4.4907;
480.9000;0.0985;4.4761;
481.2000;0.1018;4.4858;
481.5000;0.1042;4.4907;
481.8000;0.1026;4.5029;
482.1000;0.1066;4.5150;
482.4000;0.1042;4.5150;
482.7000;0.1018;4.5053;
483.0000;0.1058;4.5223;
483.3000;0.1050;4.5175;
483.6000;0.1050;4.5150;
483.9000;0.1018;4.5004;
484.2000;0.1001;4.4907;
484.5000;0.1026;4.5004;
484.8000;0.1026;4.5029;
485.1000;0.1034;4.5150;
485.4000;0.1001;4.5102;
485.7000;0.1026;4.5102;
486.0000;0.1042;4.5150;
486.3000;0.1083;4.5272;
486.6000;0.1026;4.5102;
486.9000;0.1066;4.5223;
487.2000;0.1034;4.5077;
487.5000;0.1018;4.5029;
487.8000;0.1034;4.5077;
488.1000;0.1066;4.5199;
488.4000;0.1050;4.5199;
488.7000;0.1018;4.5102;
489.0000;0.1026;4.5077;
489.3000;0.1034;4.5223;
489.6000;0.1034;4.5223;
489.9000;0.1034;4.5296;
490.2000;0.1058;4.5296;
490.5000;0.1131;4.5564;
490.8000;0.1026;4.5175;
491.1000;0.1083;4.5248;
491.4000;0.1066;4.5223;
491.7000;0.1042;4.5199;
492.0000;0.1058;4.5223;
492.3000;0.1091;4.5467;
492.6000;0.0977;4.5175;
492.9000;0.1066;4.5321;
493.2000;0.1018;4.5248;
493.5000;0.0977;4.5150;
493.8000;0.1034;4.5248;
494.1000;0.1034;4.5199;
494.4000;0.1058;4.5199;
494.7000;0.1026;4.5126;
495.0000;0.1042;4.5102;
495.3000;0.1026;4.5126;
495.6000;0.1050;4.5077;
495.9000;0.1042;4.5126;
496.2000;0.1034;4.5126;
496.5000;0.1058;4.5102;
496.8000;0.1026;4.4980;
497.1000;0.1042;4.4956;
497.4000;0.1050;4.4956;
497.7000;0.1001;4.4883;
498.0000;0.1058;4.4980;
498.3000;0.1034;4.4907;
498.6000;0.1107;4.5150;
498.9000;0.0985;4.4712;
499.2000;0.1018;4.4834;
499.5000;0.1050;4.4931;
499.8000;0.1026;4.4834;
500.1000;0.1034;4.4834;
500.4000;0.1018;4.4810;
500.7000;0.1115;4.4980;
501.0000;0.1058;4.4834;
501.3000;0.1058;4.4810;
501.6000;0.1058;4.4810;
501.9000;0.1034;4.4688;
502.2000;0.1058;4.4712;
502.5000;0.1042;4.4737;
502.8000;0.1050;4.4834;
503.1000;0.1050;4.4761;
503.4000;0.1058;4.4858;
503.7000;0.1042;4.4858;
504.0000;0.1009;4.4785;
504.3000;0.1018;4.4834;
504.6000;0.1001;4.4834;
504.9000;0.1034;4.4883;
505.2000;0.1034;4.4931;
505.5000;0.1034;4.4931;
505.8000;0.1050;4.4931;
506.1000;0.1058;4.4883;
506.4000;0.1034;4.4883;
506.7000;0.1034;4.4883;
507.0000;0.1050;4.4956;
507.3000;0.1058;4.4956;
507.6000;0.1050;4.4931;
507.9000;0.1042;4.4883;
508.2000;0.1034;4.4883;
508.5000;0.1066;4.4931;
508.8000;0.1131;4.5126;
509.1000;0.1034;4.4810;
509.4000;0.1099;4.5029;
509.7000;0.1050;4.4931;
510.0000;0.1026;4.4858;
510.3000;0.1074;4.4980;
510.6000;0.1058;4.4883;
510.9000;0.1042;4.4956;
511.2000;0.1050;4.4956;
511.5000;0.1066;4.5077;
511.8000;0.1042;4.5029;
512.1000;0.1058;4.5029;
512.4000;0.0961;4.4761;
512.7000;0.1131;4.5175;
513.0000;0.1091;4.5150;
513.3000;0.1042;4.5126;
513.6000;0.1083;4.5199;
513.9000;0.1026;4.5053;
514.2000;0.1058;4.5248;
514.5000;0.1026;4.5150;
514.8000;0.1042;4.5223;
515.1000;0.0961;4.4956;
515.4000;0.1083;4.5199;
515.7000;0.1009;4.5029;
516.0000;0.1042;4.5102;
516.3000;0.1042;4.5126;
516.6000;0.1091;4.5248;
516.9000;0.1042;4.5150;
517.2000;0.1042;4.5150;
517.5000;0.1050;4.5175;
517.8000;0.1042;4.5150;
518.1000;0.1115;4.5321;
518.4000;0.1042;4.5126;
518.7000;0.1050;4.5175;
519.0000;0.1026;4.5150;
519.3000;0.1066;4.5248;
519.6000;0.1042;4.5223;
519.9000;0.1018;4.5248;
520.2000;0.1050;4.5223;
520.5000;0.1026;4.5126;
520.8000;0.1066;4.5150;
521.1000;0.1026;4.5126;
521.4000;0.1026;4.5126;
521.7000;0.1058;4.5150;
522.0000;0.1034;4.5102;
522.3000;0.1066;4.5150;
522.6000;0.1099;4.5272;
522.9000;0.1066;4.5126;
523.2000;0.1034;4.5004;
523.5000;0.1050;4.5053;
523.8000;0.0993;4.4785;
524.1000;0.1018;4.4858;
524.4000;0.1018;4.4931;
524.7000;0.0985;4.4907;
525.0000;0.1042;4.5004;
525.3000;0.1050;4.4980;
525.6000;0.1018;4.4931;
525.9000;0.0993;4.4858;
526.2000;0.1034;4.4956;
526.5000;0.1058;4.5004;
526.8000;0.1042;4.5029;
527.1000;0.1058;4.4980;
527.4000;0.1058;4.5029;
527.7000;0.1074;4.5053;
528.0000;0.1050;4.5029;
528.3000;0.1001;4.4858;
528.6000;0.1034;4.5029;
528.9000;0.1034;4.5053;
529.2000;0.1026;4.5053;
529.5000;0.1009;4.4980;
529.8000;0.1034;4.5004;
530.1000;0.1034;4.4980;
530.4000;0.1001;4.4931;
530.7000;0.1026;4.5126;
531.0000;0.1042;4.5102;
531.3000;0.1018;4.5126;
531.6000;0.1074;4.5248;
531.9000;0.1042;4.5126;
532.2000;0.1050;4.5175;
532.5000;0.1042;4.5029;
532.8000;0.1026;4.4980;
533.1000;0.1042;4.4931;
533.4000;0.1042;4.4931;
533.7000;0.1018;4.4907;
534.0000;0.1066;4.5126;
534.3000;0.1180;4.5443;
534.6000;0.1026;4.4980;
534.9000;0.1050;4.5102;
535.2000;0.1034;4.5053;
535.5000;0.1034;4.5077;
535.8000;0.1107;4.5223;
536.1000;0.1050;4.5053;
536.4000;0.0985;4.4834;
536.7000;0.1050;4.5199;
537.0000;0.1131;4.5516;
537.3000;0.1107;4.5345;
537.6000;0.0928;4.4737;
537.9000;0.1107;4.5175;
538.2000;0.1042;4.4956;
538.5000;0.0985;4.4712;
538.8000;0.1026;4.4785;
539.1000;0.1083;4.5004;
539.4000;0.1042;4.4834;
539.7000;0.1042;4.4785;
540.0000;0.0985;4.4591;
540.3000;0.1034;4.4688;
540.6000;0.0977;4.4493;
540.9000;0.1018;4.4664;
541.2000;0.1042;4.4664;
541.5000;0.1058;4.4761;
541.8000;0.1058;4.4834;
542.1000;0.1050;4.4858;
542.4000;0.1009;4.4761;
542.7000;0.1042;4.4834;
543.0000;0.1034;4.4907;
543.3000;0.1018;4.4810;
543.6000;0.1034;4.4858;
543.9000;0.1074;4.4931;
544.2000;0.1042;4.4858;
544.5000;0.1058;4.4980;
544.8000;0.1042;4.4883;
545.1000;0.1026;4.4834;
545.4000;0.1058;4.4907;
545.7000;0.0977;4.4712;
546.0000;0.1026;4.4810;
546.3000;0.1026;4.4834;
546.6000;0.1018;4.4785;
546.9000;0.1009;4.4737;
547.2000;0.1066;4.4907;
547.5000;0.1026;4.4810;
547.8000;0.0912;4.4420;
548.1000;0.1026;4.4785;
548.4000;0.1042;4.4858;
548.7000;0.1034;4.4858;
549.0000;0.1042;4.4931;
549.3000;0.1026;4.4907;
549.6000;0.1066;4.4956;
549.9000;0.1050;4.4834;
550.2000;0.1034;4.4810;
550.5000;0.1058;4.4907;
550.8000;0.1050;4.4931;
551.1000;0.1026;4.5029;
551.4000;0.1018;4.4980;
551.7000;0.1026;4.4956;
552.0000;0.1066;4.5102;
552.3000;0.1034;4.4980;
552.6000;0.1042;4.5004;
552.9000;0.1050;4.5053;
553.2000;0.1066;4.5102;
553.5000;0.1042;4.5053;
553.8000;0.1034;4.5029;
554.1000;0.1034;4.5029;
554.4000;0.1050;4.4980;
554.7000;0.1026;4.4907;
555.0000;0.1026;4.4858;
555.3000;0.0985;4.4810;
555.6000;0.1042;4.4980;
555.9000;0.1026;4.4883;
556.2000;0.1050;4.4907;
556.5000;0.1074;4.4980;
556.8000;0.1050;4.4980;
557.1000;0.1066;4.4980;
557.4000;0.0969;4.4712;
557.7000;0.1034;4.4883;
558.0000;0.1058;4.5029;
558.3000;0.1066;4.4980;
558.6000;0.1058;4.4980;
558.9000;0.1042;4.4980;
559.2000;0.1026;4.4980;
559.5000;0.1026;4.4956;
559.8000;0.1018;4.4931;
560.1000;0.1026;4.4883;
560.4000;0.1115;4.5077;
560.7000;0.1001;4.4712;
561.0000;0.1050;4.4883;
561.3000;0.0944;4.4639;
561.6000;0.1083;4.4931;
561.9000;0.1083;4.5004;
562.2000;0.1009;4.4858;
562.5000;0.0969;4.4688;
562.8000;0.0961;4.4688;
563.1000;0.1018;4.4883;
563.4000;0.1050;4.5053;
563.7000;0.1034;4.4980;
564.0000;0.1042;4.5029;
564.3000;0.1034;4.4980;
564.6000;0.1058;4.5102;
564.9000;0.1058;4.5126;
565.2000;0.0993;4.4931;
565.5000;0.1009;4.4931;
565.8000;0.1074;4.5077;
566.1000;0.1026;4.4956;
566.4000;0.1042;4.4931;
566.7000;0.1026;4.4956;
567.0000;0.1050;4.4907;
567.3000;0.1026;4.4907;
567.6000;0.1042;4.4956;
567.9000;0.1066;4.5077;
568.2000;0.1042;4.4980;
568.5000;0.1034;4.4956;
568.8000;0.1026;4.4907;
569.1000;0.1042;4.4907;
569.4000;0.1026;4.4858;
569.7000;0.1042;4.4931;
570.0000;0.1042;4.4931;
570.3000;0.1026;4.4907;
570.6000;0.1050;4.5004;
570.9000;0.1001;4.4858;
571.2000;0.1042;4.4931;
571.5000;0.1058;4.5029;
571.8000;0.0961;4.4761;
572.1000;0.1066;4.5102;
572.4000;0.1026;4.5029;
572.7000;0.1050;4.5102;
573.0000;0.1050;4.5102;
573.3000;0.1050;4.5004;
573.6000;0.1042;4.4907;
573.9000;0.1034;4.4931;
574.2000;0.1018;4.4980;
574.5000;0.1026;4.4883;
574.8000;0.1034;4.4931;
575.1000;0.1018;4.4810;
575.4000;0.1042;4.4858;
575.7000;0.1026;4.4785;
576.0000;0.1042;4.4858;
576.3000;0.1018;4.4737;
576.6000;0.1034;4.4810;
576.9000;0.1091;4.4980;
577.2000;0.1050;4.4931;
577.5000;0.1066;4.5102;
577.8000;0.0928;4.4688;
578.1000;0.1050;4.5102;
578.4000;0.1026;4.5077;
578.7000;0.1026;4.5053;
579.0000;0.1009;4.4980;
579.3000;0.1164;4.5345;
579.6000;0.1026;4.4931;
579.9000;0.1058;4.5077;
580.2000;0.1042;4.4956;
580.5000;0.1026;4.4956;
580.8000;0.1026;4.4980;
581.1000;0.1050;4.4980;
581.4000;0.1058;4.4980;
581.7000;0.1018;4.4810;
582.0000;0.1050;4.4883;
582.3000;0.0920;4.4518;
582.6000;0.0928;4.4542;
582.9000;0.1042;4.4785;
583.2000;0.1042;4.4858;
583.5000;0.1026;4.4883;
583.8000;0.1042;4.4907;
584.1000;0.1034;4.4907;
584.4000;0.1074;4.5199;
584.7000;0.0961;4.4858;
585.0000;0.1034;4.5004;
585.3000;0.1034;4.4980;
585.6000;0.1026;4.4980;
585.9000;0.1042;4.4907;
586.2000;0.1066;4.5053;
586.5000;0.1018;4.4980;
586.8000;0.0879;4.4591;
587.1000;0.1050;4.4980;
587.4000;0.0952;4.4737;
587.7000;0.1115;4.5077;
588.0000;0.1042;4.4980;
588.3000;0.1058;4.5053;
588.6000;0.0993;4.4956;
588.9000;0.1042;4.4956;
589.2000;0.1042;4.5004;
589.5000;0.1042;4.4956;
589.8000;0.1034;4.4931;
590.1000;0.1042;4.4980;
590.4000;0.1042;4.5029;
590.7000;0.1018;4.5029;
591.0000;0.1026;4.4980;
591.3000;0.1066;4.4956;
591.6000;0.1042;4.4907;
591.9000;0.1026;4.4810;
592.2000;0.1042;4.4858;
592.5000;0.1074;4.4956;
592.8000;0.1042;4.4883;
593.1000;0.1034;4.4883;
593.4000;0.1042;4.4956;
593.7000;0.1131;4.5223;
594.0000;0.1074;4.5126;
594.3000;0.1026;4.5077;
594.6000;0.1042;4.5053;
594.9000;0.0936;4.4810;
595.2000;0.1042;4.5029;
595.5000;0.1034;4.4980;
595.8000;0.1058;4.5053;
596.1000;0.1050;4.5077;
596.4000;0.1034;4.5029;
596.7000;0.1058;4.5029;
597.0000;0.1009;4.4858;
597.3000;0.1042;4.4980;
597.6000;0.1034;4.4956;
597.9000;0.1066;4.5004;
598.2000;0.1050;4.4980;
598.5000;0.1042;4.4956;
598.8000;0.1074;4.5175;
599.1000;0.1042;4.5150;
599.4000;0.1034;4.5126;
599.7000;0.1050;4.5029;
600.0000;0.1042;4.4931;
600.3000;0.1026;4.4785;
600.6000;0.1034;4.4834;
600.9000;0.0961;4.4518;
601.2000;0.1050;4.4615;
601.5000;0.1001;4.4518;
601.8000;0.0952;4.4274;
602.1000;0.1001;4.4372;
602.4000;0.1018;4.4372;
602.7000;0.1009;4.4250;
603.0000;0.1001;4.4079;
603.3000;0.0985;4.3933;
603.6000;0.0993;4.3885;
603.9000;0.0993;4.3933;
604.2000;0.0977;4.3885;
604.5000;0.0969;4.3860;
604.8000;0.0961;4.3763;
605.1000;0.0952;4.3666;
605.4000;0.0969;4.3739;
605.7000;0.0952;4.3885;
606.0000;0.0985;4.3958;
606.3000;0.0920;4.3739;
606.6000;0.0961;4.3836;
606.9000;0.0969;4.3860;
607.2000;0.0952;4.3860;
607.5000;0.0936;4.3812;
607.8000;0.0969;4.3787;
608.1000;0.0969;4.3641;
608.4000;0.0895;4.3544;
608.7000;0.0904;4.3617;
609.0000;0.0936;4.3714;
609.3000;0.0969;4.3763;
609.6000;0.0952;4.3690;
609.9000;0.0944;4.3666;
610.2000;0.0904;4.3471;
610.5000;0.0887;4.3374;
610.8000;0.0952;4.3568;
611.1000;0.0928;4.3666;
611.4000;0.0936;4.3690;
611.7000;0.0879;4.3641;
612.0000;0.0904;4.3714;
612.3000;0.0936;4.3690;
612.6000;0.0912;4.3666;
612.9000;0.0920;4.3641;
613.2000;0.0904;4.3641;
613.5000;0.0904;4.3617;
613.8000;0.0928;4.3617;
614.1000;0.0928;4.3641;
614.4000;0.0912;4.3617;
614.7000;0.0920;4.3617;
615.0000;0.0879;4.3568;
615.3000;0.0904;4.3593;
615.6000;0.0904;4.3617;
615.9000;0.0879;4.3666;
616.2000;0.0904;4.3763;
616.5000;0.0928;4.3763;
616.8000;0.0993;4.3860;
617.1000;0.0904;4.3593;
617.4000;0.0904;4.3641;
617.7000;0.0790;4.3252;
618.0000;0.0912;4.3593;
618.3000;0.0887;4.3520;
618.6000;0.0887;4.3617;
618.9000;0.0977;4.3787;
619.2000;0.0920;4.3495;
619.5000;0.0895;4.3374;
619.8000;0.0855;4.3301;
620.1000;0.0912;4.3398;
620.4000;0.0936;4.3471;
620.7000;0.0928;4.3447;
621.0000;0.0887;4.3398;
621.3000;0.0887;4.3374;
621.6000;0.0920;4.3471;
621.9000;0.0879;4.3325;
622.2000;0.0904;4.3447;
622.5000;0.0887;4.3495;
622.8000;0.0912;4.3666;
623.1000;0.0895;4.3690;
623.4000;0.0904;4.3690;
623.7000;0.0879;4.3617;
624.0000;0.0887;4.3690;
624.3000;0.0961;4.3958;
624.6000;0.0879;4.3763;
624.9000;0.0904;4.3714;
625.2000;0.0879;4.3714;
625.5000;0.0920;4.3763;
625.8000;0.0912;4.3666;
626.1000;0.0887;4.3568;
626.4000;0.0822;4.3471;
626.7000;0.0895;4.3812;
627.0000;0.0912;4.3860;
627.3000;0.0806;4.3520;
627.6000;0.0871;4.3544;
627.9000;0.0822;4.3374;
628.2000;0.0814;4.3325;
628.5000;0.0814;4.3349;
628.8000;0.0822;4.3374;
629.1000;0.0871;4.3495;
629.4000;0.0879;4.3593;
629.7000;0.0904;4.3690;
630.0000;0.0871;4.3641;
630.3000;0.0952;4.3714;
630.6000;0.0855;4.3374;
630.9000;0.0887;4.3593;
631.2000;0.0871;4.3568;
631.5000;0.0847;4.3374;
631.8000;0.0920;4.3495;
632.1000;0.0863;4.3325;
632.4000;0.0920;4.3544;
632.7000;0.0912;4.3495;
633.0000;0.0871;4.3495;
633.3000;0.0879;4.3617;
633.6000;0.0952;4.3763;
633.9000;0.0847;4.3495;
634.2000;0.0879;4.3544;
634.5000;0.0887;4.3568;
634.8000;0.0879;4.3593;
635.1000;0.0871;4.3520;
635.4000;0.0822;4.3349;
635.7000;0.0871;4.3520;
636.0000;0.0863;4.3617;
636.3000;0.0879;4.3495;
636.6000;0.0895;4.3495;
636.9000;0.0887;4.3471;
637.2000;0.0863;4.3301;
637.5000;0.0895;4.3301;
637.8000;0.0863;4.3276;
638.1000;0.0879;4.3276;
638.4000;0.0863;4.3276;
638.7000;0.0855;4.3276;
639.0000;0.0871;4.3374;
639.3000;0.0887;4.3447;
639.6000;0.0871;4.3398;
639.9000;0.0814;4.3252;
640.2000;0.0863;4.3374;
640.5000;0.0863;4.3398;
640.8000;0.0863;4.3398;
641.1000;0.0855;4.3447;
641.4000;0.0838;4.3398;
641.7000;0.0879;4.3471;
642.0000;0.0871;4.3520;
642.3000;0.0912;4.3739;
642.6000;0.0904;4.3690;
642.9000;0.0830;4.3544;
643.2000;0.0855;4.3617;
643.5000;0.0895;4.3641;
643.8000;0.0871;4.3568;
644.1000;0.0871;4.3593;
644.4000;0.0871;4.3641;
644.7000;0.0863;4.3666;
645.0000;0.0863;4.3690;
645.3000;0.0838;4.3568;
645.6000;0.0822;4.3422;
645.9000;0.0879;4.3568;
646.2000;0.0879;4.3495;
646.5000;0.0757;4.3252;
646.8000;0.0920;4.3812;
647.1000;0.0879;4.3593;
647.4000;0.0822;4.3447;
647.7000;0.0887;4.3544;
648.0000;0.0814;4.3422;
648.3000;0.0887;4.3520;
648.6000;0.0871;4.3520;
648.9000;0.0871;4.3544;
649.2000;0.0855;4.3544;
649.5000;0.0871;4.3593;
649.8000;0.0928;4.3836;
650.1000;0.0863;4.3593;
650.4000;0.0863;4.3641;
650.7000;0.0838;4.3568;
651.0000;0.0855;4.3666;
651.3000;0.0904;4.3714;
651.6000;0.0887;4.3641;
651.9000;0.0871;4.3568;
652.2000;0.0879;4.3617;
652.5000;0.0904;4.3739;
652.8000;0.0855;4.3617;
653.1000;0.0871;4.3641;
653.4000;0.0895;4.3690;
653.7000;0.0822;4.3447;
654.0000;0.0863;4.3593;
654.3000;0.0863;4.3568;
654.6000;0.0952;4.3787;
654.9000;0.0838;4.3520;
655.2000;0.0855;4.3617;
655.5000;0.0863;4.3714;
655.8000;0.0830;4.3544;
656.1000;0.0863;4.3690;
656.4000;0.0806;4.3544;
656.7000;0.0879;4.3666;
657.0000;0.0863;4.3690;
657.3000;0.0887;4.3787;
657.6000;0.0863;4.3641;
657.9000;0.0863;4.3690;
658.2000;0.0838;4.3568;
658.5000;0.0855;4.3617;
658.8000;0.0847;4.3641;
659.1000;0.0920;4.3836;
659.4000;0.0847;4.3714;
659.7000;0.0838;4.3666;
660.0000;0.0838;4.3714;
660.3000;0.0847;4.3739;
660.6000;0.0838;4.3593;
660.9000;0.0838;4.3617;
661.2000;0.0855;4.3690;
661.5000;0.0871;4.3763;
661.8000;0.0855;4.3617;
662.1000;0.0871;4.3666;
662.4000;0.0814;4.3495;
662.7000;0.0847;4.3641;
663.0000;0.0855;4.3666;
663.3000;0.0847;4.3690;
663.6000;0.0855;4.3739;
663.9000;0.0822;4.3763;
664.2000;0.0830;4.3666;
664.5000;0.0855;4.3739;
664.8000;0.0822;4.3568;
665.1000;0.0855;4.3593;
665.4000;0.0863;4.3666;
665.7000;0.0838;4.3617;
666.0000;0.0863;4.3690;
666.3000;0.0847;4.3641;
666.6000;0.0871;4.3714;
666.9000;0.0847;4.3666;
667.2000;0.0863;4.3641;
667.5000;0.0879;4.3690;
667.8000;0.0879;4.3641;
668.1000;0.0863;4.3641;
668.4000;0.0879;4.3666;
668.7000;0.0863;4.3495;
669.0000;0.0855;4.3520;
669.3000;0.0847;4.3495;
669.6000;0.0944;4.3812;
669.9000;0.0920;4.3739;
670.2000;0.0855;4.3593;
670.5000;0.0806;4.3520;
670.8000;0.0798;4.3447;
671.1000;0.0847;4.3617;
671.4000;0.0895;4.3763;
671.7000;0.0920;4.3787;
672.0000;0.0847;4.3739;
672.3000;0.0887;4.3836;
672.6000;0.0855;4.3690;
672.9000;0.0838;4.3739;
673.2000;0.0879;4.3836;
673.5000;0.0863;4.3763;
673.8000;0.0879;4.3836;
674.1000;0.0830;4.3568;
674.4000;0.0822;4.3471;
674.7000;0.0855;4.3495;
675.0000;0.0847;4.3374;
675.3000;0.0855;4.3325;
675.6000;0.0879;4.3398;
675.9000;0.0822;4.3301;
676.2000;0.0838;4.3471;
676.5000;0.0895;4.3544;
676.8000;0.0773;4.3276;
677.1000;0.0855;4.3520;
677.4000;0.0790;4.3252;
677.7000;0.0863;4.3447;
678.0000;0.0847;4.3374;
678.3000;0.0855;4.3544;
678.6000;0.0887;4.3617;
678.9000;0.0895;4.3666;
679.2000;0.0847;4.3593;
679.5000;0.0847;4.3544;
679.8000;0.0879;4.3568;
680.1000;0.0863;4.3471;
680.4000;0.0855;4.3447;
680.7000;0.0830;4.3447;
681.0000;0.0879;4.3471;
681.3000;0.0920;4.3520;
681.6000;0.0830;4.3349;
681.9000;0.0838;4.3398;
682.2000;0.0855;4.3447;
682.5000;0.0879;4.3544;
682.8000;0.0838;4.3422;
683.1000;0.0871;4.3471;
683.4000;0.0855;4.3349;
683.7000;0.0855;4.3422;
684.0000;0.0847;4.3349;
684.3000;0.0822;4.3301;
684.6000;0.0830;4.3325;
684.9000;0.0847;4.3374;
685.2000;0.0863;4.3495;
685.5000;0.0838;4.3398;
685.8000;0.0904;4.3641;
686.1000;0.0855;4.3520;
686.4000;0.0838;4.3568;
686.7000;0.0912;4.3763;
687.0000;0.0847;4.3568;
687.3000;0.0814;4.3544;
687.6000;0.0847;4.3617;
687.9000;0.0879;4.3763;
688.2000;0.0855;4.3641;
688.5000;0.0871;4.3714;
688.8000;0.0838;4.3641;
689.1000;0.0830;4.3520;
689.4000;0.0806;4.3471;
689.7000;0.0838;4.3593;
690.0000;0.0847;4.3617;
690.3000;0.0879;4.3714;
690.6000;0.0847;4.3666;
690.9000;0.0822;4.3617;
691.2000;0.0798;4.3520;
691.5000;0.0838;4.3568;
691.8000;0.0855;4.3593;
692.1000;0.0863;4.3593;
692.4000;0.0830;4.3471;
692.7000;0.0855;4.3568;
693.0000;0.0798;4.3398;
693.3000;0.0847;4.3544;
693.6000;0.0855;4.3593;
693.9000;0.0838;4.3617;
694.2000;0.0863;4.3690;
694.5000;0.0920;4.3812;
694.8000;0.0773;4.3301;
695.1000;0.0830;4.3422;
695.4000;0.0838;4.3593;
695.7000;0.0855;4.3641;
696.0000;0.0838;4.3544;
696.3000;0.0871;4.3568;
696.6000;0.0863;4.3617;
696.9000;0.0879;4.3641;
697.2000;0.0847;4.3495;
697.5000;0.0798;4.3301;
697.8000;0.0838;4.3447;
698.1000;0.0855;4.3471;
698.4000;0.0847;4.3422;
698.7000;0.0822;4.3398;
699.0000;0.0871;4.3495;
699.3000;0.0847;4.3471;
699.6000;0.0847;4.3495;
699.9000;0.0838;4.3447;
700.2000;0.0855;4.3447;
700.5000;0.0838;4.3349;
700.8000;0.0798;4.3228;
701.1000;0.0855;4.3398;
701.4000;0.0822;4.3301;
701.7000;0.0838;4.3325;
702.0000;0.0847;4.3349;
702.3000;0.0871;4.3447;
702.6000;0.0838;4.3422;
702.9000;0.0887;4.3593;
703.2000;0.0814;4.3495;
703.5000;0.0838;4.3520;
703.8000;0.0847;4.3520;
704.1000;0.0830;4.3520;
704.4000;0.0847;4.3641;
704.7000;0.0838;4.3666;
705.0000;0.0863;4.3690;
705.3000;0.0838;4.3690;
705.6000;0.0855;4.3739;
705.9000;0.0855;4.3714;
706.2000;0.0863;4.3690;
706.5000;0.0847;4.3739;
706.8000;0.0863;4.3836;
707.1000;0.0863;4.3739;
707.4000;0.0863;4.3641;
707.7000;0.0822;4.3544;
708.0000;0.0871;4.3641;
708.3000;0.0838;4.3544;
708.6000;0.0863;4.3714;
708.9000;0.0969;4.4055;
709.2000;0.0847;4.3641;
709.5000;0.0838;4.3544;
709.8000;0.0806;4.3374;
710.1000;0.0822;4.3544;
710.4000;0.0847;4.3593;
710.7000;0.0781;4.3471;
711.0000;0.0847;4.3641;
711.3000;0.0830;4.3593;
711.6000;0.0863;4.3714;
711.9000;0.0904;4.3812;
712.2000;0.0855;4.3666;
712.5000;0.0822;4.3593;
712.8000;0.0838;4.3593;
713.1000;0.0855;4.3666;
713.4000;0.0863;4.3714;
713.7000;0.0855;4.3714;
714.0000;0.0895;4.3860;
714.3000;0.0871;4.3812;
714.6000;0.0855;4.3812;
714.9000;0.0838;4.3763;
715.2000;0.0838;4.3812;
715.5000;0.0863;4.3860;
715.8000;0.0847;4.3763;
716.1000;0.0855;4.3739;
716.4000;0.0847;4.3739;
716.7000;0.0879;4.3812;
717.0000;0.0961;4.4055;
717.3000;0.0847;4.3763;
717.6000;0.0814;4.3739;
717.9000;0.0895;4.3982;
718.2000;0.0871;4.3982;
718.5000;0.0838;4.3885;
718.8000;0.0830;4.3812;
719.1000;0.0847;4.3763;
719.4000;0.0814;4.3641;
719.7000;0.0798;4.3641;
720.0000;0.0863;4.3836;
720.3000;0.0847;4.3885;
720.6000;0.0871;4.3982;
720.9000;0.0838;4.3836;
721.2000;0.0830;4.3739;
721.5000;0.0855;4.3690;
721.8000;0.0847;4.3641;
722.1000;0.0847;4.3641;
722.4000;0.0790;4.3447;
722.7000;0.0871;4.3641;
723.0000;0.0838;4.3568;
723.3000;0.0863;4.3617;
723.6000;0.0830;4.3568;
723.9000;0.0855;4.3568;
724.2000;0.0822;4.3520;
724.5000;0.0830;4.3495;
724.8000;0.0765;4.3325;
725.1000;0.0847;4.3520;
725.4000;0.0855;4.3690;
725.7000;0.0773;4.3495;
726.0000;0.0847;4.3714;
726.3000;0.0847;4.3617;
726.6000;0.0676;4.3130;
726.9000;0.0847;4.3544;
727.2000;0.0838;4.3447;
727.5000;0.0757;4.3325;
727.8000;0.0855;4.3495;
728.1000;0.0847;4.3471;
728.4000;0.0822;4.3447;
728.7000;0.0838;4.3422;
729.0000;0.0806;4.3301;
729.3000;0.0830;4.3398;
729.6000;0.0838;4.3568;
729.9000;0.0830;4.3666;
730.2000;0.0838;4.3690;
730.5000;0.0838;4.3714;
730.8000;0.1001;4.4104;
731.1000;0.0855;4.3690;
731.4000;0.0838;4.3641;
731.7000;0.0871;4.3666;
732.0000;0.0830;4.3544;
732.3000;0.0887;4.3714;
732.6000;0.0830;4.3593;
732.9000;0.0830;4.3568;
733.2000;0.0822;4.3568;
733.5000;0.0855;4.3690;
733.8000;0.0830;4.3641;
734.1000;0.0847;4.3666;
734.4000;0.0830;4.3617;
734.7000;0.0847;4.3593;
735.0000;0.0855;4.3641;
735.3000;0.0838;4.3593;
735.6000;0.0830;4.3666;
735.9000;0.0798;4.3520;
736.2000;0.0952;4.4055;
736.5000;0.0855;4.3787;
736.8000;0.0814;4.3641;
737.1000;0.0830;4.3690;
737.4000;0.0847;4.3739;
737.7000;0.0830;4.3690;
738.0000;0.0822;4.3714;
738.3000;0.0830;4.3739;
738.6000;0.0790;4.3495;
738.9000;0.0830;4.3593;
739.2000;0.0977;4.4006;
739.5000;0.0879;4.3812;
739.8000;0.0871;4.3763;
740.1000;0.0838;4.3666;
740.4000;0.0806;4.3666;
740.7000;0.0847;4.3666;
741.0000;0.0855;4.3763;
741.3000;0.0871;4.3787;
741.6000;0.0928;4.3933;
741.9000;0.0936;4.4006;
742.2000;0.0838;4.3739;
742.5000;0.0765;4.3471;
742.8000;0.0806;4.3641;
743.1000;0.0847;4.3739;
743.4000;0.0806;4.3593;
743.7000;0.0806;4.3593;
744.0000;0.0814;4.3763;
744.3000;0.0855;4.3860;
744.6000;0.0855;4.3836;
744.9000;0.0822;4.3763;
745.2000;0.0838;4.3860;
745.5000;0.0847;4.3836;
745.8000;0.0830;4.3787;
746.1000;0.0855;4.3836;
746.4000;0.0716;4.3447;
746.7000;0.0855;4.3763;
747.0000;0.0887;4.3763;
747.3000;0.0855;4.3763;
747.6000;0.0830;4.3666;
747.9000;0.0830;4.3617;
748.2000;0.0863;4.3690;
748.5000;0.0822;4.3641;
748.8000;0.0863;4.3909;
749.1000;0.0838;4.3836;
749.4000;0.0692;4.3471;
749.7000;0.0773;4.3690;
750.0000;0.0838;4.3933;
750.3000;0.0847;4.3909;
750.6000;0.0830;4.3787;
750.9000;0.0855;4.3933;
751.2000;0.0855;4.3958;
751.5000;0.0847;4.3909;
751.8000;0.0781;4.3739;
752.1000;0.0838;4.3885;
752.4000;0.0830;4.3836;
752.7000;0.0863;4.3836;
753.0000;0.0838;4.3763;
753.3000;0.0847;4.3739;
753.6000;0.0855;4.3714;
753.9000;0.0838;4.3836;
754.2000;0.0830;4.3812;
754.5000;0.0822;4.3714;
754.8000;0.0855;4.3739;
755.1000;0.0838;4.3690;
755.4000;0.0855;4.3690;
755.7000;0.0822;4.3617;
756.0000;0.0863;4.3641;
756.3000;0.0863;4.3666;
756.6000;0.0855;4.3568;
756.9000;0.0830;4.3544;
757.2000;0.0847;4.3617;
757.5000;0.0847;4.3593;
757.8000;0.0871;4.3666;
758.1000;0.0822;4.3520;
758.4000;0.0822;4.3568;
758.7000;0.0855;4.3739;
759.0000;0.0847;4.3763;
759.3000;0.0765;4.3398;
759.6000;0.0871;4.3617;
759.9000;0.0838;4.3617;
760.2000;0.0871;4.3690;
760.5000;0.0847;4.3617;
760.8000;0.0847;4.3641;
761.1000;0.0855;4.3641;
761.4000;0.0838;4.3617;
761.7000;0.0798;4.3398;
762.0000;0.0814;4.3422;
762.3000;0.0830;4.3447;
762.6000;0.0904;4.3617;
762.9000;0.0847;4.3495;
763.2000;0.0847;4.3447;
763.5000;0.0830;4.3349;
763.8000;0.0838;4.3325;
764.1000;0.0822;4.3252;
764.4000;0.0871;4.3398;
764.7000;0.0822;4.3301;
765.0000;0.0814;4.3349;
765.3000;0.0863;4.3520;
765.6000;0.0806;4.3349;
765.9000;0.0855;4.3398;
766.2000;0.0847;4.3520;
766.5000;0.0806;4.3422;
766.8000;0.0847;4.3520;
767.1000;0.0838;4.3544;
767.4000;0.0838;4.3568;
767.7000;0.0773;4.3422;
768.0000;0.0863;4.3520;
768.3000;0.0847;4.3495;
768.6000;0.0838;4.3471;
768.9000;0.0838;4.3520;
769.2000;0.0838;4.3495;
769.5000;0.0822;4.3447;
769.8000;0.0855;4.3617;
770.1000;0.0781;4.3398;
770.4000;0.0887;4.3593;
770.7000;0.0838;4.3568;
771.0000;0.0822;4.3617;
771.3000;0.0838;4.3739;
771.6000;0.0838;4.3739;
771.9000;0.0838;4.3666;
772.2000;0.0822;4.3666;
772.5000;0.0830;4.3739;
772.8000;0.0830;4.3739;
773.1000;0.0814;4.3739;
773.4000;0.0855;4.3763;
773.7000;0.0863;4.3739;
774.0000;0.0773;4.3422;
774.3000;0.0838;4.3568;
774.6000;0.0855;4.3495;
774.9000;0.0838;4.3398;
775.2000;0.0855;4.3447;
775.5000;0.0855;4.3422;
775.8000;0.0855;4.3471;
776.1000;0.0855;4.3544;
776.4000;0.0871;4.3520;
776.7000;0.0814;4.3398;
777.0000;0.0814;4.3349;
777.3000;0.0855;4.3520;
777.6000;0.0830;4.3374;
777.9000;0.0855;4.3544;
778.2000;0.0830;4.3495;
778.5000;0.0863;4.3617;
778.8000;0.0847;4.3666;
779.1000;0.0847;4.3593;
779.4000;0.0863;4.3641;
779.7000;0.0838;4.3568;
780.0000;0.0830;4.3520;
780.3000;0.0830;4.3520;
780.6000;0.0838;4.3690;
780.9000;0.0790;4.3593;
781.2000;0.0700;4.3349;
781.5000;0.0806;4.3666;
781.8000;0.0863;4.3812;
782.1000;0.0830;4.3666;
782.4000;0.0847;4.3641;
782.7000;0.0830;4.3520;
783.0000;0.0863;4.3544;
783.3000;0.0855;4.3544;
783.6000;0.0806;4.3495;
783.9000;0.0847;4.3471;
784.2000;0.0855;4.3568;
784.5000;0.0936;4.3666;
784.8000;0.0822;4.3422;
785.1000;0.0830;4.3495;
785.4000;0.0863;4.3617;
785.7000;0.0895;4.3617;
786.0000;0.0952;4.3714;
786.3000;0.0847;4.3422;
786.6000;0.0822;4.3325;
786.9000;0.0863;4.3471;
787.2000;0.0708;4.3057;
787.5000;0.0838;4.3374;
787.8000;0.0822;4.3276;
788.1000;0.0847;4.3422;
788.4000;0.0838;4.3471;
788.7000;0.0822;4.3471;
789.0000;0.0749;4.3325;
789.3000;0.0863;4.3593;
789.6000;0.0822;4.3495;
789.9000;0.0830;4.3520;
790.2000;0.0838;4.3593;
790.5000;0.0838;4.3690;
790.8000;0.0855;4.3763;
791.1000;0.0838;4.3739;
791.4000;0.0855;4.3812;
791.7000;0.0847;4.3739;
792.0000;0.0814;4.3641;
792.3000;0.0847;4.3690;
792.6000;0.0798;4.3666;
792.9000;0.0830;4.3787;
793.2000;0.0822;4.3739;
793.5000;0.0879;4.3787;
793.8000;0.0838;4.3568;
794.1000;0.0855;4.3568;
794.4000;0.0790;4.3374;
794.7000;0.0838;4.3544;
795.0000;0.0822;4.3471;
795.3000;0.0838;4.3568;
795.6000;0.0773;4.3349;
795.9000;0.0871;4.3568;
796.2000;0.0822;4.3398;
796.5000;0.0847;4.3349;
796.8000;0.0847;4.3422;
797.1000;0.0822;4.3398;
797.4000;0.0830;4.3398;
797.7000;0.0830;4.3398;
798.0000;0.0871;4.3568;
798.3000;0.0871;4.3471;
798.6000;0.0830;4.3544;
798.9000;0.0879;4.3641;
799.2000;0.0814;4.3398;
799.5000;0.0847;4.3495;
799.8000;0.0920;4.3739;
800.1000;0.0814;4.3568;
800.4000;0.0830;4.3544;
800.7000;0.0863;4.3666;
801.0000;0.0838;4.3641;
801.3000;0.0855;4.3666;
801.6000;0.0863;4.3617;
801.9000;0.0757;4.3276;
802.2000;0.0838;4.3593;
802.5000;0.0830;4.3568;
802.8000;0.0757;4.3374;
803.1000;0.0887;4.3739;
803.4000;0.0855;4.3739;
803.7000;0.0855;4.3885;
804.0000;0.0822;4.3836;
804.3000;0.0855;4.3885;
804.6000;0.0847;4.3885;
804.9000;0.0830;4.3763;
805.2000;0.0830;4.3690;
805.5000;0.0871;4.3714;
805.8000;0.0863;4.3617;
806.1000;0.0863;4.3690;
806.4000;0.0822;4.3641;
806.7000;0.0838;4.3641;
807.0000;0.0822;4.3617;
807.3000;0.0855;4.3593;
807.6000;0.0814;4.3520;
807.9000;0.0887;4.3666;
808.2000;0.0838;4.3666;
808.5000;0.0822;4.3617;
808.8000;0.0798;4.3495;
809.1000;0.0830;4.3593;
809.4000;0.0871;4.3666;
809.7000;0.0904;4.3739;
810.0000;0.0822;4.3568;
810.3000;0.0822;4.3568;
810.6000;0.0895;4.3787;
810.9000;0.0847;4.3641;
811.2000;0.0814;4.3520;
811.5000;0.0822;4.3593;
811.8000;0.0814;4.3495;
812.1000;0.0765;4.3422;
812.4000;0.0838;4.3690;
812.7000;0.0822;4.3617;
813.0000;0.0847;4.3520;
813.3000;0.0830;4.3447;
813.6000;0.0814;4.3471;
813.9000;0.0830;4.3617;
814.2000;0.0838;4.3641;
814.5000;0.0879;4.3763;
814.8000;0.0838;4.3617;
815.1000;0.0830;4.3593;
815.4000;0.0830;4.3568;
815.7000;0.0879;4.3641;
816.0000;0.0806;4.3447;
816.3000;0.0733;4.3301;
816.6000;0.0904;4.3666;
816.9000;0.0863;4.3641;
817.2000;0.0838;4.3495;
817.5000;0.0855;4.3544;
817.8000;0.0830;4.3495;
818.1000;0.0790;4.3374;
818.4000;0.0855;4.3520;
818.7000;0.0871;4.3617;
819.0000;0.0871;4.3593;
819.3000;0.0822;4.3568;
819.6000;0.0936;4.3812;
819.9000;0.0855;4.3495;
820.2000;0.0855;4.3422;
820.5000;0.0847;4.3349;
820.8000;0.0855;4.3349;
821.1000;0.0887;4.3520;
821.4000;0.0830;4.3374;
821.7000;0.0838;4.3398;
822.0000;0.0944;4.3787;
822.3000;0.0838;4.3495;
822.6000;0.0855;4.3568;
822.9000;0.0830;4.3617;
823.2000;0.0855;4.3666;
823.5000;0.0863;4.3666;
823.8000;0.0920;4.3787;
824.1000;0.0798;4.3495;
824.4000;0.0936;4.3787;
824.7000;0.0781;4.3398;
825.0000;0.0822;4.3520;
825.3000;0.0920;4.3787;
825.6000;0.0847;4.3544;
825.9000;0.0855;4.3568;
826.2000;0.0887;4.3568;
826.5000;0.0871;4.3471;
826.8000;0.0733;4.3179;
827.1000;0.0847;4.3374;
827.4000;0.0855;4.3374;
827.7000;0.0830;4.3301;
828.0000;0.0733;4.3082;
828.3000;0.0749;4.3033;
828.6000;0.0863;4.3252;
828.9000;0.0790;4.3009;
829.2000;0.0830;4.3155;
829.5000;0.0806;4.3130;
829.8000;0.0847;4.3349;
830.1000;0.0830;4.3325;
830.4000;0.0879;4.3520;
830.7000;0.0838;4.3447;
831.0000;0.0838;4.3447;
831.3000;0.0887;4.3666;
831.6000;0.0855;4.3617;
831.9000;0.0855;4.3666;
832.2000;0.0879;4.3787;
832.5000;0.0879;4.3812;
832.8000;0.0847;4.3763;
833.1000;0.0814;4.3666;
833.4000;0.0822;4.3641;
833.7000;0.0847;4.3714;
834.0000;0.0838;4.3617;
834.3000;0.0855;4.3666;
834.6000;0.0781;4.3447;
834.9000;0.0887;4.3739;
835.2000;0.0838;4.3544;
835.5000;0.0814;4.3471;
835.8000;0.0838;4.3568;
836.1000;0.0847;4.3447;
836.4000;0.0912;4.3593;
836.7000;0.0863;4.3520;
837.0000;0.0838;4.3520;
837.3000;0.0847;4.3495;
837.6000;0.0855;4.3471;
837.9000;0.0847;4.3447;
838.2000;0.0806;4.3374;
838.5000;0.0855;4.3520;
838.8000;0.0830;4.3544;
839.1000;0.0838;4.3520;
839.4000;0.0847;4.3544;
839.7000;0.0863;4.3520;
840.0000;0.0847;4.3520;
840.3000;0.0790;4.3349;
840.6000;0.0716;4.2960;
840.9000;0.0855;4.3276;
841.2000;0.0838;4.3301;
841.5000;0.0855;4.3422;
841.8000;0.0830;4.3325;
842.1000;0.0830;4.3349;
842.4000;0.0757;4.3276;
842.7000;0.0855;4.3544;
843.0000;0.0830;4.3617;
843.3000;0.0830;4.3593;
843.6000;0.0895;4.3739;
843.9000;0.0814;4.3495;
844.2000;0.0830;4.3520;
844.5000;0.0830;4.3471;
844.8000;0.0838;4.3495;
845.1000;0.0790;4.3398;
845.4000;0.0814;4.3641;
845.7000;0.0863;4.3787;
846.0000;0.0895;4.3763;
846.3000;0.0798;4.3568;
846.6000;0.0830;4.3495;
846.9000;0.0838;4.3520;
847.2000;0.0830;4.3495;
847.5000;0.0838;4.3495;
847.8000;0.0855;4.3568;
848.1000;0.0806;4.3447;
848.4000;0.0830;4.3544;
848.7000;0.0830;4.3593;
849.0000;0.0838;4.3568;
849.3000;0.0830;4.3593;
849.6000;0.0830;4.3520;
849.9000;0.0895;4.3690;
850.2000;0.0847;4.3544;
850.5000;0.0838;4.3568;
850.8000;0.0838;4.3568;
851.1000;0.0838;4.3520;
851.4000;0.0838;4.3520;
851.7000;0.0830;4.3471;
852.0000;0.0847;4.3495;
852.3000;0.0855;4.3593;
852.6000;0.0822;4.3471;
852.9000;0.0830;4.3495;
853.2000;0.0847;4.3593;
853.5000;0.0798;4.3495;
853.8000;0.0855;4.3617;
854.1000;0.0814;4.3544;
854.4000;0.0830;4.3520;
854.7000;0.0847;4.3520;
855.0000;0.0855;4.3544;
855.3000;0.0855;4.3520;
855.6000;0.0838;4.3495;
855.9000;0.0863;4.3593;
856.2000;0.0838;4.3471;
856.5000;0.0847;4.3544;
856.8000;0.0847;4.3495;
857.1000;0.0830;4.3495;
857.4000;0.0814;4.3471;
857.7000;0.0806;4.3447;
858.0000;0.0822;4.3447;
858.3000;0.0847;4.3495;
858.6000;0.0765;4.3325;
858.9000;0.0912;4.3739;
859.2000;0.0855;4.3593;
859.5000;0.0814;4.3495;
859.8000;0.0944;4.3909;
860.1000;0.0822;4.3593;
860.4000;0.0773;4.3495;
860.7000;0.0822;4.3544;
861.0000;0.0847;4.3544;
861.3000;0.0871;4.3544;
861.6000;0.0814;4.3398;
861.9000;0.0847;4.3520;
862.2000;0.0830;4.3495;
862.5000;0.0667;4.3130;
862.8000;0.0830;4.3471;
863.1000;0.0847;4.3447;
863.4000;0.0871;4.3471;
863.7000;0.0830;4.3495;
864.0000;0.0806;4.3301;
864.3000;0.0822;4.3325;
864.6000;0.0838;4.3349;
864.9000;0.0830;4.3374;
865.2000;0.0830;4.3447;
865.5000;0.0781;4.3276;
865.8000;0.0838;4.3471;
866.1000;0.0944;4.3787;
866.4000;0.0806;4.3374;
866.7000;0.0806;4.3495;
867.0000;0.0814;4.3593;
867.3000;0.0847;4.3690;
867.6000;0.0838;4.3666;
867.9000;0.0871;4.3714;
868.2000;0.0838;4.3666;
868.5000;0.0822;4.3641;
868.8000;0.0847;4.3714;
869.1000;0.0830;4.3568;
869.4000;0.0814;4.3422;
869.7000;0.0822;4.3398;
870.0000;0.0830;4.3398;
870.3000;0.0855;4.3495;
870.6000;0.0863;4.3568;
870.9000;0.0781;4.3325;
871.2000;0.0855;4.3447;
871.5000;0.0838;4.3374;
871.8000;0.0830;4.3301;
872.1000;0.0855;4.3422;
872.4000;0.0855;4.3471;
872.7000;0.0855;4.3471;
873.0000;0.0847;4.3422;
873.3000;0.0871;4.3471;
873.6000;0.0847;4.3398;
873.9000;0.0765;4.3179;
874.2000;0.0838;4.3520;
874.5000;0.0838;4.3495;
874.8000;0.0855;4.3495;
875.1000;0.0806;4.3374;
875.4000;0.0814;4.3422;
875.7000;0.0790;4.3301;
876.0000;0.0855;4.3471;
876.3000;0.0838;4.3398;
876.6000;0.0830;4.3349;
876.9000;0.0822;4.3349;
877.2000;0.0855;4.3447;
877.5000;0.0806;4.3325;
877.8000;0.0871;4.3374;
878.1000;0.0814;4.3325;
878.4000;0.0838;4.3349;
878.7000;0.0838;4.3374;
879.0000;0.0814;4.3276;
879.3000;0.0814;4.3349;
879.6000;0.0765;4.3155;
879.9000;0.0822;4.3252;
880.2000;0.0822;4.3179;
880.5000;0.0790;4.3130;
880.8000;0.0757;4.3106;
881.1000;0.0838;4.3276;
881.4000;0.0855;4.3447;
881.7000;0.0814;4.3301;
882.0000;0.0700;4.3033;
882.3000;0.0806;4.3325;
882.6000;0.0814;4.3301;
882.9000;0.0790;4.3179;
883.2000;0.0855;4.3252;
883.5000;0.0847;4.3349;
883.8000;0.0749;4.3155;
884.1000;0.0830;4.3447;
884.4000;0.0814;4.3398;
884.7000;0.0830;4.3495;
885.0000;0.0830;4.3544;
885.3000;0.0806;4.3593;
885.6000;0.0838;4.3593;
885.9000;0.0798;4.3568;
886.2000;0.0822;4.3617;
886.5000;0.0830;4.3666;
886.8000;0.0830;4.3666;
887.1000;0.0838;4.3714;
887.4000;0.0814;4.3593;
887.7000;0.0830;4.3690;
888.0000;0.0830;4.3641;
888.3000;0.0830;4.3641;
888.6000;0.0838;4.3763;
888.9000;0.0830;4.3763;
889.2000;0.0847;4.3909;
889.5000;0.0806;4.3739;
889.8000;0.0798;4.3739;
890.1000;0.0830;4.3787;
890.4000;0.0830;4.3787;
890.7000;0.0830;4.3787;
891.0000;0.0822;4.3714;
891.3000;0.0798;4.3617;
891.6000;0.0830;4.3641;
891.9000;0.0871;4.3666;
892.2000;0.0847;4.3520;
892.5000;0.0855;4.3641;
892.8000;0.0822;4.3568;
893.1000;0.0814;4.3617;
893.4000;0.0847;4.3812;
893.7000;0.0879;4.3933;
894.0000;0.0830;4.3739;
894.3000;0.0830;4.3568;
894.6000;0.0822;4.3617;
894.9000;0.0920;4.3860;
895.2000;0.0838;4.3714;
895.5000;0.0838;4.3714;
895.8000;0.0830;4.3739;
896.1000;0.0838;4.3763;
896.4000;0.0798;4.3593;
896.7000;0.0822;4.3520;
897.0000;0.0855;4.3544;
897.3000;0.0814;4.3471;
897.6000;0.0847;4.3568;
897.9000;0.0855;4.3544;
898.2000;0.0847;4.3544;
898.5000;0.0855;4.3593;
898.8000;0.0847;4.3568;
899.1000;0.0814;4.3544;
899.4000;0.0847;4.3617;
899.7000;0.0838;4.3641;
900.0000;0.0830;4.3568;
900.3000;0.0806;4.3568;
900.6000;0.0871;4.3812;
900.9000;0.0863;4.3836;
901.2000;0.0847;4.3690;
901.5000;0.0863;4.3666;
901.8000;0.0887;4.3739;
902.1000;0.0895;4.3763;
902.4000;0.0806;4.3471;
902.7000;0.0822;4.3471;
903.0000;0.0936;4.3714;
903.3000;0.0863;4.3520;
903.6000;0.0863;4.3495;
903.9000;0.0838;4.3471;
904.2000;0.0847;4.3568;
904.5000;0.0847;4.3666;
904.8000;0.0757;4.3374;
905.1000;0.0838;4.3617;
905.4000;0.0838;4.3593;
905.7000;0.0830;4.3641;
906.0000;0.0830;4.3690;
906.3000;0.0830;4.3812;
906.6000;0.0855;4.3787;
906.9000;0.0830;4.3714;
907.2000;0.0838;4.3666;
907.5000;0.0822;4.3666;
907.8000;0.0847;4.3836;
908.1000;0.0806;4.3763;
908.4000;0.0871;4.3909;
908.7000;0.0871;4.3909;
909.0000;0.0847;4.3812;
909.3000;0.0822;4.3714;
909.6000;0.0822;4.3690;
909.9000;0.0847;4.3690;
910.2000;0.0830;4.3520;
910.5000;0.0838;4.3447;
910.8000;0.0863;4.3520;
911.1000;0.0847;4.3495;
911.4000;0.0806;4.3447;
911.7000;0.0847;4.3520;
912.0000;0.0830;4.3447;
912.3000;0.0855;4.3471;
912.6000;0.0855;4.3544;
912.9000;0.0855;4.3666;
913.2000;0.0847;4.3690;
913.5000;0.0855;4.3690;
913.8000;0.0814;4.3568;
914.1000;0.0952;4.3885;
914.4000;0.0814;4.3520;
914.7000;0.0830;4.3495;
915.0000;0.0830;4.3617;
915.3000;0.0855;4.3666;
915.6000;0.0887;4.3690;
915.9000;0.0838;4.3520;
916.2000;0.0863;4.3520;
916.5000;0.0871;4.3641;
916.8000;0.0887;4.3690;
917.1000;0.0855;4.3495;
917.4000;0.0838;4.3471;
917.7000;0.0838;4.3495;
918.0000;0.0822;4.3422;
918.3000;0.0920;4.3690;
918.6000;0.0838;4.3398;
918.9000;0.0912;4.3714;
919.2000;0.0904;4.3690;
919.5000;0.0855;4.3593;
919.8000;0.0822;4.3447;
920.1000;0.0855;4.3544;
920.4000;0.0838;4.3398;
920.7000;0.0733;4.3130;
921.0000;0.0855;4.3544;
921.3000;0.0920;4.3568;
921.6000;0.0838;4.3374;
921.9000;0.0838;4.3422;
922.2000;0.0847;4.3495;
922.5000;0.0855;4.3593;
922.8000;0.0855;4.3641;
923.1000;0.0830;4.3471;
923.4000;0.0847;4.3520;
923.7000;0.0863;4.3568;
924.0000;0.0830;4.3544;
924.3000;0.0838;4.3568;
924.6000;0.0830;4.3617;
924.9000;0.0806;4.3447;
925.2000;0.0847;4.3593;
925.5000;0.0904;4.3714;
925.8000;0.0838;4.3495;
926.1000;0.0838;4.3447;
926.4000;0.0830;4.3398;
926.7000;0.0855;4.3471;
927.0000;0.0830;4.3398;
927.3000;0.0765;4.3276;
927.6000;0.0895;4.3568;
927.9000;0.0847;4.3471;
928.2000;0.0855;4.3471;
928.5000;0.0838;4.3471;
928.8000;0.0822;4.3349;
929.1000;0.0781;4.3203;
929.4000;0.0847;4.3398;
929.7000;0.0830;4.3471;
930.0000;0.0700;4.3130;
930.3000;0.0847;4.3520;
930.6000;0.0855;4.3617;
930.9000;0.0830;4.3520;
931.2000;0.0830;4.3568;
931.5000;0.0855;4.3690;
931.8000;0.0830;4.3714;
932.1000;0.0830;4.3666;
932.4000;0.0847;4.3666;
932.7000;0.0822;4.3617;
933.0000;0.0830;4.3666;
933.3000;0.0773;4.3495;
933.6000;0.0822;4.3617;
933.9000;0.0847;4.3666;
934.2000;0.0847;4.3690;
934.5000;0.0838;4.3617;
934.8000;0.0847;4.3568;
935.1000;0.0822;4.3374;
935.4000;0.0830;4.3325;
935.7000;0.0830;4.3325;
936.0000;0.0822;4.3276;
936.3000;0.0847;4.3374;
936.6000;0.0798;4.3301;
936.9000;0.0822;4.3398;
937.2000;0.0838;4.3398;
937.5000;0.0830;4.3398;
937.8000;0.0838;4.3495;
938.1000;0.0847;4.3641;
938.4000;0.0838;4.3641;
938.7000;0.0830;4.3593;
939.0000;0.0863;4.3836;
939.3000;0.0822;4.3739;
939.6000;0.0757;4.3568;
939.9000;0.0838;4.3836;
940.2000;0.0838;4.3812;
940.5000;0.0822;4.3763;
940.8000;0.0790;4.3641;
941.1000;0.0855;4.3787;
941.4000;0.0863;4.3641;
941.7000;0.0863;4.3617;
942.0000;0.0879;4.3714;
942.3000;0.0773;4.3398;
942.6000;0.0879;4.3714;
942.9000;0.0863;4.3593;
943.2000;0.0863;4.3617;
943.5000;0.0814;4.3471;
943.8000;0.0814;4.3520;
944.1000;0.0847;4.3641;
944.4000;0.0716;4.3276;
944.7000;0.0822;4.3544;
945.0000;0.0855;4.3690;
945.3000;0.0830;4.3714;
945.6000;0.0830;4.3690;
945.9000;0.0838;4.3544;
946.2000;0.0847;4.3568;
946.5000;0.0855;4.3568;
946.8000;0.0855;4.3617;
947.1000;0.0847;4.3666;
947.4000;0.0830;4.3617;
947.7000;0.0871;4.3666;
948.0000;0.0847;4.3617;
948.3000;0.0830;4.3714;
948.6000;0.0838;4.3544;
948.9000;0.0838;4.3568;
949.2000;0.0855;4.3568;
949.5000;0.0838;4.3495;
949.8000;0.0830;4.3447;
950.1000;0.0790;4.3301;
950.4000;0.0830;4.3398;
950.7000;0.0790;4.3130;
951.0000;0.0741;4.3009;
951.3000;0.0798;4.3252;
951.6000;0.0847;4.3422;
951.9000;0.0847;4.3495;
952.2000;0.0855;4.3520;
952.5000;0.0855;4.3617;
952.8000;0.0855;4.3690;
953.1000;0.0847;4.3714;
953.4000;0.0822;4.3544;
953.7000;0.0830;4.3666;
954.0000;0.0863;4.3690;
954.3000;0.0887;4.3714;
954.6000;0.0814;4.3544;
954.9000;0.0838;4.3617;
955.2000;0.0912;4.3763;
955.5000;0.0806;4.3471;
955.8000;0.0863;4.3617;
956.1000;0.0700;4.3252;
956.4000;0.0830;4.3544;
956.7000;0.0847;4.3641;
957.0000;0.0855;4.3666;
957.3000;0.0806;4.3617;
957.6000;0.0855;4.3763;
957.9000;0.0838;4.3641;
958.2000;0.0830;4.3520;
958.5000;0.0863;4.3593;
958.8000;0.0822;4.3593;
959.1000;0.0838;4.3544;
959.4000;0.0814;4.3495;
959.7000;0.0822;4.3520;
960.0000;0.0847;4.3690;
960.3000;0.0822;4.3641;
960.6000;0.0847;4.3617;
960.9000;0.0814;4.3593;
961.2000;0.0838;4.3617;
961.5000;0.0814;4.3593;
961.8000;0.0830;4.3641;
962.1000;0.0830;4.3739;
962.4000;0.0830;4.3763;
962.7000;0.0838;4.3739;
963.0000;0.0855;4.3812;
963.3000;0.0863;4.3860;
963.6000;0.0806;4.3763;
963.9000;0.0855;4.3860;
964.2000;0.0887;4.3958;
964.5000;0.0847;4.3836;
964.8000;0.0822;4.3739;
965.1000;0.0830;4.3714;
965.4000;0.0855;4.3763;
965.7000;0.0838;4.3739;
966.0000;0.0847;4.3714;
966.3000;0.0838;4.3593;
966.6000;0.0830;4.3593;
966.9000;0.0871;4.3690;
967.2000;0.0790;4.3593;
967.5000;0.0847;4.3787;
967.8000;0.0871;4.3860;
968.1000;0.0855;4.3763;
968.4000;0.0879;4.3812;
968.7000;0.0822;4.3666;
969.0000;0.0830;4.3617;
969.3000;0.0863;4.3617;
969.6000;0.0912;4.3763;
969.9000;0.0814;4.3495;
970.2000;0.0830;4.3520;
970.5000;0.0798;4.3471;
970.8000;0.0855;4.3690;
971.1000;0.0830;4.3836;
971.4000;0.0855;4.3885;
971.7000;0.0830;4.3763;
972.0000;0.0855;4.3763;
972.3000;0.0822;4.3666;
972.6000;0.0895;4.3836;
972.9000;0.0814;4.3641;
973.2000;0.0920;4.4006;
973.5000;0.0863;4.3763;
973.8000;0.0806;4.3666;
974.1000;0.0822;4.3739;
974.4000;0.0830;4.3763;
974.7000;0.0847;4.3787;
975.0000;0.0838;4.3739;
975.3000;0.0830;4.3763;
975.6000;0.0814;4.3739;
975.9000;0.0855;4.3739;
976.2000;0.0830;4.3739;
976.5000;0.0806;4.3641;
976.8000;0.0855;4.3690;
977.1000;0.0838;4.3666;
977.4000;0.0814;4.3666;
977.7000;0.0847;4.3739;
978.0000;0.0855;4.3739;
978.3000;0.0773;4.3544;
978.6000;0.0716;4.3422;
978.9000;0.0863;4.3812;
979.2000;0.0838;4.3714;
979.5000;0.0830;4.3690;
979.8000;0.0912;4.3958;
980.1000;0.0887;4.3836;
980.4000;0.0838;4.3641;
980.7000;0.0855;4.3641;
981.0000;0.0741;4.3349;
981.3000;0.0838;4.3544;
981.6000;0.0855;4.3593;
981.9000;0.0822;4.3568;
982.2000;0.0830;4.3593;
982.5000;0.0838;4.3593;
982.8000;0.0928;4.3860;
983.1000;0.0838;4.3617;
983.4000;0.0879;4.3714;
983.7000;0.0822;4.3593;
984.0000;0.0822;4.3568;
984.3000;0.0830;4.3690;
984.6000;0.0830;4.3739;
984.9000;0.0806;4.3641;
985.2000;0.0822;4.3617;
985.5000;0.0838;4.3617;
985.8000;0.0871;4.3739;
986.1000;0.0830;4.3666;
986.4000;0.0830;4.3690;
986.7000;0.0830;4.3641;
987.0000;0.0838;4.3568;
987.3000;0.0838;4.3471;
987.6000;0.0847;4.3593;
987.9000;0.0847;4.3714;
988.2000;0.0847;4.3690;
988.5000;0.0814;4.3666;
988.8000;0.0830;4.3666;
989.1000;0.0806;4.3617;
989.4000;0.0798;4.3495;
989.7000;0.0830;4.3593;
990.0000;0.0822;4.3495;
990.3000;0.0904;4.3739;
990.6000;0.0822;4.3520;
990.9000;0.0798;4.3349;
991.2000;0.0838;4.3471;
991.5000;0.0806;4.3471;
991.8000;0.0863;4.3666;
992.1000;0.0871;4.3763;
992.4000;0.0838;4.3763;
992.7000;0.0830;4.3763;
993.0000;0.0830;4.3763;
993.3000;0.0838;4.3787;
993.6000;0.0806;4.3641;
993.9000;0.0814;4.3544;
994.2000;0.0830;4.3520;
994.5000;0.0790;4.3398;
994.8000;0.0838;4.3495;
995.1000;0.0822;4.3447;
995.4000;0.0855;4.3447;
995.7000;0.0814;4.3398;
996.0000;0.0830;4.3422;
996.3000;0.0855;4.3447;
996.6000;0.0855;4.3447;
996.9000;0.0838;4.3447;
997.2000;0.0838;4.3471;
997.5000;0.0855;4.3544;
997.8000;0.0847;4.3544;
998.1000;0.0830;4.3617;
998.4000;0.0806;4.3593;
998.7000;0.0855;4.3690;
999.0000;0.0830;4.3641;
999.3000;0.0838;4.3617;
999.6000;0.0847;4.3690;
999.9000;0.0847;4.3666;
1000.2000;0.0814;4.3520;
1000.5000;0.0895;4.3690;
1000.8000;0.0822;4.3374;
1001.1000;0.0863;4.3495;
1001.4000;0.0838;4.3471;
1001.7000;0.0847;4.3495;
1002.0000;0.0830;4.3520;
1002.3000;0.0847;4.3520;
1002.6000;0.0847;4.3593;
1002.9000;0.0879;4.3666;
1003.2000;0.0822;4.3593;
1003.5000;0.0838;4.3666;
1003.8000;0.0847;4.3714;
1004.1000;0.0855;4.3641;
1004.4000;0.0822;4.3641;
1004.7000;0.0830;4.3593;
1005.0000;0.0830;4.3641;
1005.3000;0.0822;4.3593;
1005.6000;0.0847;4.3714;
1005.9000;0.0830;4.3666;
1006.2000;0.0912;4.3933;
1006.5000;0.0830;4.3763;
1006.8000;0.0855;4.3836;
1007.1000;0.0838;4.3739;
1007.4000;0.0822;4.3690;
1007.7000;0.0855;4.3763;
1008.0000;0.0822;4.3690;
1008.3000;0.0838;4.3787;
1008.6000;0.0838;4.3763;
1008.9000;0.0863;4.3860;
1009.2000;0.0830;4.3885;
1009.5000;0.0838;4.3812;
1009.8000;0.0855;4.3836;
1010.1000;0.0814;4.3690;
1010.4000;0.0798;4.3568;
1010.7000;0.0871;4.3763;
1011.0000;0.0838;4.3763;
1011.3000;0.0830;4.3739;
1011.6000;0.0830;4.3617;
1011.9000;0.0847;4.3690;
1012.2000;0.0838;4.3617;
1012.5000;0.0855;4.3641;
1012.8000;0.0814;4.3593;
1013.1000;0.0822;4.3666;
1013.4000;0.0879;4.3739;
1013.7000;0.0855;4.3690;
1014.0000;0.0847;4.3690;
1014.3000;0.0765;4.3471;
1014.6000;0.0863;4.3714;
1014.9000;0.0895;4.3812;
1015.2000;0.0822;4.3593;
1015.5000;0.0814;4.3714;
1015.8000;0.0895;4.4006;
1016.1000;0.0822;4.3763;
1016.4000;0.0822;4.3787;
1016.7000;0.0822;4.3763;
1017.0000;0.0830;4.3690;
1017.3000;0.0871;4.3739;
1017.6000;0.0830;4.3690;
1017.9000;0.0847;4.3714;
1018.2000;0.0814;4.3690;
1018.5000;0.0838;4.3690;
1018.8000;0.0822;4.3690;
1019.1000;0.0830;4.3593;
1019.4000;0.0838;4.3568;
1019.7000;0.0830;4.3520;
1020.0000;0.0822;4.3447;
1020.3000;0.0847;4.3495;
1020.6000;0.0855;4.3568;
1020.9000;0.0798;4.3374;
1021.2000;0.0847;4.3495;
1021.5000;0.0847;4.3568;
1021.8000;0.0838;4.3544;
1022.1000;0.0847;4.3617;
1022.4000;0.0806;4.3568;
1022.7000;0.0847;4.3666;
1023.0000;0.0855;4.3666;
1023.3000;0.0838;4.3593;
1023.6000;0.0806;4.3447;
1023.9000;0.0847;4.3520;
1024.2000;0.0838;4.3520;
1024.5000;0.0838;4.3593;
1024.8000;0.0887;4.3714;
1025.1000;0.0814;4.3495;
1025.4000;0.0847;4.3568;
1025.7000;0.0814;4.3568;
1026.0000;0.0830;4.3495;
1026.3000;0.0814;4.3544;
1026.6000;0.0855;4.3617;
1026.9000;0.0928;4.3787;
1027.2000;0.0830;4.3471;
1027.5000;0.0798;4.3447;
1027.8000;0.0847;4.3544;
1028.1000;0.0741;4.3301;
1028.4000;0.0838;4.3593;
1028.7000;0.0822;4.3544;
1029.0000;0.0847;4.3690;
1029.3000;0.0830;4.3666;
1029.6000;0.0855;4.3593;
1029.9000;0.0806;4.3617;
1030.2000;0.0838;4.3666;
1030.5000;0.0814;4.3666;
1030.8000;0.0838;4.3739;
1031.1000;0.0806;4.3666;
1031.4000;0.0863;4.3933;
1031.7000;0.0879;4.3958;
1032.0000;0.0847;4.3787;
1032.3000;0.0847;4.3763;
1032.6000;0.0822;4.3787;
1032.9000;0.0838;4.3763;
1033.2000;0.0838;4.3860;
1033.5000;0.0863;4.3909;
1033.8000;0.0838;4.3690;
1034.1000;0.0912;4.3836;
1034.4000;0.0830;4.3617;
1034.7000;0.0838;4.3617;
1035.0000;0.0806;4.3544;
1035.3000;0.0847;4.3544;
1035.6000;0.0822;4.3398;
1035.9000;0.0847;4.3471;
1036.2000;0.0879;4.3641;
1036.5000;0.0863;4.3593;
1036.8000;0.0920;4.3739;
1037.1000;0.0847;4.3544;
1037.4000;0.0855;4.3495;
1037.7000;0.0790;4.3374;
1038.0000;0.0814;4.3520;
1038.3000;0.0822;4.3544;
1038.6000;0.0822;4.3544;
1038.9000;0.0847;4.3666;
1039.2000;0.0716;4.3252;
1039.5000;0.0806;4.3520;
1039.8000;0.0814;4.3568;
1040.1000;0.0855;4.3690;
1040.4000;0.0838;4.3690;
1040.7000;0.0847;4.3787;
1041.0000;0.0944;4.4055;
1041.3000;0.0838;4.3763;
1041.6000;0.0863;4.3714;
1041.9000;0.0830;4.3666;
1042.2000;0.0822;4.3617;
1042.5000;0.0773;4.3374;
1042.8000;0.0830;4.3520;
1043.1000;0.0863;4.3520;
1043.4000;0.0830;4.3471;
1043.7000;0.0830;4.3544;
1044.0000;0.0855;4.3568;
1044.3000;0.0830;4.3495;
1044.6000;0.0806;4.3422;
1044.9000;0.0847;4.3544;
1045.2000;0.0838;4.3544;
1045.5000;0.0847;4.3593;
1045.8000;0.0830;4.3666;
1046.1000;0.0871;4.3714;
1046.4000;0.0847;4.3787;
1046.7000;0.0838;4.3714;
1047.0000;0.0863;4.3690;
1047.3000;0.0847;4.3568;
1047.6000;0.0822;4.3520;
1047.9000;0.0838;4.3495;
1048.2000;0.0847;4.3593;
1048.5000;0.0830;4.3520;
1048.8000;0.0830;4.3568;
1049.1000;0.0863;4.3714;
1049.4000;0.0879;4.3812;
1049.7000;0.0871;4.3787;
1050.0000;0.0838;4.3739;
1050.3000;0.0887;4.3836;
1050.6000;0.0806;4.3593;
1050.9000;0.0912;4.3885;
1051.2000;0.0830;4.3641;
1051.5000;0.0838;4.3641;
1051.8000;0.0847;4.3739;
1052.1000;0.0781;4.3690;
1052.4000;0.0798;4.3714;
1052.7000;0.0847;4.3763;
1053.0000;0.0814;4.3641;
1053.3000;0.0847;4.3690;
1053.6000;0.0847;4.3641;
1053.9000;0.0822;4.3593;
1054.2000;0.0781;4.3471;
1054.5000;0.0830;4.3690;
1054.8000;0.0830;4.3593;
1055.1000;0.0855;4.3568;
1055.4000;0.0838;4.3617;
1055.7000;0.0847;4.3641;
1056.0000;0.0847;4.3714;
1056.3000;0.0847;4.3666;
1056.6000;0.0814;4.3593;
1056.9000;0.0790;4.3495;
1057.2000;0.0871;4.3666;
1057.5000;0.0838;4.3544;
1057.8000;0.0830;4.3593;
1058.1000;0.0749;4.3422;
1058.4000;0.0790;4.3568;
1058.7000;0.0847;4.3714;
1059.0000;0.0822;4.3666;
1059.3000;0.0822;4.3617;
1059.6000;0.0790;4.3568;
1059.9000;0.0781;4.3520;
1060.2000;0.0822;4.3593;
1060.5000;0.0838;4.3617;
1060.8000;0.0830;4.3568;
1061.1000;0.0912;4.3860;
1061.4000;0.0822;4.3641;
1061.7000;0.0822;4.3666;
1062.0000;0.0830;4.3690;
1062.3000;0.0830;4.3641;
1062.6000;0.0822;4.3690;
1062.9000;0.0798;4.3641;
1063.2000;0.0936;4.4031;
1063.5000;0.0847;4.3739;
1063.8000;0.0912;4.3958;
1064.1000;0.0830;4.3714;
1064.4000;0.0838;4.3666;
1064.7000;0.0822;4.3666;
1065.0000;0.0855;4.3666;
1065.3000;0.0830;4.3690;
1065.6000;0.0847;4.3714;
1065.9000;0.0830;4.3641;
1066.2000;0.0855;4.3690;
1066.5000;0.0855;4.3739;
1066.8000;0.0814;4.3690;
1067.1000;0.0847;4.3690;
1067.4000;0.0838;4.3593;
1067.7000;0.0847;4.3593;
1068.0000;0.0855;4.3593;
1068.3000;0.0838;4.3568;
1068.6000;0.0838;4.3593;
1068.9000;0.0838;4.3690;
1069.2000;0.0822;4.3568;
1069.5000;0.0863;4.3544;
1069.8000;0.0822;4.3544;
1070.1000;0.0871;4.3641;
1070.4000;0.0855;4.3568;
1070.7000;0.0838;4.3568;
1071.0000;0.0781;4.3447;
1071.3000;0.0822;4.3690;
1071.6000;0.0904;4.3885;
1071.9000;0.0798;4.3666;
1072.2000;0.0847;4.3739;
1072.5000;0.0904;4.3885;
1072.8000;0.0814;4.3641;
1073.1000;0.0847;4.3690;
1073.4000;0.0944;4.3933;
1073.7000;0.0847;4.3763;
1074.0000;0.0798;4.3593;
1074.3000;0.0847;4.3617;
1074.6000;0.0814;4.3471;
1074.9000;0.0838;4.3520;
1075.2000;0.0863;4.3544;
1075.5000;0.0847;4.3568;
1075.8000;0.0855;4.3544;
1076.1000;0.0847;4.3568;
1076.4000;0.0863;4.3593;
1076.7000;0.0871;4.3690;
1077.0000;0.0855;4.3593;
1077.3000;0.0847;4.3593;
1077.6000;0.0838;4.3544;
1077.9000;0.0814;4.3447;
1078.2000;0.0830;4.3495;
1078.5000;0.0855;4.3544;
1078.8000;0.0847;4.3520;
1079.1000;0.0847;4.3520;
1079.4000;0.0830;4.3495;
1079.7000;0.0838;4.3520;
1080.0000;0.0855;4.3520;
1080.3000;0.0838;4.3495;
1080.6000;0.0838;4.3447;
1080.9000;0.0871;4.3617;
1081.2000;0.0863;4.3763;
1081.5000;0.0847;4.3714;
1081.8000;0.0961;4.4031;
1082.1000;0.0847;4.3641;
1082.4000;0.0806;4.3568;
1082.7000;0.0822;4.3617;
1083.0000;0.0822;4.3520;
1083.3000;0.0806;4.3471;
1083.6000;0.0790;4.3422;
1083.9000;0.0952;4.3860;
1084.2000;0.0847;4.3495;
1084.5000;0.0855;4.3495;
1084.8000;0.0838;4.3471;
1085.1000;0.0855;4.3593;
1085.4000;0.0822;4.3568;
1085.7000;0.0863;4.3641;
1086.0000;0.0822;4.3495;
1086.3000;0.0847;4.3641;
1086.6000;0.0928;4.3860;
1086.9000;0.0855;4.3641;
1087.2000;0.0790;4.3495;
1087.5000;0.0814;4.3568;
1087.8000;0.0838;4.3544;
1088.1000;0.0855;4.3471;
1088.4000;0.0920;4.3666;
1088.7000;0.0904;4.3739;
1089.0000;0.0863;4.3714;
1089.3000;0.0830;4.3690;
1089.6000;0.0773;4.3422;
1089.9000;0.0838;4.3641;
1090.2000;0.0838;4.3593;
1090.5000;0.0863;4.3690;
1090.8000;0.0806;4.3593;
1091.1000;0.0781;4.3422;
1091.4000;0.0838;4.3568;
1091.7000;0.0838;4.3641;
1092.0000;0.0822;4.3641;
1092.3000;0.0838;4.3641;
1092.6000;0.0830;4.3763;
1092.9000;0.0847;4.3787;
1093.2000;0.0847;4.3885;
1093.5000;0.0822;4.3787;
1093.8000;0.0838;4.3885;
1094.1000;0.0830;4.3958;
1094.4000;0.0830;4.3860;
1094.7000;0.0855;4.3860;
1095.0000;0.0830;4.3885;
1095.3000;0.0855;4.3958;
1095.6000;0.0806;4.3836;
1095.9000;0.0814;4.3812;
1096.2000;0.0822;4.3812;
1096.5000;0.0773;4.3787;
1096.8000;0.0847;4.3860;
1097.1000;0.0830;4.3593;
1097.4000;0.0806;4.3495;
1097.7000;0.0822;4.3544;
1098.0000;0.0773;4.3447;
1098.3000;0.0855;4.3739;
1098.6000;0.0830;4.3714;
1098.9000;0.0830;4.3739;
1099.2000;0.0838;4.3885;
1099.5000;0.0847;4.3958;
1099.8000;0.0855;4.3885;
1100.1000;0.0895;4.3958;
1100.4000;0.0773;4.3641;
1100.7000;0.0879;4.3812;
1101.0000;0.0822;4.3714;
1101.3000;0.0855;4.3787;
1101.6000;0.0847;4.3666;
1101.9000;0.0871;4.3666;
1102.2000;0.0814;4.3568;
1102.5000;0.0814;4.3617;
1102.8000;0.0822;4.3568;
1103.1000;0.0830;4.3544;
1103.4000;0.0855;4.3520;
1103.7000;0.0830;4.3495;
1104.0000;0.0822;4.3495;
1104.3000;0.0822;4.3544;
1104.6000;0.0830;4.3593;
1104.9000;0.0912;4.3812;
1105.2000;0.0847;4.3666;
1105.5000;0.0895;4.3739;
1105.8000;0.0830;4.3666;
1106.1000;0.0855;4.3812;
1106.4000;0.0822;4.3763;
1106.7000;0.0798;4.3568;
1107.0000;0.0912;4.3885;
1107.3000;0.0830;4.3617;
1107.6000;0.0806;4.3520;
1107.9000;0.0814;4.3568;
1108.2000;0.0806;4.3495;
1108.5000;0.0952;4.3982;
1108.8000;0.0855;4.3690;
1109.1000;0.0855;4.3714;
1109.4000;0.0806;4.3641;
1109.7000;0.0822;4.3617;
1110.0000;0.0830;4.3617;
1110.3000;0.0863;4.3690;
1110.6000;0.0830;4.3617;
1110.9000;0.0863;4.3641;
1111.2000;0.0847;4.3568;
1111.5000;0.0847;4.3617;
1111.8000;0.0773;4.3544;
1112.1000;0.0871;4.3714;
1112.4000;0.0822;4.3690;
1112.7000;0.0847;4.3739;
1113.0000;0.0822;4.3714;
1113.3000;0.0847;4.3812;
1113.6000;0.0814;4.3739;
1113.9000;0.0830;4.3787;
1114.2000;0.0838;4.3836;
1114.5000;0.0847;4.3739;
1114.8000;0.0822;4.3714;
1115.1000;0.0847;4.3787;
1115.4000;0.0847;4.3787;
1115.7000;0.0847;4.3787;
1116.0000;0.0895;4.4006;
1116.3000;0.0847;4.3909;
1116.6000;0.0741;4.3617;
1116.9000;0.0773;4.3787;
1117.2000;0.0830;4.3787;
1117.5000;0.0904;4.4055;
1117.8000;0.0863;4.3909;
1118.1000;0.0847;4.3836;
1118.4000;0.0830;4.3763;
1118.7000;0.0790;4.3641;
1119.0000;0.0847;4.3812;
1119.3000;0.0830;4.3763;
1119.6000;0.0822;4.3690;
1119.9000;0.0838;4.3860;
1120.2000;0.0855;4.3885;
1120.5000;0.0855;4.3958;
1120.8000;0.0847;4.3909;
1121.1000;0.0749;4.3666;
1121.4000;0.0855;4.3958;
1121.7000;0.0838;4.3958;
1122.0000;0.0961;4.4274;
1122.3000;0.0822;4.3885;
1122.6000;0.0790;4.3836;
1122.9000;0.0838;4.3933;
1123.2000;0.0847;4.3885;
1123.5000;0.0838;4.3860;
1123.8000;0.0855;4.3885;
1124.1000;0.0830;4.3787;
1124.4000;0.0847;4.3885;
1124.7000;0.0822;4.3836;
1125.0000;0.0855;4.3885;
1125.3000;0.0847;4.3787;
1125.6000;0.0855;4.3739;
1125.9000;0.0773;4.3568;
1126.2000;0.0814;4.3617;
1126.5000;0.0822;4.3641;
1126.8000;0.0879;4.3836;
1127.1000;0.0855;4.3739;
1127.4000;0.0838;4.3763;
1127.7000;0.0798;4.3666;
1128.0000;0.0814;4.3812;
1128.3000;0.0790;4.3836;
1128.6000;0.0830;4.3933;
1128.9000;0.0879;4.4055;
1129.2000;0.0855;4.4079;
1129.5000;0.0822;4.3982;
1129.8000;0.0855;4.4104;
1130.1000;0.0847;4.4006;
1130.4000;0.0847;4.3958;
1130.7000;0.0765;4.3763;
1131.0000;0.0806;4.3836;
1131.3000;0.0838;4.3933;
1131.6000;0.0830;4.3860;
1131.9000;0.0838;4.3836;
1132.2000;0.0895;4.3909;
1132.5000;0.0830;4.3860;
1132.8000;0.0814;4.3787;
1133.1000;0.0757;4.3714;
1133.4000;0.0773;4.3763;
1133.7000;0.0814;4.3885;
1134.0000;0.0920;4.4153;
1134.3000;0.0847;4.3885;
1134.6000;0.0830;4.3763;
1134.9000;0.0830;4.3739;
1135.2000;0.0830;4.3690;
1135.5000;0.0847;4.3690;
1135.8000;0.0847;4.3690;
1136.1000;0.0904;4.3860;
1136.4000;0.0838;4.3641;
1136.7000;0.0847;4.3690;
1137.0000;0.0790;4.3447;
1137.3000;0.0847;4.3714;
1137.6000;0.0757;4.3471;
1137.9000;0.0822;4.3666;
1138.2000;0.0822;4.3690;
1138.5000;0.0838;4.3690;
1138.8000;0.0871;4.3714;
1139.1000;0.0773;4.3593;
1139.4000;0.0887;4.3860;
1139.7000;0.0773;4.3593;
1140.0000;0.0847;4.3787;
1140.3000;0.0814;4.3812;
1140.6000;0.0838;4.3836;
1140.9000;0.0863;4.3933;
1141.2000;0.0847;4.3812;
1141.5000;0.0847;4.3763;
1141.8000;0.0830;4.3690;
1142.1000;0.0855;4.3860;
1142.4000;0.0814;4.3690;
1142.7000;0.0847;4.3739;
1143.0000;0.0838;4.3617;
1143.3000;0.0847;4.3641;
1143.6000;0.0847;4.3666;
1143.9000;0.0830;4.3812;
1144.2000;0.0847;4.3787;
1144.5000;0.0830;4.3690;
1144.8000;0.0863;4.3812;
1145.1000;0.0806;4.3787;
1145.4000;0.0847;4.3909;
1145.7000;0.0887;4.4079;
1146.0000;0.0863;4.3885;
1146.3000;0.0838;4.3933;
1146.6000;0.0814;4.3860;
1146.9000;0.0838;4.3933;
1147.2000;0.0855;4.3982;
1147.5000;0.0830;4.3909;
1147.8000;0.0847;4.3933;
1148.1000;0.0790;4.3714;
1148.4000;0.0855;4.3885;
1148.7000;0.0838;4.3885;
1149.0000;0.0822;4.3787;
1149.3000;0.0830;4.3836;
1149.6000;0.0838;4.3739;
1149.9000;0.0822;4.3617;
1150.2000;0.0814;4.3666;
1150.5000;0.0838;4.3787;
1150.8000;0.0814;4.3763;
1151.1000;0.0855;4.3836;
1151.4000;0.0838;4.3860;
1151.7000;0.0847;4.3739;
1152.0000;0.0863;4.3787;
1152.3000;0.0806;4.3666;
1152.6000;0.0830;4.3739;
1152.9000;0.0847;4.3763;
1153.2000;0.0822;4.3593;
1153.5000;0.0838;4.3617;
1153.8000;0.0863;4.3690;
1154.1000;0.0822;4.3593;
1154.4000;0.0871;4.3666;
1154.7000;0.0838;4.3520;
1155.0000;0.0814;4.3495;
1155.3000;0.0822;4.3544;
1155.6000;0.0806;4.3520;
1155.9000;0.0847;4.3568;
1156.2000;0.0798;4.3520;
1156.5000;0.0838;4.3568;
1156.8000;0.0838;4.3593;
1157.1000;0.0822;4.3544;
1157.4000;0.0822;4.3544;
1157.7000;0.0847;4.3568;
1158.0000;0.0806;4.3422;
1158.3000;0.0806;4.3349;
1158.6000;0.0961;4.3787;
1158.9000;0.0830;4.3374;
1159.2000;0.0830;4.3398;
1159.5000;0.0814;4.3374;
1159.8000;0.0847;4.3471;
1160.1000;0.0855;4.3374;
1160.4000;0.0838;4.3374;
1160.7000;0.0765;4.3203;
1161.0000;0.0871;4.3471;
1161.3000;0.0830;4.3374;
1161.6000;0.0830;4.3349;
1161.9000;0.0904;4.3544;
1162.2000;0.0847;4.3447;
1162.5000;0.0887;4.3495;
1162.8000;0.0814;4.3349;
1163.1000;0.0830;4.3447;
1163.4000;0.0879;4.3471;
1163.7000;0.0871;4.3593;
1164.0000;0.0838;4.3520;
1164.3000;0.0798;4.3495;
1164.6000;0.0838;4.3568;
1164.9000;0.0822;4.3617;
1165.2000;0.0830;4.3641;
1165.5000;0.0708;4.3325;
1165.8000;0.0830;4.3593;
1166.1000;0.0863;4.3690;
1166.4000;0.0977;4.4104;
1166.7000;0.0863;4.3812;
1167.0000;0.0822;4.3593;
1167.3000;0.0863;4.3714;
1167.6000;0.0847;4.3739;
1167.9000;0.0863;4.3812;
1168.2000;0.0830;4.3787;
1168.5000;0.0806;4.3714;
1168.8000;0.0708;4.3422;
1169.1000;0.0847;4.3763;
1169.4000;0.0847;4.3739;
1169.7000;0.0847;4.3739;
1170.0000;0.0855;4.3690;
1170.3000;0.0838;4.3641;
1170.6000;0.0830;4.3617;
1170.9000;0.0765;4.3447;
1171.2000;0.0765;4.3471;
1171.5000;0.0847;4.3714;
1171.8000;0.0830;4.3690;
1172.1000;0.0830;4.3641;
1172.4000;0.0855;4.3690;
1172.7000;0.0863;4.3739;
1173.0000;0.0863;4.3666;
1173.3000;0.0855;4.3544;
1173.6000;0.0822;4.3471;
1173.9000;0.0814;4.3398;
1174.2000;0.0863;4.3568;
1174.5000;0.0838;4.3520;
1174.8000;0.0838;4.3520;
1175.1000;0.0855;4.3495;
1175.4000;0.0871;4.3544;
1175.7000;0.0847;4.3593;
1176.0000;0.0863;4.3666;
1176.3000;0.0855;4.3568;
1176.6000;0.0830;4.3568;
1176.9000;0.0838;4.3471;
1177.2000;0.0855;4.3520;
1177.5000;0.0790;4.3349;
1177.8000;0.0855;4.3544;
1178.1000;0.0765;4.3349;
1178.4000;0.0814;4.3520;
1178.7000;0.0798;4.3349;
1179.0000;0.0838;4.3422;
1179.3000;0.0814;4.3495;
1179.6000;0.0790;4.3495;
1179.9000;0.0838;4.3641;
1180.2000;0.0838;4.3666;
1180.5000;0.0838;4.3593;
1180.8000;0.0814;4.3495;
1181.1000;0.0847;4.3641;
1181.4000;0.0952;4.3885;
1181.7000;0.0773;4.3422;
1182.0000;0.0855;4.3763;
1182.3000;0.0830;4.3763;
1182.6000;0.0871;4.3763;
1182.9000;0.0847;4.3763;
1183.2000;0.0847;4.3714;
1183.5000;0.0822;4.3641;
1183.8000;0.0781;4.3495;
1184.1000;0.0830;4.3714;
1184.4000;0.0830;4.3763;
1184.7000;0.0847;4.3690;
1185.0000;0.0830;4.3690;
1185.3000;0.0847;4.3641;
1185.6000;0.0838;4.3666;
1185.9000;0.0822;4.3568;
1186.2000;0.0863;4.3666;
1186.5000;0.0830;4.3544;
1186.8000;0.0912;4.3739;
1187.1000;0.0822;4.3398;
1187.4000;0.0863;4.3471;
1187.7000;0.0765;4.3203;
1188.0000;0.0830;4.3349;
1188.3000;0.0904;4.3641;
1188.6000;0.0838;4.3544;
1188.9000;0.0863;4.3641;
1189.2000;0.0838;4.3471;
1189.5000;0.0822;4.3447;
1189.8000;0.0871;4.3593;
1190.1000;0.0863;4.3568;
1190.4000;0.0822;4.3349;
1190.7000;0.0822;4.3228;
1191.0000;0.0847;4.3179;
1191.3000;0.0790;4.3106;
1191.6000;0.0847;4.3325;
1191.9000;0.0806;4.3155;
1192.2000;0.0741;4.3009;
1192.5000;0.0847;4.3301;
1192.8000;0.0855;4.3349;
1193.1000;0.0814;4.3179;
1193.4000;0.0855;4.3349;
1193.7000;0.0847;4.3349;
1194.0000;0.0822;4.3374;
1194.3000;0.0830;4.3398;
1194.6000;0.0847;4.3471;
1194.9000;0.0838;4.3325;
1195.2000;0.0847;4.3495;
1195.5000;0.0838;4.3495;
1195.8000;0.0830;4.3520;
1196.1000;0.0749;4.3325;
1196.4000;0.0822;4.3544;
1196.7000;0.0838;4.3666;
1197.0000;0.0838;4.3666;
1197.3000;0.0806;4.3520;
1197.6000;0.0814;4.3568;
1197.9000;0.0847;4.3641;
1198.2000;0.0781;4.3520;
1198.5000;0.0879;4.3666;
1198.8000;0.0830;4.3617;
1199.1000;0.0838;4.3544;
1199.4000;0.0871;4.3641;
1199.7000;0.0798;4.3398;
1200.0000;0.0822;4.3422;
1200.3000;0.0814;4.3276;
1200.6000;0.0814;4.3325;
1200.9000;0.0830;4.3252;
1201.2000;0.0838;4.3325;
1201.5000;0.0838;4.3374;
1201.8000;0.0863;4.3398;
1202.1000;0.0847;4.3398;
1202.4000;0.0830;4.3422;
1202.7000;0.0822;4.3471;
1203.0000;0.0814;4.3398;
1203.3000;0.0847;4.3495;
1203.6000;0.0838;4.3398;
1203.9000;0.0847;4.3422;
1204.2000;0.0830;4.3520;
1204.5000;0.0871;4.3641;
1204.8000;0.0822;4.3520;
1205.1000;0.0847;4.3568;
1205.4000;0.0822;4.3495;
1205.7000;0.0822;4.3495;
1206.0000;0.0830;4.3471;
1206.3000;0.0830;4.3520;
1206.6000;0.0847;4.3422;
1206.9000;0.0814;4.3301;
1207.2000;0.0847;4.3422;
1207.5000;0.0798;4.3325;
1207.8000;0.0830;4.3374;
1208.1000;0.0855;4.3422;
1208.4000;0.0822;4.3374;
1208.7000;0.0830;4.3471;
1209.0000;0.0838;4.3495;
1209.3000;0.0830;4.3374;
1209.6000;0.0838;4.3422;
1209.9000;0.0830;4.3398;
1210.2000;0.0830;4.3398;
1210.5000;0.0838;4.3422;
1210.8000;0.0838;4.3374;
1211.1000;0.0855;4.3301;
1211.4000;0.0806;4.3349;
1211.7000;0.0822;4.3374;
1212.0000;0.0822;4.3422;
1212.3000;0.0863;4.3471;
1212.6000;0.0814;4.3325;
1212.9000;0.0838;4.3422;
1213.2000;0.0773;4.3228;
1213.5000;0.0830;4.3422;
1213.8000;0.0838;4.3520;
1214.1000;0.0830;4.3617;
1214.4000;0.0847;4.3787;
1214.7000;0.0912;4.3909;
1215.0000;0.0830;4.3666;
1215.3000;0.0855;4.3690;
1215.6000;0.0806;4.3641;
1215.9000;0.0822;4.3666;
1216.2000;0.0822;4.3568;
1216.5000;0.0863;4.3568;
1216.8000;0.0838;4.3471;
1217.1000;0.0757;4.3252;
1217.4000;0.0830;4.3471;
1217.7000;0.0822;4.3325;
1218.0000;0.0847;4.3422;
1218.3000;0.0855;4.3520;
1218.6000;0.0830;4.3495;
1218.9000;0.0806;4.3495;
1219.2000;0.0847;4.3641;
1219.5000;0.0830;4.3568;
1219.8000;0.0822;4.3520;
1220.1000;0.0822;4.3617;
1220.4000;0.0830;4.3666;
1220.7000;0.0838;4.3690;
1221.0000;0.0830;4.3641;
1221.3000;0.0781;4.3568;
1221.6000;0.0822;4.3617;
1221.9000;0.0830;4.3593;
1222.2000;0.0879;4.3690;
1222.5000;0.0863;4.3739;
1222.8000;0.0879;4.3666;
1223.1000;0.0838;4.3617;
1223.4000;0.0830;4.3544;
1223.7000;0.0838;4.3593;
1224.0000;0.0838;4.3544;
1224.3000;0.0944;4.3787;
1224.6000;0.0855;4.3593;
1224.9000;0.0830;4.3641;
1225.2000;0.0912;4.3860;
1225.5000;0.0985;4.3982;
1225.8000;0.0895;4.3666;
1226.1000;0.0790;4.3495;
1226.4000;0.0798;4.3495;
1226.7000;0.0822;4.3568;
1227.0000;0.0871;4.3739;
1227.3000;0.0871;4.3812;
1227.6000;0.0838;4.3763;
1227.9000;0.0838;4.3787;
1228.2000;0.0838;4.3836;
1228.5000;0.0895;4.4006;
1228.8000;0.0814;4.3714;
1229.1000;0.0863;4.3860;
1229.4000;0.0830;4.3885;
1229.7000;0.0847;4.3933;
1230.0000;0.0904;4.4031;
1230.3000;0.0863;4.3933;
1230.6000;0.0830;4.3787;
1230.9000;0.0863;4.3787;
1231.2000;0.0855;4.3787;
1231.5000;0.0830;4.3812;
1231.8000;0.0838;4.3739;
1232.1000;0.0887;4.3885;
1232.4000;0.0822;4.3739;
1232.7000;0.0798;4.3593;
1233.0000;0.0863;4.3714;
1233.3000;0.0855;4.3739;
1233.6000;0.0838;4.3739;
1233.9000;0.0847;4.3812;
1234.2000;0.0822;4.3690;
1234.5000;0.0814;4.3641;
1234.8000;0.0830;4.3593;
1235.1000;0.0863;4.3641;
1235.4000;0.0830;4.3568;
1235.7000;0.0847;4.3641;
1236.0000;0.0830;4.3641;
1236.3000;0.0847;4.3714;
1236.6000;0.0708;4.3374;
1236.9000;0.0838;4.3666;
1237.2000;0.0855;4.3714;
1237.5000;0.0830;4.3714;
1237.8000;0.0847;4.3860;
1238.1000;0.0830;4.3714;
1238.4000;0.0830;4.3739;
1238.7000;0.0692;4.3325;
1239.0000;0.0855;4.3690;
1239.3000;0.0847;4.3641;
1239.6000;0.0855;4.3568;
1239.9000;0.0847;4.3568;
1240.2000;0.0855;4.3568;
1240.5000;0.0847;4.3447;
1240.8000;0.0895;4.3520;
1241.1000;0.0863;4.3398;
1241.4000;0.0855;4.3471;
1241.7000;0.0847;4.3471;
1242.0000;0.0830;4.3398;
1242.3000;0.0847;4.3447;
1242.6000;0.0838;4.3422;
1242.9000;0.0863;4.3520;
1243.2000;0.0863;4.3593;
1243.5000;0.0847;4.3641;
1243.8000;0.0847;4.3641;
1244.1000;0.0830;4.3568;
1244.4000;0.0822;4.3593;
1244.7000;0.0847;4.3641;
1245.0000;0.0855;4.3617;
1245.3000;0.0928;4.3787;
1245.6000;0.0855;4.3641;
1245.9000;0.0847;4.3544;
1246.2000;0.0838;4.3593;
1246.5000;0.0830;4.3617;
1246.8000;0.0838;4.3617;
1247.1000;0.0830;4.3641;
1247.4000;0.0863;4.3739;
1247.7000;0.0847;4.3617;
1248.0000;0.0781;4.3422;
1248.3000;0.0814;4.3520;
1248.6000;0.0806;4.3447;
1248.9000;0.0830;4.3520;
1249.2000;0.0879;4.3641;
1249.5000;0.0912;4.3885;
1249.8000;0.0847;4.3690;
1250.1000;0.0912;4.3860;
1250.4000;0.0895;4.3787;
1250.7000;0.0814;4.3544;
1251.0000;0.0838;4.3617;
1251.3000;0.0847;4.3714;
1251.6000;0.0855;4.3787;
1251.9000;0.0838;4.3836;
1252.2000;0.0830;4.3933;
1252.5000;0.0838;4.3860;
1252.8000;0.0847;4.3836;
1253.1000;0.0790;4.3641;
1253.4000;0.0822;4.3690;
1253.7000;0.0855;4.3812;
1254.0000;0.0838;4.3812;
1254.3000;0.0830;4.3714;
1254.6000;0.0790;4.3593;
1254.9000;0.0863;4.3860;
1255.2000;0.0838;4.3812;
1255.5000;0.0847;4.3787;
1255.8000;0.0838;4.3739;
1256.1000;0.0863;4.3812;
1256.4000;0.0863;4.3739;
1256.7000;0.0847;4.3739;
1257.0000;0.0855;4.3714;
1257.3000;0.0863;4.3690;
1257.6000;0.0838;4.3666;
1257.9000;0.0822;4.3495;
1258.2000;0.0855;4.3763;
1258.5000;0.0847;4.3641;
1258.8000;0.0830;4.3617;
1259.1000;0.0838;4.3666;
1259.4000;0.0855;4.3666;
1259.7000;0.0847;4.3568;
1260.0000;0.0765;4.3374;
1260.3000;0.0847;4.3520;
1260.6000;0.0847;4.3568;
1260.9000;0.0830;4.3447;
1261.2000;0.0863;4.3544;
1261.5000;0.0822;4.3495;
1261.8000;0.0781;4.3447;
1262.1000;0.0855;4.3568;
1262.4000;0.0855;4.3568;
1262.7000;0.0863;4.3714;
1263.0000;0.0847;4.3763;
1263.3000;0.0830;4.3714;
1263.6000;0.0798;4.3641;
1263.9000;0.0847;4.3836;
1264.2000;0.0871;4.3909;
1264.5000;0.0847;4.3739;
1264.8000;0.0830;4.3714;
1265.1000;0.0855;4.3812;
1265.4000;0.0855;4.3739;
1265.7000;0.0830;4.3739;
1266.0000;0.0847;4.3836;
1266.3000;0.0855;4.3860;
1266.6000;0.0814;4.3714;
1266.9000;0.0822;4.3690;
1267.2000;0.0806;4.3593;
1267.5000;0.0822;4.3641;
1267.8000;0.0830;4.3739;
1268.1000;0.0822;4.3787;
1268.4000;0.0806;4.3690;
1268.7000;0.0847;4.3812;
1269.0000;0.0838;4.3860;
1269.3000;0.0847;4.3836;
1269.6000;0.0838;4.3787;
1269.9000;0.0822;4.3739;
1270.2000;0.0847;4.3787;
1270.5000;0.0830;4.3860;
1270.8000;0.0847;4.3933;
1271.1000;0.0871;4.3958;
1271.4000;0.0871;4.3933;
1271.7000;0.0863;4.3860;
1272.0000;0.0838;4.3787;
1272.3000;0.0847;4.3714;
1272.6000;0.0838;4.3714;
1272.9000;0.0830;4.3690;
1273.2000;0.0855;4.3690;
1273.5000;0.0822;4.3641;
1273.8000;0.0806;4.3593;
1274.1000;0.0863;4.3787;
1274.4000;0.0920;4.4104;
1274.7000;0.0863;4.3812;
1275.0000;0.0855;4.3739;
1275.3000;0.0830;4.3641;
1275.6000;0.0855;4.3641;
1275.9000;0.0838;4.3520;
1276.2000;0.0830;4.3520;
1276.5000;0.0798;4.3374;
1276.8000;0.0855;4.3568;
1277.1000;0.0863;4.3568;
1277.4000;0.0830;4.3544;
1277.7000;0.0838;4.3617;
1278.0000;0.0847;4.3666;
1278.3000;0.0847;4.3690;
1278.6000;0.0904;4.3763;
1278.9000;0.0855;4.3763;
1279.2000;0.0855;4.3812;
1279.5000;0.0814;4.3763;
1279.8000;0.0838;4.3787;
1280.1000;0.0830;4.3763;
1280.4000;0.0838;4.3714;
1280.7000;0.0855;4.3714;
1281.0000;0.0887;4.3860;
1281.3000;0.0830;4.3763;
1281.6000;0.0904;4.3933;
1281.9000;0.0847;4.3860;
1282.2000;0.0838;4.3739;
1282.5000;0.0847;4.3763;
1282.8000;0.0838;4.3787;
1283.1000;0.0838;4.3714;
1283.4000;0.0855;4.3714;
1283.7000;0.0847;4.3641;
1284.0000;0.0830;4.3568;
1284.3000;0.0814;4.3471;
1284.6000;0.0822;4.3495;
1284.9000;0.0847;4.3593;
1285.2000;0.0838;4.3714;
1285.5000;0.0838;4.3812;
1285.8000;0.0887;4.3836;
1286.1000;0.0863;4.3690;
1286.4000;0.0838;4.3617;
1286.7000;0.0830;4.3520;
1287.0000;0.0830;4.3593;
1287.3000;0.0838;4.3617;
1287.6000;0.0847;4.3666;
1287.9000;0.0863;4.3714;
1288.2000;0.0838;4.3617;
1288.5000;0.0863;4.3666;
1288.8000;0.0847;4.3666;
1289.1000;0.0838;4.3593;
1289.4000;0.0838;4.3593;
1289.7000;0.0863;4.3666;
1290.0000;0.0887;4.3812;
1290.3000;0.0847;4.3666;
1290.6000;0.0855;4.3714;
1290.9000;0.0822;4.3617;
1291.2000;0.0838;4.3690;
1291.5000;0.0806;4.3617;
1291.8000;0.0830;4.3763;
1292.1000;0.0863;4.3763;
1292.4000;0.0830;4.3739;
1292.7000;0.0838;4.3763;
1293.0000;0.0855;4.3739;
1293.3000;0.0830;4.3666;
1293.6000;0.0855;4.3714;
1293.9000;0.0830;4.3666;
1294.2000;0.0838;4.3787;
1294.5000;0.0781;4.3641;
1294.8000;0.0814;4.3812;
1295.1000;0.0814;4.3787;
1295.4000;0.0871;4.3909;
1295.7000;0.0847;4.3885;
1296.0000;0.0855;4.3933;
1296.3000;0.0830;4.3933;
1296.6000;0.0822;4.3860;
1296.9000;0.0863;4.3958;
1297.2000;0.0822;4.3836;
1297.5000;0.0879;4.4055;
1297.8000;0.0838;4.3933;
1298.1000;0.0790;4.3690;
1298.4000;0.0838;4.3641;
1298.7000;0.0838;4.3641;
1299.0000;0.0847;4.3666;
1299.3000;0.0863;4.3690;
1299.6000;0.0847;4.3812;
1299.9000;0.0855;4.3885;
1300.2000;0.0822;4.3812;
1300.5000;0.0838;4.3885;
1300.8000;0.0855;4.3909;
1301.1000;0.0838;4.3909;
1301.4000;0.0855;4.3909;
1301.7000;0.0822;4.3860;
1302.0000;0.0847;4.3982;
1302.3000;0.0847;4.3933;
1302.6000;0.0855;4.3885;
1302.9000;0.0822;4.3860;
1303.2000;0.0871;4.3958;
1303.5000;0.0871;4.3933;
1303.8000;0.0830;4.3860;
1304.1000;0.0830;4.3885;
1304.4000;0.0830;4.3933;
1304.7000;0.0830;4.3836;
1305.0000;0.0863;4.3836;
1305.3000;0.0806;4.3617;
1305.6000;0.0863;4.3739;
1305.9000;0.0838;4.3617;
1306.2000;0.0830;4.3690;
1306.5000;0.0806;4.3641;
1306.8000;0.0830;4.3666;
1307.1000;0.0830;4.3495;
1307.4000;0.0863;4.3617;
1307.7000;0.0822;4.3520;
1308.0000;0.0814;4.3568;
1308.3000;0.0863;4.3739;
1308.6000;0.0781;4.3544;
1308.9000;0.0692;4.3325;
1309.2000;0.0838;4.3690;
1309.5000;0.0895;4.3860;
1309.8000;0.0847;4.3763;
1310.1000;0.0806;4.3739;
1310.4000;0.0855;4.3860;
1310.7000;0.0830;4.3714;
1311.0000;0.0855;4.3714;
1311.3000;0.0830;4.3617;
1311.6000;0.0822;4.3593;
1311.9000;0.0814;4.3568;
1312.2000;0.0830;4.3568;
1312.5000;0.0822;4.3495;
1312.8000;0.0790;4.3422;
1313.1000;0.0830;4.3544;
1313.4000;0.0855;4.3593;
1313.7000;0.0814;4.3471;
1314.0000;0.0733;4.3252;
1314.3000;0.0781;4.3471;
1314.6000;0.0855;4.3617;
1314.9000;0.0855;4.3714;
1315.2000;0.0830;4.3714;
1315.5000;0.0814;4.3641;
1315.8000;0.0830;4.3666;
1316.1000;0.0912;4.3933;
1316.4000;0.0855;4.3641;
1316.7000;0.0822;4.3447;
1317.0000;0.0814;4.3495;
1317.3000;0.0822;4.3544;
1317.6000;0.0838;4.3617;
1317.9000;0.0855;4.3641;
1318.2000;0.0806;4.3422;
1318.5000;0.0863;4.3520;
1318.8000;0.0871;4.3520;
1319.1000;0.0822;4.3349;
1319.4000;0.0895;4.3544;
1319.7000;0.0749;4.3203;
1320.0000;0.0855;4.3544;
1320.3000;0.0790;4.3447;
1320.6000;0.0798;4.3495;
1320.9000;0.0847;4.3593;
1321.2000;0.0855;4.3666;
1321.5000;0.0830;4.3666;
1321.8000;0.0847;4.3690;
1322.1000;0.0830;4.3641;
1322.4000;0.0871;4.3836;
1322.7000;0.0855;4.3739;
1323.0000;0.0822;4.3739;
1323.3000;0.0830;4.3714;
1323.6000;0.0830;4.3666;
1323.9000;0.0847;4.3739;
1324.2000;0.0806;4.3593;
1324.5000;0.0822;4.3593;
1324.8000;0.0838;4.3617;
1325.1000;0.0847;4.3666;
1325.4000;0.0830;4.3714;
1325.7000;0.0806;4.3641;
1326.0000;0.0847;4.3787;
1326.3000;0.0838;4.3739;
1326.6000;0.0847;4.3714;
1326.9000;0.0790;4.3593;
1327.2000;0.0838;4.3690;
1327.5000;0.0847;4.3714;
1327.8000;0.0798;4.3544;
1328.1000;0.0806;4.3471;
1328.4000;0.0822;4.3520;
1328.7000;0.0863;4.3520;
1329.0000;0.0838;4.3422;
1329.3000;0.0822;4.3398;
1329.6000;0.0863;4.3374;
1329.9000;0.0855;4.3447;
1330.2000;0.0847;4.3568;
1330.5000;0.0847;4.3641;
1330.8000;0.0887;4.3763;
1331.1000;0.0838;4.3666;
1331.4000;0.0847;4.3641;
1331.7000;0.0879;4.3714;
1332.0000;0.0806;4.3495;
1332.3000;0.0838;4.3617;
1332.6000;0.0684;4.3155;
1332.9000;0.0814;4.3520;
1333.2000;0.0871;4.3739;
1333.5000;0.0887;4.3641;
1333.8000;0.0847;4.3520;
1334.1000;0.0871;4.3641;
1334.4000;0.0855;4.3641;
1334.7000;0.0838;4.3593;
1335.0000;0.0936;4.3909;
1335.3000;0.0855;4.3617;
1335.6000;0.0830;4.3593;
1335.9000;0.0814;4.3544;
1336.2000;0.0863;4.3666;
1336.5000;0.0814;4.3593;
1336.8000;0.0838;4.3641;
1337.1000;0.0838;4.3641;
1337.4000;0.0855;4.3787;
1337.7000;0.0863;4.3739;
1338.0000;0.0830;4.3568;
1338.3000;0.0798;4.3398;
1338.6000;0.0830;4.3520;
1338.9000;0.0830;4.3520;
1339.2000;0.0814;4.3495;
1339.5000;0.0822;4.3568;
1339.8000;0.0863;4.3641;
1340.1000;0.0822;4.3520;
1340.4000;0.0855;4.3520;
1340.7000;0.0863;4.3544;
1341.0000;0.0806;4.3447;
1341.3000;0.0920;4.3690;
1341.6000;0.0822;4.3447;
1341.9000;0.0928;4.3641;
1342.2000;0.0643;4.2960;
1342.5000;0.0838;4.3447;
1342.8000;0.0838;4.3447;
1343.1000;0.0822;4.3374;
1343.4000;0.0830;4.3349;
1343.7000;0.0887;4.3520;
1344.0000;0.0855;4.3495;
1344.3000;0.0863;4.3568;
1344.6000;0.0838;4.3544;
1344.9000;0.0863;4.3641;
1345.2000;0.0879;4.3690;
1345.5000;0.0855;4.3593;
1345.8000;0.0855;4.3666;
1346.1000;0.0724;4.3252;
1346.4000;0.0847;4.3544;
1346.7000;0.0838;4.3520;
1347.0000;0.0830;4.3520;
1347.3000;0.0838;4.3593;
1347.6000;0.0822;4.3617;
1347.9000;0.0733;4.3203;
1348.2000;0.0822;4.3495;
1348.5000;0.0847;4.3520;
1348.8000;0.0838;4.3568;
1349.1000;0.0855;4.3593;
1349.4000;0.0806;4.3520;
1349.7000;0.0847;4.3666;
1350.0000;0.0822;4.3568;
1350.3000;0.0920;4.3860;
1350.6000;0.0936;4.3933;
1350.9000;0.0838;4.3495;
1351.2000;0.0822;4.3471;
1351.5000;0.0847;4.3568;
1351.8000;0.0847;4.3544;
1352.1000;0.0830;4.3544;
1352.4000;0.0863;4.3641;
1352.7000;0.0895;4.3787;
1353.0000;0.0838;4.3714;
1353.3000;0.0920;4.3958;
1353.6000;0.0814;4.3593;
1353.9000;0.0887;4.3763;
1354.2000;0.0830;4.3641;
1354.5000;0.0830;4.3714;
1354.8000;0.0847;4.3763;
1355.1000;0.0847;4.3666;
1355.4000;0.0838;4.3593;
1355.7000;0.0822;4.3398;
1356.0000;0.0814;4.3447;
1356.3000;0.0879;4.3666;
1356.6000;0.0863;4.3593;
1356.9000;0.0847;4.3568;
1357.2000;0.0847;4.3593;
1357.5000;0.0830;4.3568;
1357.8000;0.0895;4.3568;
1358.1000;0.0847;4.3544;
1358.4000;0.0855;4.3544;
1358.7000;0.0838;4.3593;
1359.0000;0.0822;4.3617;
1359.3000;0.0838;4.3714;
1359.6000;0.0863;4.3812;
1359.9000;0.0863;4.3763;
1360.2000;0.0830;4.3714;
1360.5000;0.0847;4.3666;
1360.8000;0.0814;4.3471;
1361.1000;0.0822;4.3495;
1361.4000;0.0830;4.3544;
1361.7000;0.0863;4.3739;
1362.0000;0.0847;4.3690;
1362.3000;0.0847;4.3617;
1362.6000;0.0847;4.3666;
1362.9000;0.0871;4.3714;
1363.2000;0.0838;4.3666;
1363.5000;0.0887;4.3690;
1363.8000;0.0838;4.3544;
1364.1000;0.0855;4.3617;
1364.4000;0.0838;4.3641;
1364.7000;0.0838;4.3617;
1365.0000;0.0814;4.3568;
1365.3000;0.0838;4.3666;
1365.6000;0.0814;4.3568;
1365.9000;0.0863;4.3666;
1366.2000;0.0871;4.3690;
1366.5000;0.0879;4.3714;
1366.8000;0.0838;4.3641;
1367.1000;0.0855;4.3666;
1367.4000;0.0871;4.3763;
1367.7000;0.0830;4.3593;
1368.0000;0.0822;4.3520;
1368.3000;0.0847;4.3544;
1368.6000;0.0863;4.3617;
1368.9000;0.0838;4.3593;
1369.2000;0.0798;4.3495;
1369.5000;0.0781;4.3471;
1369.8000;0.0838;4.3690;
1370.1000;0.0944;4.3982;
1370.4000;0.0838;4.3739;
1370.7000;0.0895;4.3860;
1371.0000;0.0871;4.3787;
1371.3000;0.0814;4.3568;
1371.6000;0.0838;4.3593;
1371.9000;0.0904;4.3787;
1372.2000;0.0765;4.3422;
1372.5000;0.0814;4.3568;
1372.8000;0.0798;4.3617;
1373.1000;0.0838;4.3739;
1373.4000;0.0863;4.3763;
1373.7000;0.0814;4.3593;
1374.0000;0.0863;4.3763;
1374.3000;0.0871;4.3787;
1374.6000;0.0863;4.3739;
1374.9000;0.0798;4.3641;
1375.2000;0.0822;4.3787;
1375.5000;0.0855;4.3812;
1375.8000;0.0838;4.3739;
1376.1000;0.0847;4.3812;
1376.4000;0.0822;4.3763;
1376.7000;0.0798;4.3641;
1377.0000;0.0806;4.3714;
1377.3000;0.0855;4.3787;
1377.6000;0.0741;4.3422;
1377.9000;0.0863;4.3787;
1378.2000;0.0912;4.3982;
1378.5000;0.0822;4.3763;
1378.8000;0.0871;4.3836;
1379.1000;0.0781;4.3666;
1379.4000;0.0822;4.3812;
1379.7000;0.0822;4.3714;
1380.0000;0.0838;4.3763;
1380.3000;0.0822;4.3690;
1380.6000;0.0977;4.4055;
1380.9000;0.0814;4.3641;
1381.2000;0.0838;4.3763;
1381.5000;0.0871;4.3763;
1381.8000;0.0847;4.3666;
1382.1000;0.0838;4.3690;
1382.4000;0.0944;4.3933;
1382.7000;0.0838;4.3568;
1383.0000;0.0822;4.3495;
1383.3000;0.0855;4.3641;
1383.6000;0.0871;4.3666;
1383.9000;0.0855;4.3544;
1384.2000;0.0847;4.3447;
1384.5000;0.0798;4.3447;
1384.8000;0.0773;4.3325;
1385.1000;0.0847;4.3568;
1385.4000;0.0838;4.3471;
1385.7000;0.0847;4.3422;
1386.0000;0.0806;4.3422;
1386.3000;0.0838;4.3495;
1386.6000;0.0798;4.3374;
1386.9000;0.0904;4.3690;
1387.2000;0.0838;4.3471;
1387.5000;0.0855;4.3568;
1387.8000;0.0814;4.3520;
1388.1000;0.0822;4.3495;
1388.4000;0.0708;4.3276;
1388.7000;0.0944;4.4031;
1389.0000;0.0855;4.3763;
1389.3000;0.0822;4.3739;
1389.6000;0.0912;4.3909;
1389.9000;0.0806;4.3690;
1390.2000;0.0830;4.3714;
1390.5000;0.0895;4.3958;
1390.8000;0.0887;4.3885;
1391.1000;0.0863;4.3739;
1391.4000;0.0830;4.3666;
1391.7000;0.0895;4.3909;
1392.0000;0.0781;4.3568;
1392.3000;0.0847;4.3641;
1392.6000;0.0798;4.3593;
1392.9000;0.0773;4.3568;
1393.2000;0.0847;4.3714;
1393.5000;0.0830;4.3666;
1393.8000;0.0822;4.3739;
1394.1000;0.0847;4.3885;
1394.4000;0.0838;4.3885;
1394.7000;0.0838;4.3787;
1395.0000;0.0904;4.3933;
1395.3000;0.0838;4.3909;
1395.6000;0.0838;4.3909;
1395.9000;0.0855;4.3836;
1396.2000;0.0871;4.3909;
1396.5000;0.0920;4.4055;
1396.8000;0.0733;4.3568;
1397.1000;0.0871;4.3933;
1397.4000;0.0822;4.3812;
1397.7000;0.0855;4.3909;
1398.0000;0.0814;4.3885;
1398.3000;0.0838;4.3933;
1398.6000;0.0855;4.3885;
1398.9000;0.0863;4.3860;
1399.2000;0.0838;4.3763;
1399.5000;0.0838;4.3641;
1399.8000;0.0806;4.3641;
