time/ms;Fluo/V;P700 deltaI/I x10³;
-199.8000;0.0961;4.3739;
-199.5000;0.0969;4.3690;
-199.2000;0.0944;4.3641;
-198.9000;0.0928;4.3617;
-198.6000;0.0985;4.3739;
-198.3000;0.0871;4.3398;
-198.0000;0.0904;4.3568;
-197.7000;0.0952;4.3739;
-197.4000;0.0977;4.3836;
-197.1000;0.0977;4.3885;
-196.8000;0.0969;4.3812;
-196.5000;0.0952;4.3836;
-196.2000;0.0936;4.3885;
-195.9000;0.1018;4.4104;
-195.6000;0.0985;4.3933;
-195.3000;0.0944;4.3763;
-195.0000;0.1009;4.3909;
-194.7000;0.0969;4.3739;
-194.4000;0.0977;4.3763;
-194.1000;0.0961;4.3739;
-193.8000;0.0944;4.3666;
-193.5000;0.0895;4.3495;
-193.2000;0.0961;4.3544;
-192.9000;0.0912;4.3422;
-192.6000;0.0944;4.3544;
-192.3000;0.0969;4.3641;
-192.0000;0.0969;4.3641;
-191.7000;0.0977;4.3690;
-191.4000;0.0969;4.3690;
-191.1000;0.1123;4.4177;
-190.8000;0.0952;4.3690;
-190.5000;0.0969;4.3714;
-190.2000;0.0936;4.3617;
-189.9000;0.0977;4.3787;
-189.6000;0.0977;4.3885;
-189.3000;0.0977;4.3885;
-189.0000;0.0928;4.3568;
-188.7000;0.0944;4.3714;
-188.4000;0.0961;4.3593;
-188.1000;0.0912;4.3422;
-187.8000;0.0928;4.3447;
-187.5000;0.0879;4.3252;
-187.2000;0.0969;4.3544;
-186.9000;0.0912;4.3374;
-186.6000;0.0969;4.3593;
-186.3000;0.0952;4.3593;
-186.0000;0.0977;4.3690;
-185.7000;0.0977;4.3641;
-185.4000;0.0985;4.3641;
-185.1000;0.0936;4.3617;
-184.8000;0.0928;4.3739;
-184.5000;0.0952;4.3909;
-184.2000;0.0920;4.3739;
-183.9000;0.0952;4.3763;
-183.6000;0.0977;4.3763;
-183.3000;0.0977;4.3690;
-183.0000;0.0961;4.3690;
-182.7000;0.0936;4.3568;
-182.4000;0.0985;4.3739;
-182.1000;0.0879;4.3447;
-181.8000;0.0887;4.3520;
-181.5000;0.0879;4.3520;
-181.2000;0.0969;4.3763;
-180.9000;0.0895;4.3714;
-180.6000;0.0969;4.3860;
-180.3000;0.0985;4.3885;
-180.0000;0.0977;4.3763;
-179.7000;0.0993;4.3860;
-179.4000;0.0977;4.3836;
-179.1000;0.0936;4.3714;
-178.8000;0.1009;4.3836;
-178.5000;0.0977;4.3690;
-178.2000;0.0936;4.3568;
-177.9000;0.0928;4.3641;
-177.6000;0.0887;4.3471;
-177.3000;0.0928;4.3690;
-177.0000;0.0936;4.3714;
-176.7000;0.0993;4.3787;
-176.4000;0.0944;4.3763;
-176.1000;0.1009;4.3982;
-175.8000;0.0961;4.3812;
-175.5000;0.0993;4.3836;
-175.2000;0.0928;4.3763;
-174.9000;0.0961;4.3836;
-174.6000;0.0985;4.3958;
-174.3000;0.0993;4.3958;
-174.0000;0.0936;4.3812;
-173.7000;0.1026;4.4031;
-173.4000;0.0969;4.3860;
-173.1000;0.0961;4.3787;
-172.8000;0.0944;4.3763;
-172.5000;0.0961;4.3739;
-172.2000;0.0961;4.3787;
-171.9000;0.0952;4.3787;
-171.6000;0.0977;4.3933;
-171.3000;0.0961;4.3909;
-171.0000;0.0977;4.3885;
-170.7000;0.0961;4.3812;
-170.4000;0.0944;4.3690;
-170.1000;0.0985;4.3836;
-169.8000;0.0969;4.3812;
-169.5000;0.0985;4.3909;
-169.2000;0.0977;4.3739;
-168.9000;0.0944;4.3690;
-168.6000;0.0952;4.3617;
-168.3000;0.0961;4.3666;
-168.0000;0.0993;4.3812;
-167.7000;0.0977;4.3739;
-167.4000;0.1001;4.3714;
-167.1000;0.0928;4.3422;
-166.8000;0.0961;4.3593;
-166.5000;0.0985;4.3617;
-166.2000;0.0920;4.3471;
-165.9000;0.0961;4.3544;
-165.6000;0.0920;4.3422;
-165.3000;0.0952;4.3617;
-165.0000;0.0952;4.3714;
-164.7000;0.0952;4.3666;
-164.4000;0.0977;4.3690;
-164.1000;0.0952;4.3641;
-163.8000;0.0944;4.3666;
-163.5000;0.0961;4.3739;
-163.2000;0.0977;4.3787;
-162.9000;0.0985;4.3739;
-162.6000;0.0928;4.3593;
-162.3000;0.0928;4.3520;
-162.0000;0.0944;4.3641;
-161.7000;0.0952;4.3714;
-161.4000;0.0952;4.3714;
-161.1000;0.0977;4.3690;
-160.8000;0.0985;4.3763;
-160.5000;0.0993;4.3739;
-160.2000;0.0993;4.3690;
-159.9000;0.0977;4.3617;
-159.6000;0.0952;4.3593;
-159.3000;0.0977;4.3714;
-159.0000;0.0977;4.3666;
-158.7000;0.0961;4.3690;
-158.4000;0.0936;4.3690;
-158.1000;0.0969;4.3690;
-157.8000;0.0928;4.3568;
-157.5000;0.0895;4.3447;
-157.2000;0.0969;4.3568;
-156.9000;0.0944;4.3447;
-156.6000;0.0969;4.3495;
-156.3000;0.0928;4.3568;
-156.0000;0.0969;4.3641;
-155.7000;0.0969;4.3641;
-155.4000;0.0985;4.3787;
-155.1000;0.0977;4.3739;
-154.8000;0.0944;4.3593;
-154.5000;0.0985;4.3763;
-154.2000;0.0936;4.3739;
-153.9000;0.1009;4.3860;
-153.6000;0.0936;4.3714;
-153.3000;0.0936;4.3763;
-153.0000;0.0993;4.3860;
-152.7000;0.0961;4.3812;
-152.4000;0.0952;4.3739;
-152.1000;0.0969;4.3739;
-151.8000;0.1083;4.4104;
-151.5000;0.0993;4.3812;
-151.2000;0.0952;4.3787;
-150.9000;0.1058;4.4128;
-150.6000;0.0928;4.3666;
-150.3000;0.0993;4.3909;
-150.0000;0.0969;4.3909;
-149.7000;0.0969;4.3909;
-149.4000;0.1018;4.4006;
-149.1000;0.1001;4.3909;
-148.8000;0.0944;4.3714;
-148.5000;0.0961;4.3714;
-148.2000;0.0887;4.3568;
-147.9000;0.0961;4.3739;
-147.6000;0.0895;4.3447;
-147.3000;0.0936;4.3714;
-147.0000;0.0928;4.3739;
-146.7000;0.0952;4.3836;
-146.4000;0.0944;4.3763;
-146.1000;0.0952;4.3714;
-145.8000;0.0895;4.3593;
-145.5000;0.0961;4.3714;
-145.2000;0.0944;4.3739;
-144.9000;0.0969;4.3836;
-144.6000;0.1009;4.3909;
-144.3000;0.0952;4.3787;
-144.0000;0.1026;4.3958;
-143.7000;0.0969;4.3787;
-143.4000;0.1001;4.3860;
-143.1000;0.1018;4.3836;
-142.8000;0.0961;4.3690;
-142.5000;0.0928;4.3666;
-142.2000;0.0952;4.3714;
-141.9000;0.0969;4.3739;
-141.6000;0.0936;4.3568;
-141.3000;0.0928;4.3666;
-141.0000;0.0985;4.3787;
-140.7000;0.0952;4.3787;
-140.4000;0.0961;4.3787;
-140.1000;0.0961;4.3714;
-139.8000;0.0952;4.3714;
-139.5000;0.0944;4.3617;
-139.2000;0.0961;4.3714;
-138.9000;0.0952;4.3666;
-138.6000;0.0969;4.3666;
-138.3000;0.0920;4.3520;
-138.0000;0.0993;4.3641;
-137.7000;0.0969;4.3617;
-137.4000;0.0961;4.3544;
-137.1000;0.0961;4.3544;
-136.8000;0.0969;4.3568;
-136.5000;0.0985;4.3666;
-136.2000;0.1001;4.3787;
-135.9000;0.0961;4.3714;
-135.6000;0.0944;4.3690;
-135.3000;0.0985;4.3812;
-135.0000;0.0952;4.3739;
-134.7000;0.0969;4.3836;
-134.4000;0.0969;4.3909;
-134.1000;0.0985;4.3958;
-133.8000;0.0952;4.3885;
-133.5000;0.0969;4.3836;
-133.2000;0.0952;4.3787;
-132.9000;0.0952;4.3860;
-132.6000;0.0961;4.3836;
-132.3000;0.0985;4.3836;
-132.0000;0.0977;4.3812;
-131.7000;0.0969;4.3763;
-131.4000;0.0985;4.3836;
-131.1000;0.0961;4.3739;
-130.8000;0.0969;4.3714;
-130.5000;0.1042;4.3885;
-130.2000;0.0952;4.3690;
-129.9000;0.0961;4.3787;
-129.6000;0.0952;4.3763;
-129.3000;0.0952;4.3666;
-129.0000;0.0977;4.3666;
-128.7000;0.0977;4.3617;
-128.4000;0.0969;4.3593;
-128.1000;0.0904;4.3301;
-127.8000;0.0952;4.3520;
-127.5000;0.1018;4.3763;
-127.2000;0.0969;4.3593;
-126.9000;0.0985;4.3666;
-126.6000;0.0952;4.3593;
-126.3000;0.0969;4.3641;
-126.0000;0.0977;4.3544;
-125.7000;0.1042;4.3714;
-125.4000;0.0887;4.3155;
-125.1000;0.0936;4.3520;
-124.8000;0.0814;4.3203;
-124.5000;0.0977;4.3617;
-124.2000;0.0961;4.3617;
-123.9000;0.0936;4.3568;
-123.6000;0.0977;4.3690;
-123.3000;0.0904;4.3544;
-123.0000;0.0961;4.3593;
-122.7000;0.0895;4.3447;
-122.4000;0.0977;4.3666;
-122.1000;0.0969;4.3593;
-121.8000;0.0961;4.3398;
-121.5000;0.0944;4.3495;
-121.2000;0.1001;4.3739;
-120.9000;0.0952;4.3593;
-120.6000;0.0961;4.3641;
-120.3000;0.0944;4.3593;
-120.0000;0.1074;4.3909;
-119.7000;0.0887;4.3520;
-119.4000;0.0977;4.3714;
-119.1000;0.0944;4.3690;
-118.8000;0.0936;4.3641;
-118.5000;0.0944;4.3617;
-118.2000;0.0985;4.3714;
-117.9000;0.0969;4.3714;
-117.6000;0.0961;4.3641;
-117.3000;0.1001;4.3739;
-117.0000;0.0969;4.3739;
-116.7000;0.0961;4.3714;
-116.4000;0.0969;4.3739;
-116.1000;0.0961;4.3739;
-115.8000;0.0969;4.3641;
-115.5000;0.0985;4.3714;
-115.2000;0.0969;4.3739;
-114.9000;0.0977;4.3763;
-114.6000;0.0969;4.3739;
-114.3000;0.0969;4.3714;
-114.0000;0.0985;4.3763;
-113.7000;0.0928;4.3666;
-113.4000;0.0944;4.3666;
-113.1000;0.0977;4.3617;
-112.8000;0.0952;4.3617;
-112.5000;0.0944;4.3544;
-112.2000;0.0977;4.3617;
-111.9000;0.0952;4.3641;
-111.6000;0.0936;4.3495;
-111.3000;0.0969;4.3593;
-111.0000;0.0993;4.3593;
-110.7000;0.0952;4.3520;
-110.4000;0.0952;4.3617;
-110.1000;0.0961;4.3666;
-109.8000;0.0985;4.3763;
-109.5000;0.0936;4.3568;
-109.2000;0.0879;4.3325;
-108.9000;0.0969;4.3520;
-108.6000;0.0944;4.3374;
-108.3000;0.0887;4.3155;
-108.0000;0.0830;4.2984;
-107.7000;0.0944;4.3276;
-107.4000;0.0952;4.3301;
-107.1000;0.0944;4.3349;
-106.8000;0.0952;4.3398;
-106.5000;0.0920;4.3276;
-106.2000;0.0920;4.3203;
-105.9000;0.0977;4.3374;
-105.6000;0.0969;4.3325;
-105.3000;0.0977;4.3374;
-105.0000;0.0944;4.3349;
-104.7000;0.0936;4.3325;
-104.4000;0.0936;4.3325;
-104.1000;0.0977;4.3471;
-103.8000;0.0985;4.3471;
-103.5000;0.0961;4.3422;
-103.2000;0.0928;4.3349;
-102.9000;0.0944;4.3398;
-102.6000;0.0969;4.3471;
-102.3000;0.0944;4.3544;
-102.0000;0.0944;4.3520;
-101.7000;0.0944;4.3471;
-101.4000;0.0977;4.3641;
-101.1000;0.0961;4.3544;
-100.8000;0.0952;4.3617;
-100.5000;0.0969;4.3593;
-100.2000;0.0969;4.3544;
-99.9000;0.0969;4.3520;
-99.6000;0.0928;4.3422;
-99.3000;0.0985;4.3520;
-99.0000;0.0952;4.3398;
-98.7000;0.0952;4.3228;
-98.4000;0.0961;4.3276;
-98.1000;0.0952;4.3374;
-97.8000;0.0977;4.3398;
-97.5000;0.0936;4.3325;
-97.2000;0.0985;4.3495;
-96.9000;0.0961;4.3447;
-96.6000;0.0952;4.3398;
-96.3000;0.0952;4.3374;
-96.0000;0.0952;4.3374;
-95.7000;0.0952;4.3471;
-95.4000;0.0944;4.3471;
-95.1000;0.0969;4.3544;
-94.8000;0.0936;4.3495;
-94.5000;0.0993;4.3641;
-94.2000;0.1009;4.3544;
-93.9000;0.0969;4.3447;
-93.6000;0.0928;4.3349;
-93.3000;0.0952;4.3447;
-93.0000;0.0985;4.3495;
-92.7000;0.0993;4.3568;
-92.4000;0.0977;4.3471;
-92.1000;0.0961;4.3495;
-91.8000;0.0904;4.3349;
-91.5000;0.0969;4.3568;
-91.2000;0.0969;4.3544;
-90.9000;0.0969;4.3471;
-90.6000;0.0936;4.3471;
-90.3000;0.0944;4.3544;
-90.0000;0.0977;4.3544;
-89.7000;0.1050;4.3836;
-89.4000;0.0977;4.3641;
-89.1000;0.0912;4.3447;
-88.8000;0.0936;4.3568;
-88.5000;0.0969;4.3593;
-88.2000;0.0985;4.3666;
-87.9000;0.0969;4.3593;
-87.6000;0.0952;4.3617;
-87.3000;0.0993;4.3763;
-87.0000;0.0936;4.3544;
-86.7000;0.1001;4.3568;
-86.4000;0.0985;4.3544;
-86.1000;0.0944;4.3520;
-85.8000;0.0961;4.3568;
-85.5000;0.1009;4.3739;
-85.2000;0.1042;4.3860;
-84.9000;0.0969;4.3714;
-84.6000;0.0985;4.3763;
-84.3000;0.0969;4.3690;
-84.0000;0.0952;4.3666;
-83.7000;0.0969;4.3617;
-83.4000;0.0961;4.3617;
-83.1000;0.0936;4.3495;
-82.8000;0.0961;4.3520;
-82.5000;0.0936;4.3520;
-82.2000;0.0969;4.3593;
-81.9000;0.0961;4.3544;
-81.6000;0.0969;4.3593;
-81.3000;0.0944;4.3495;
-81.0000;0.0952;4.3471;
-80.7000;0.0863;4.3228;
-80.4000;0.0977;4.3374;
-80.1000;0.0936;4.3349;
-79.8000;0.0952;4.3349;
-79.5000;0.0961;4.3447;
-79.2000;0.0936;4.3374;
-78.9000;0.1001;4.3568;
-78.6000;0.1034;4.3568;
-78.3000;0.0936;4.3374;
-78.0000;0.0985;4.3495;
-77.7000;0.0977;4.3349;
-77.4000;0.0952;4.3349;
-77.1000;0.0936;4.3301;
-76.8000;0.0961;4.3398;
-76.5000;0.0961;4.3422;
-76.2000;0.0985;4.3471;
-75.9000;0.1050;4.3617;
-75.6000;0.1026;4.3568;
-75.3000;0.0855;4.3009;
-75.0000;0.0977;4.3374;
-74.7000;0.0952;4.3422;
-74.4000;0.1074;4.3690;
-74.1000;0.0961;4.3325;
-73.8000;0.0993;4.3447;
-73.5000;0.0944;4.3374;
-73.2000;0.0944;4.3349;
-72.9000;0.0969;4.3471;
-72.6000;0.0961;4.3520;
-72.3000;0.0985;4.3666;
-72.0000;0.0993;4.3641;
-71.7000;0.0969;4.3617;
-71.4000;0.1034;4.3860;
-71.1000;0.1018;4.3836;
-70.8000;0.1058;4.3860;
-70.5000;0.0969;4.3520;
-70.2000;0.0887;4.3422;
-69.9000;0.0855;4.3374;
-69.6000;0.0952;4.3617;
-69.3000;0.0961;4.3593;
-69.0000;0.0969;4.3544;
-68.7000;0.0961;4.3495;
-68.4000;0.0961;4.3544;
-68.1000;0.0944;4.3422;
-67.8000;0.0969;4.3398;
-67.5000;0.0961;4.3374;
-67.2000;0.0952;4.3349;
-66.9000;0.1018;4.3422;
-66.6000;0.0993;4.3325;
-66.3000;0.0969;4.3228;
-66.0000;0.0961;4.3325;
-65.7000;0.0969;4.3398;
-65.4000;0.0961;4.3422;
-65.1000;0.0985;4.3471;
-64.8000;0.0887;4.3252;
-64.5000;0.0969;4.3422;
-64.2000;0.0952;4.3349;
-63.9000;0.0944;4.3374;
-63.6000;0.0985;4.3544;
-63.3000;0.0969;4.3568;
-63.0000;0.0936;4.3422;
-62.7000;0.0936;4.3422;
-62.4000;0.0952;4.3422;
-62.1000;0.0969;4.3422;
-61.8000;0.0961;4.3398;
-61.5000;0.0920;4.3203;
-61.2000;0.0961;4.3276;
-60.9000;0.0977;4.3301;
-60.6000;0.0969;4.3325;
-60.3000;0.0863;4.3033;
-60.0000;0.0961;4.3422;
-59.7000;0.0887;4.3252;
-59.4000;0.0961;4.3520;
-59.1000;0.0961;4.3568;
-58.8000;0.0977;4.3617;
-58.5000;0.0936;4.3471;
-58.2000;0.0993;4.3568;
-57.9000;0.0961;4.3568;
-57.6000;0.0944;4.3447;
-57.3000;0.0961;4.3447;
-57.0000;0.1091;4.3860;
-56.7000;0.0952;4.3495;
-56.4000;0.0936;4.3544;
-56.1000;0.0993;4.3666;
-55.8000;0.0977;4.3617;
-55.5000;0.1001;4.3690;
-55.2000;0.0969;4.3495;
-54.9000;0.1058;4.3690;
-54.6000;0.0912;4.3276;
-54.3000;0.0920;4.3325;
-54.0000;0.1001;4.3544;
-53.7000;0.0895;4.3203;
-53.4000;0.1042;4.3544;
-53.1000;0.0952;4.3228;
-52.8000;0.0936;4.3179;
-52.5000;0.0928;4.3179;
-52.2000;0.1042;4.3447;
-51.9000;0.1034;4.3447;
-51.6000;0.1050;4.3520;
-51.3000;0.1026;4.3544;
-51.0000;0.0969;4.3447;
-50.7000;0.0977;4.3495;
-50.4000;0.1083;4.3763;
-50.1000;0.1099;4.3860;
-49.8000;0.0977;4.3617;
-49.5000;0.0920;4.3520;
-49.2000;0.1066;4.3909;
-48.9000;0.1074;4.3787;
-48.6000;0.0969;4.3617;
-48.3000;0.0977;4.3568;
-48.0000;0.0977;4.3520;
-47.7000;0.1099;4.3787;
-47.4000;0.0969;4.3422;
-47.1000;0.1001;4.3568;
-46.8000;0.0961;4.3520;
-46.5000;0.0961;4.3544;
-46.2000;0.0993;4.3641;
-45.9000;0.1034;4.3690;
-45.6000;0.0895;4.3374;
-45.3000;0.0977;4.3495;
-45.0000;0.0977;4.3471;
-44.7000;0.0961;4.3422;
-44.4000;0.0985;4.3593;
-44.1000;0.1018;4.3544;
-43.8000;0.0969;4.3398;
-43.5000;0.0952;4.3349;
-43.2000;0.0961;4.3349;
-42.9000;0.0952;4.3325;
-42.6000;0.0969;4.3374;
-42.3000;0.0969;4.3398;
-42.0000;0.0961;4.3301;
-41.7000;0.1115;4.3739;
-41.4000;0.0944;4.3228;
-41.1000;0.0977;4.3228;
-40.8000;0.0961;4.3252;
-40.5000;0.0944;4.3276;
-40.2000;0.0961;4.3374;
-39.9000;0.0993;4.3471;
-39.6000;0.0985;4.3520;
-39.3000;0.0928;4.3398;
-39.0000;0.0969;4.3495;
-38.7000;0.0944;4.3471;
-38.4000;0.0952;4.3617;
-38.1000;0.0936;4.3568;
-37.8000;0.0969;4.3714;
-37.5000;0.0936;4.3544;
-37.2000;0.0977;4.3617;
-36.9000;0.0985;4.3544;
-36.6000;0.0977;4.3544;
-36.3000;0.0969;4.3495;
-36.0000;0.0904;4.3398;
-35.7000;0.0928;4.3447;
-35.4000;0.0952;4.3617;
-35.1000;0.0977;4.3617;
-34.8000;0.0969;4.3617;
-34.5000;0.0961;4.3690;
-34.2000;0.0969;4.3763;
-33.9000;0.0871;4.3398;
-33.6000;0.1009;4.3714;
-33.3000;0.0961;4.3568;
-33.0000;0.1034;4.3812;
-32.7000;0.0944;4.3568;
-32.4000;0.1009;4.3739;
-32.1000;0.0969;4.3690;
-31.8000;0.0920;4.3568;
-31.5000;0.0985;4.3812;
-31.2000;0.0969;4.3787;
-30.9000;0.0936;4.3714;
-30.6000;0.1018;4.4055;
-30.3000;0.0969;4.3836;
-30.0000;0.0969;4.3787;
-29.7000;0.0944;4.3787;
-29.4000;0.0961;4.3690;
-29.1000;0.0969;4.3617;
-28.8000;0.0969;4.3617;
-28.5000;0.0977;4.3641;
-28.2000;0.1018;4.3714;
-27.9000;0.0928;4.3374;
-27.6000;0.0944;4.3471;
-27.3000;0.0952;4.3520;
-27.0000;0.0944;4.3520;
-26.7000;0.0977;4.3593;
-26.4000;0.0961;4.3568;
-26.1000;0.0969;4.3520;
-25.8000;0.0961;4.3520;
-25.5000;0.0952;4.3617;
-25.2000;0.0961;4.3666;
-24.9000;0.0944;4.3641;
-24.6000;0.0961;4.3593;
-24.3000;0.0969;4.3568;
-24.0000;0.0985;4.3568;
-23.7000;0.0912;4.3374;
-23.4000;0.0969;4.3568;
-23.1000;0.1074;4.3860;
-22.8000;0.0977;4.3739;
-22.5000;0.0969;4.3666;
-22.2000;0.0952;4.3593;
-21.9000;0.0944;4.3520;
-21.6000;0.0920;4.3374;
-21.3000;0.0952;4.3495;
-21.0000;0.0969;4.3471;
-20.7000;0.1009;4.3568;
-20.4000;0.0952;4.3520;
-20.1000;0.0936;4.3495;
-19.8000;0.0969;4.3544;
-19.5000;0.0952;4.3471;
-19.2000;0.0944;4.3471;
-18.9000;0.0969;4.3544;
-18.6000;0.0952;4.3544;
-18.3000;0.0961;4.3544;
-18.0000;0.0952;4.3471;
-17.7000;0.0952;4.3495;
-17.4000;0.1009;4.3690;
-17.1000;0.0985;4.3593;
-16.8000;0.0977;4.3520;
-16.5000;0.0993;4.3641;
-16.2000;0.0993;4.3641;
-15.9000;0.0928;4.3520;
-15.6000;0.0977;4.3666;
-15.3000;0.0863;4.3447;
-15.0000;0.0944;4.3739;
-14.7000;0.0969;4.3812;
-14.4000;0.0993;4.3836;
-14.1000;0.0977;4.3812;
-13.8000;0.0977;4.3763;
-13.5000;0.0969;4.3739;
-13.2000;0.0977;4.3763;
-12.9000;0.0952;4.3666;
-12.6000;0.0961;4.3666;
-12.3000;0.0936;4.3641;
-12.0000;0.0944;4.3666;
-11.7000;0.0936;4.3690;
-11.4000;0.0961;4.3812;
-11.1000;0.0961;4.3836;
-10.8000;0.0936;4.3787;
-10.5000;0.0928;4.3787;
-10.2000;0.0977;4.3885;
-9.9000;0.0961;4.3812;
-9.6000;0.0944;4.3836;
-9.3000;0.0944;4.3763;
-9.0000;0.0952;4.3739;
-8.7000;0.0961;4.3763;
-8.4000;0.0944;4.3714;
-8.1000;0.0952;4.3763;
-7.8000;0.0977;4.3812;
-7.5000;0.0944;4.3714;
-7.2000;0.0936;4.3617;
-6.9000;0.0961;4.3739;
-6.6000;0.0993;4.3787;
-6.3000;0.0961;4.3617;
-6.0000;0.0952;4.3593;
-5.7000;0.1091;4.3909;
-5.4000;0.0887;4.3325;
-5.1000;0.0961;4.3641;
-4.8000;0.1050;4.3860;
-4.5000;0.0961;4.3641;
-4.2000;0.0936;4.3617;
-3.9000;0.0977;4.3714;
-3.6000;0.0993;4.3787;
-3.3000;0.0969;4.3714;
-3.0000;0.0961;4.3666;
-2.7000;0.0944;4.3544;
-2.4000;0.0952;4.3593;
-2.1000;0.0847;4.3179;
-1.8000;0.0961;4.3520;
-1.5000;0.0952;4.3495;
-1.2000;0.0936;4.3349;
-0.9000;0.0928;4.3495;
-0.6000;0.0952;4.3641;
-0.3000;0.0952;4.3666;
0.0000;0.0952;4.3666;
0.3000;0.0952;4.3568;
0.6000;0.0969;4.3641;
0.9000;0.1018;4.3787;
1.2000;0.0985;4.3739;
1.5000;0.0985;4.3836;
1.8000;0.1050;4.4055;
2.1000;0.0985;4.4031;
2.4000;0.1050;4.4274;
2.7000;0.0993;4.4153;
3.0000;0.0977;4.4177;
3.3000;0.1066;4.4469;
3.6000;0.1058;4.4396;
3.9000;0.0993;4.4274;
4.2000;0.1026;4.4445;
4.5000;0.0993;4.4420;
4.8000;0.1099;4.4785;
5.1000;0.0993;4.4469;
5.4000;0.1074;4.4664;
5.7000;0.1034;4.4591;
6.0000;0.0961;4.4445;
6.3000;0.1001;4.4688;
6.6000;0.0969;4.4591;
6.9000;0.1009;4.4810;
7.2000;0.1034;4.4858;
7.5000;0.1066;4.4956;
7.8000;0.1042;4.4834;
8.1000;0.1018;4.4737;
8.4000;0.0977;4.4615;
8.7000;0.1018;4.4761;
9.0000;0.1001;4.4712;
9.3000;0.1042;4.4737;
9.6000;0.1009;4.4639;
9.9000;0.1018;4.4591;
10.2000;0.1050;4.4566;
10.5000;0.1058;4.4664;
10.8000;0.1026;4.4664;
11.1000;0.1050;4.4639;
11.4000;0.1042;4.4615;
11.7000;0.1042;4.4664;
12.0000;0.1034;4.4639;
12.3000;0.1034;4.4542;
12.6000;0.1018;4.4591;
12.9000;0.1050;4.4712;
13.2000;0.1042;4.4664;
13.5000;0.1042;4.4615;
13.8000;0.1050;4.4639;
14.1000;0.1042;4.4639;
14.4000;0.1034;4.4591;
14.7000;0.1066;4.4688;
15.0000;0.1066;4.4615;
15.3000;0.1042;4.4518;
15.6000;0.0977;4.4323;
15.9000;0.1026;4.4445;
16.2000;0.1034;4.4445;
16.5000;0.1026;4.4469;
16.8000;0.1034;4.4518;
17.1000;0.1026;4.4518;
17.4000;0.1026;4.4615;
17.7000;0.1034;4.4591;
18.0000;0.1026;4.4639;
18.3000;0.1066;4.4737;
18.6000;0.1034;4.4761;
18.9000;0.1066;4.4883;
19.2000;0.1018;4.4761;
19.5000;0.1018;4.4761;
19.8000;0.1026;4.4737;
20.1000;0.1042;4.4688;
20.4000;0.0969;4.4396;
20.7000;0.1237;4.5077;
21.0000;0.1050;4.4664;
21.3000;0.1058;4.4639;
21.6000;0.1050;4.4615;
21.9000;0.1034;4.4493;
22.2000;0.1034;4.4445;
22.5000;0.1034;4.4518;
22.8000;0.1001;4.4445;
23.1000;0.1107;4.4664;
23.4000;0.1018;4.4469;
23.7000;0.1099;4.4688;
24.0000;0.1034;4.4615;
24.3000;0.1026;4.4639;
24.6000;0.1042;4.4737;
24.9000;0.1018;4.4737;
25.2000;0.0936;4.4396;
25.5000;0.1050;4.4664;
25.8000;0.1009;4.4566;
26.1000;0.0961;4.4445;
26.4000;0.1050;4.4615;
26.7000;0.1018;4.4493;
27.0000;0.1042;4.4639;
27.3000;0.0977;4.4591;
27.6000;0.1058;4.4712;
27.9000;0.0969;4.4518;
28.2000;0.1058;4.4737;
28.5000;0.1058;4.4688;
28.8000;0.1042;4.4639;
29.1000;0.1042;4.4591;
29.4000;0.1066;4.4712;
29.7000;0.0993;4.4493;
30.0000;0.1009;4.4639;
30.3000;0.1050;4.4591;
30.6000;0.1026;4.4566;
30.9000;0.1026;4.4493;
31.2000;0.1034;4.4518;
31.5000;0.1091;4.4712;
31.8000;0.1034;4.4615;
32.1000;0.1042;4.4542;
32.4000;0.1107;4.4834;
32.7000;0.1066;4.4785;
33.0000;0.1066;4.4712;
33.3000;0.1042;4.4761;
33.6000;0.1058;4.4810;
33.9000;0.1034;4.4712;
34.2000;0.1042;4.4737;
34.5000;0.1034;4.4785;
34.8000;0.1066;4.4810;
35.1000;0.1107;4.4907;
35.4000;0.1058;4.4664;
35.7000;0.1058;4.4518;
36.0000;0.1034;4.4493;
36.3000;0.1050;4.4518;
36.6000;0.1074;4.4664;
36.9000;0.1066;4.4664;
37.2000;0.1042;4.4493;
37.5000;0.1018;4.4493;
37.8000;0.1074;4.4688;
38.1000;0.1050;4.4591;
38.4000;0.1050;4.4566;
38.7000;0.1050;4.4566;
39.0000;0.1050;4.4639;
39.3000;0.1042;4.4591;
39.6000;0.1074;4.4591;
39.9000;0.1058;4.4566;
40.2000;0.1042;4.4566;
40.5000;0.1026;4.4493;
40.8000;0.1058;4.4518;
41.1000;0.1042;4.4445;
41.4000;0.1001;4.4420;
41.7000;0.1066;4.4664;
42.0000;0.1026;4.4518;
42.3000;0.1034;4.4615;
42.6000;0.1083;4.4737;
42.9000;0.1099;4.4785;
43.2000;0.1034;4.4664;
43.5000;0.1074;4.4761;
43.8000;0.1042;4.4664;
44.1000;0.1042;4.4664;
44.4000;0.1066;4.4712;
44.7000;0.1066;4.4712;
45.0000;0.1058;4.4761;
45.3000;0.1066;4.4810;
45.6000;0.1034;4.4615;
45.9000;0.0928;4.4299;
46.2000;0.1058;4.4591;
46.5000;0.1042;4.4566;
46.8000;0.1034;4.4518;
47.1000;0.1042;4.4469;
47.4000;0.1034;4.4542;
47.7000;0.1042;4.4566;
48.0000;0.1042;4.4712;
48.3000;0.0977;4.4664;
48.6000;0.1034;4.4834;
48.9000;0.1050;4.4907;
49.2000;0.1050;4.4834;
49.5000;0.1050;4.4761;
49.8000;0.1050;4.4712;
50.1000;0.1026;4.4712;
50.4000;0.1058;4.4858;
50.7000;0.1074;4.4761;
51.0000;0.1026;4.4664;
51.3000;0.1083;4.4785;
51.6000;0.1050;4.4761;
51.9000;0.1058;4.4712;
52.2000;0.1026;4.4615;
52.5000;0.1034;4.4615;
52.8000;0.1018;4.4591;
53.1000;0.1050;4.4664;
53.4000;0.1066;4.4688;
53.7000;0.1001;4.4591;
54.0000;0.1050;4.4712;
54.3000;0.1058;4.4785;
54.6000;0.1026;4.4688;
54.9000;0.1018;4.4566;
55.2000;0.1050;4.4566;
55.5000;0.1058;4.4591;
55.8000;0.1074;4.4688;
56.1000;0.1042;4.4493;
56.4000;0.1034;4.4420;
56.7000;0.1058;4.4445;
57.0000;0.0985;4.4372;
57.3000;0.1058;4.4469;
57.6000;0.1050;4.4566;
57.9000;0.1066;4.4688;
58.2000;0.0936;4.4274;
58.5000;0.1042;4.4615;
58.8000;0.1050;4.4688;
59.1000;0.1058;4.4664;
59.4000;0.1131;4.4737;
59.7000;0.1091;4.4688;
60.0000;0.1058;4.4664;
60.3000;0.1034;4.4591;
60.6000;0.1066;4.4712;
60.9000;0.1026;4.4712;
61.2000;0.1026;4.4712;
61.5000;0.1034;4.4761;
61.8000;0.1026;4.4810;
62.1000;0.1058;4.4810;
62.4000;0.0936;4.4469;
62.7000;0.1026;4.4785;
63.0000;0.1074;4.4883;
63.3000;0.1050;4.4761;
63.6000;0.0985;4.4518;
63.9000;0.1058;4.4664;
64.2000;0.1074;4.4688;
64.5000;0.1042;4.4688;
64.8000;0.1058;4.4785;
65.1000;0.1074;4.4810;
65.4000;0.1034;4.4712;
65.7000;0.1018;4.4688;
66.0000;0.1042;4.4712;
66.3000;0.1074;4.4785;
66.6000;0.0993;4.4615;
66.9000;0.0912;4.4420;
67.2000;0.1034;4.4639;
67.5000;0.1083;4.4761;
67.8000;0.1066;4.4639;
68.1000;0.1058;4.4591;
68.4000;0.1034;4.4566;
68.7000;0.0977;4.4518;
69.0000;0.1034;4.4712;
69.3000;0.1066;4.4737;
69.6000;0.1050;4.4688;
69.9000;0.1050;4.4785;
70.2000;0.1026;4.4712;
70.5000;0.1099;4.4883;
70.8000;0.1107;4.4834;
71.1000;0.1042;4.4712;
71.4000;0.1026;4.4737;
71.7000;0.1034;4.4664;
72.0000;0.1050;4.4761;
72.3000;0.1026;4.4737;
72.6000;0.1050;4.4785;
72.9000;0.1050;4.4712;
73.2000;0.1066;4.4737;
73.5000;0.1042;4.4737;
73.8000;0.1034;4.4761;
74.1000;0.1058;4.4737;
74.4000;0.1066;4.4737;
74.7000;0.1058;4.4688;
75.0000;0.1164;4.5029;
75.3000;0.1066;4.4858;
75.6000;0.1050;4.4834;
75.9000;0.1099;4.5004;
76.2000;0.1042;4.4907;
76.5000;0.1050;4.4980;
76.8000;0.0920;4.4639;
77.1000;0.1050;4.4931;
77.4000;0.1050;4.4956;
77.7000;0.1083;4.5029;
78.0000;0.1188;4.5272;
78.3000;0.1050;4.4883;
78.6000;0.1058;4.4931;
78.9000;0.1091;4.4907;
79.2000;0.1058;4.4785;
79.5000;0.1058;4.4858;
79.8000;0.1034;4.4785;
80.1000;0.1026;4.4810;
80.4000;0.1042;4.4834;
80.7000;0.1074;4.5029;
81.0000;0.1058;4.5004;
81.3000;0.1050;4.4907;
81.6000;0.1042;4.4858;
81.9000;0.1083;4.4931;
82.2000;0.1026;4.4810;
82.5000;0.1034;4.4810;
82.8000;0.1034;4.4785;
83.1000;0.1050;4.4810;
83.4000;0.1050;4.4883;
83.7000;0.1050;4.4956;
84.0000;0.1034;4.4907;
84.3000;0.1066;4.5029;
84.6000;0.1058;4.4980;
84.9000;0.1058;4.4883;
85.2000;0.1018;4.4810;
85.5000;0.1115;4.4931;
85.8000;0.1066;4.4810;
86.1000;0.0969;4.4445;
86.4000;0.0961;4.4396;
86.7000;0.1018;4.4615;
87.0000;0.1066;4.4712;
87.3000;0.1058;4.4615;
87.6000;0.0969;4.4420;
87.9000;0.1034;4.4615;
88.2000;0.1042;4.4688;
88.5000;0.1058;4.4615;
88.8000;0.1091;4.4737;
89.1000;0.1083;4.4688;
89.4000;0.0993;4.4493;
89.7000;0.0985;4.4493;
90.0000;0.1099;4.4858;
90.3000;0.1058;4.4737;
90.6000;0.1066;4.4761;
90.9000;0.1091;4.4834;
91.2000;0.1018;4.4688;
91.5000;0.1026;4.4542;
91.8000;0.1042;4.4518;
92.1000;0.1009;4.4396;
92.4000;0.1066;4.4664;
92.7000;0.1042;4.4639;
93.0000;0.1058;4.4542;
93.3000;0.1034;4.4542;
93.6000;0.1050;4.4639;
93.9000;0.1115;4.4810;
94.2000;0.1034;4.4591;
94.5000;0.1050;4.4664;
94.8000;0.1066;4.4688;
95.1000;0.1058;4.4615;
95.4000;0.1083;4.4761;
95.7000;0.0920;4.4347;
96.0000;0.1034;4.4639;
96.3000;0.1034;4.4542;
96.6000;0.1050;4.4566;
96.9000;0.1018;4.4566;
97.2000;0.1066;4.4615;
97.5000;0.1066;4.4615;
97.8000;0.1034;4.4518;
98.1000;0.1050;4.4493;
98.4000;0.1083;4.4566;
98.7000;0.1221;4.4956;
99.0000;0.1018;4.4445;
99.3000;0.0985;4.4420;
99.6000;0.1050;4.4639;
99.9000;0.1042;4.4737;
100.2000;0.1058;4.4785;
100.5000;0.1042;4.4834;
100.8000;0.1058;4.4810;
101.1000;0.1042;4.4761;
101.4000;0.1050;4.4737;
101.7000;0.1091;4.4810;
102.0000;0.0969;4.4372;
102.3000;0.1026;4.4615;
102.6000;0.1050;4.4664;
102.9000;0.1066;4.4712;
103.2000;0.1034;4.4688;
103.5000;0.1034;4.4688;
103.8000;0.1091;4.4810;
104.1000;0.1148;4.4956;
104.4000;0.1034;4.4712;
104.7000;0.1034;4.4664;
105.0000;0.1026;4.4591;
105.3000;0.1042;4.4639;
105.6000;0.1058;4.4542;
105.9000;0.1058;4.4566;
106.2000;0.1042;4.4615;
106.5000;0.1083;4.4688;
106.8000;0.1050;4.4566;
107.1000;0.1058;4.4615;
107.4000;0.1074;4.4639;
107.7000;0.1058;4.4542;
108.0000;0.1050;4.4469;
108.3000;0.1115;4.4664;
108.6000;0.1050;4.4493;
108.9000;0.1050;4.4518;
109.2000;0.1066;4.4591;
109.5000;0.1074;4.4639;
109.8000;0.1050;4.4615;
110.1000;0.1042;4.4542;
110.4000;0.1058;4.4615;
110.7000;0.1050;4.4615;
111.0000;0.1050;4.4591;
111.3000;0.1034;4.4615;
111.6000;0.1050;4.4688;
111.9000;0.1066;4.4761;
112.2000;0.1018;4.4712;
112.5000;0.1083;4.4810;
112.8000;0.1042;4.4591;
113.1000;0.1034;4.4591;
113.4000;0.1034;4.4591;
113.7000;0.1001;4.4566;
114.0000;0.1123;4.4883;
114.3000;0.1042;4.4785;
114.6000;0.1083;4.4907;
114.9000;0.0993;4.4688;
115.2000;0.1050;4.4834;
115.5000;0.1042;4.4834;
115.8000;0.1001;4.4688;
116.1000;0.1018;4.4834;
116.4000;0.1034;4.4883;
116.7000;0.1034;4.4956;
117.0000;0.1042;4.4907;
117.3000;0.1050;4.4883;
117.6000;0.1058;4.4883;
117.9000;0.1058;4.4785;
118.2000;0.1050;4.4834;
118.5000;0.1074;4.4834;
118.8000;0.0993;4.4688;
119.1000;0.1074;4.4980;
119.4000;0.1042;4.4834;
119.7000;0.1001;4.4664;
120.0000;0.1050;4.4761;
120.3000;0.1050;4.4712;
120.6000;0.1066;4.4737;
120.9000;0.1050;4.4737;
121.2000;0.1066;4.4737;
121.5000;0.1050;4.4737;
121.8000;0.1034;4.4664;
122.1000;0.0928;4.4372;
122.4000;0.1058;4.4810;
122.7000;0.1042;4.4688;
123.0000;0.1123;4.4956;
123.3000;0.1058;4.4810;
123.6000;0.1009;4.4712;
123.9000;0.1050;4.4883;
124.2000;0.1026;4.4785;
124.5000;0.1009;4.4664;
124.8000;0.1026;4.4785;
125.1000;0.1026;4.4810;
125.4000;0.1050;4.4883;
125.7000;0.1091;4.5053;
126.0000;0.1034;4.4858;
126.3000;0.1140;4.5150;
126.6000;0.1066;4.4980;
126.9000;0.1042;4.4883;
127.2000;0.1066;4.4931;
127.5000;0.1091;4.4956;
127.8000;0.1091;4.5004;
128.1000;0.1083;4.4907;
128.4000;0.1050;4.4785;
128.7000;0.1034;4.4688;
129.0000;0.1091;4.4834;
129.3000;0.1140;4.4907;
129.6000;0.1058;4.4761;
129.9000;0.1050;4.4810;
130.2000;0.1074;4.4956;
130.5000;0.1058;4.4931;
130.8000;0.1042;4.4858;
131.1000;0.1042;4.4785;
131.4000;0.1042;4.4834;
131.7000;0.1018;4.4712;
132.0000;0.1042;4.4834;
132.3000;0.1042;4.4858;
132.6000;0.1058;4.4810;
132.9000;0.1058;4.4761;
133.2000;0.1034;4.4737;
133.5000;0.1058;4.4834;
133.8000;0.1042;4.4785;
134.1000;0.1058;4.4907;
134.4000;0.1034;4.4834;
134.7000;0.1034;4.4761;
135.0000;0.1034;4.4785;
135.3000;0.1066;4.4834;
135.6000;0.1083;4.4834;
135.9000;0.1058;4.4858;
136.2000;0.1018;4.4761;
136.5000;0.1050;4.4858;
136.8000;0.1099;4.5029;
137.1000;0.1050;4.4785;
137.4000;0.1042;4.4688;
137.7000;0.1050;4.4688;
138.0000;0.1066;4.4664;
138.3000;0.1042;4.4591;
138.6000;0.1058;4.4688;
138.9000;0.1050;4.4615;
139.2000;0.1074;4.4761;
139.5000;0.1074;4.4737;
139.8000;0.1058;4.4639;
140.1000;0.1034;4.4542;
140.4000;0.1042;4.4566;
140.7000;0.1099;4.4737;
141.0000;0.1050;4.4615;
141.3000;0.1018;4.4639;
141.6000;0.1042;4.4688;
141.9000;0.1042;4.4737;
142.2000;0.1026;4.4639;
142.5000;0.1050;4.4664;
142.8000;0.1066;4.4615;
143.1000;0.1026;4.4469;
143.4000;0.1050;4.4591;
143.7000;0.1026;4.4591;
144.0000;0.1050;4.4664;
144.3000;0.1066;4.4761;
144.6000;0.1050;4.4737;
144.9000;0.1009;4.4493;
145.2000;0.1066;4.4688;
145.5000;0.1066;4.4761;
145.8000;0.1066;4.4883;
146.1000;0.1058;4.4858;
146.4000;0.1058;4.4883;
146.7000;0.1107;4.5102;
147.0000;0.1026;4.4810;
147.3000;0.1083;4.4883;
147.6000;0.1042;4.4810;
147.9000;0.0879;4.4420;
148.2000;0.1066;4.4810;
148.5000;0.1050;4.4810;
148.8000;0.1066;4.4834;
149.1000;0.1050;4.4810;
149.4000;0.1050;4.4834;
149.7000;0.1066;4.4858;
150.0000;0.1050;4.4883;
150.3000;0.1066;4.4956;
150.6000;0.1074;4.4980;
150.9000;0.1074;4.4883;
151.2000;0.1066;4.4883;
151.5000;0.1042;4.4834;
151.8000;0.1058;4.4883;
152.1000;0.1074;4.4931;
152.4000;0.1042;4.4761;
152.7000;0.1050;4.4761;
153.0000;0.1058;4.4810;
153.3000;0.0985;4.4688;
153.6000;0.1050;4.4883;
153.9000;0.1066;4.4883;
154.2000;0.1018;4.4688;
154.5000;0.1026;4.4761;
154.8000;0.1026;4.4785;
155.1000;0.1026;4.4785;
155.4000;0.1034;4.4834;
155.7000;0.1050;4.4907;
156.0000;0.1058;4.4907;
156.3000;0.1034;4.4810;
156.6000;0.1034;4.4810;
156.9000;0.1050;4.4858;
157.2000;0.1058;4.4907;
157.5000;0.0936;4.4493;
157.8000;0.0985;4.4664;
158.1000;0.1050;4.4834;
158.4000;0.1018;4.4834;
158.7000;0.1066;4.4907;
159.0000;0.1066;4.4931;
159.3000;0.1074;4.4956;
159.6000;0.1058;4.4907;
159.9000;0.1074;4.4956;
160.2000;0.1034;4.4907;
160.5000;0.1050;4.4980;
160.8000;0.1050;4.4980;
161.1000;0.1074;4.5053;
161.4000;0.1050;4.4931;
161.7000;0.1050;4.4907;
162.0000;0.1058;4.4956;
162.3000;0.1034;4.4810;
162.6000;0.1058;4.4810;
162.9000;0.0993;4.4615;
163.2000;0.1034;4.4785;
163.5000;0.1050;4.4761;
163.8000;0.1050;4.4858;
164.1000;0.1131;4.5053;
164.4000;0.1058;4.4737;
164.7000;0.1058;4.4810;
165.0000;0.1083;4.5053;
165.3000;0.1050;4.4980;
165.6000;0.1042;4.4883;
165.9000;0.1042;4.4785;
166.2000;0.1018;4.4688;
166.5000;0.1050;4.4688;
166.8000;0.1018;4.4566;
167.1000;0.1107;4.4858;
167.4000;0.1050;4.4688;
167.7000;0.1034;4.4664;
168.0000;0.1042;4.4664;
168.3000;0.1034;4.4688;
168.6000;0.1050;4.4785;
168.9000;0.1026;4.4737;
169.2000;0.1026;4.4712;
169.5000;0.1083;4.4810;
169.8000;0.1140;4.4956;
170.1000;0.1058;4.4785;
170.4000;0.1058;4.4785;
170.7000;0.1058;4.4737;
171.0000;0.1066;4.4761;
171.3000;0.1058;4.4664;
171.6000;0.1034;4.4639;
171.9000;0.0920;4.4323;
172.2000;0.1034;4.4688;
172.5000;0.1107;4.4907;
172.8000;0.1042;4.4712;
173.1000;0.1074;4.4810;
173.4000;0.1074;4.4761;
173.7000;0.1034;4.4664;
174.0000;0.1050;4.4688;
174.3000;0.1083;4.4737;
174.6000;0.1034;4.4664;
174.9000;0.1050;4.4688;
175.2000;0.1050;4.4737;
175.5000;0.0969;4.4542;
175.8000;0.1066;4.4858;
176.1000;0.0969;4.4664;
176.4000;0.1034;4.4883;
176.7000;0.1058;4.4907;
177.0000;0.0969;4.4688;
177.3000;0.1066;4.4858;
177.6000;0.1074;4.4907;
177.9000;0.1066;4.4834;
178.2000;0.1042;4.4712;
178.5000;0.0961;4.4542;
178.8000;0.1074;4.4907;
179.1000;0.1050;4.4785;
179.4000;0.1001;4.4591;
179.7000;0.1034;4.4761;
180.0000;0.1058;4.4810;
180.3000;0.1131;4.4931;
180.6000;0.1050;4.4664;
180.9000;0.1058;4.4615;
181.2000;0.1001;4.4566;
181.5000;0.1001;4.4566;
181.8000;0.1042;4.4712;
182.1000;0.1050;4.4761;
182.4000;0.1058;4.4858;
182.7000;0.1074;4.4907;
183.0000;0.1018;4.4712;
183.3000;0.0969;4.4591;
183.6000;0.1066;4.4834;
183.9000;0.1042;4.4858;
184.2000;0.1050;4.4956;
184.5000;0.1050;4.5004;
184.8000;0.0993;4.4712;
185.1000;0.1018;4.4810;
185.4000;0.1058;4.4956;
185.7000;0.1058;4.4907;
186.0000;0.1140;4.5077;
186.3000;0.1042;4.4737;
186.6000;0.1042;4.4639;
186.9000;0.1083;4.4810;
187.2000;0.1026;4.4664;
187.5000;0.1042;4.4761;
187.8000;0.1131;4.5102;
188.1000;0.1050;4.4785;
188.4000;0.1018;4.4639;
188.7000;0.1066;4.4712;
189.0000;0.1074;4.4688;
189.3000;0.1042;4.4591;
189.6000;0.1058;4.4664;
189.9000;0.1050;4.4664;
190.2000;0.1058;4.4761;
190.5000;0.1050;4.4712;
190.8000;0.1034;4.4737;
191.1000;0.1042;4.4810;
191.4000;0.1042;4.4785;
191.7000;0.1034;4.4785;
192.0000;0.1074;4.5053;
192.3000;0.1026;4.5029;
192.6000;0.0977;4.4883;
192.9000;0.1115;4.5126;
193.2000;0.1026;4.4907;
193.5000;0.0920;4.4493;
193.8000;0.0920;4.4372;
194.1000;0.1034;4.4664;
194.4000;0.1074;4.4785;
194.7000;0.1034;4.4785;
195.0000;0.1042;4.4785;
195.3000;0.1018;4.4785;
195.6000;0.1050;4.4883;
195.9000;0.1107;4.5029;
196.2000;0.1034;4.4834;
196.5000;0.1042;4.4907;
196.8000;0.1050;4.4931;
197.1000;0.1001;4.4785;
197.4000;0.1058;4.4931;
197.7000;0.1042;4.4810;
198.0000;0.1050;4.4785;
198.3000;0.1009;4.4688;
198.6000;0.1026;4.4761;
198.9000;0.1034;4.4810;
199.2000;0.1042;4.4834;
199.5000;0.1050;4.4883;
199.8000;0.1018;4.4810;
200.1000;0.1026;4.4761;
200.4000;0.1066;4.4785;
200.7000;0.1018;4.4664;
201.0000;0.1009;4.4639;
201.3000;0.1026;4.4639;
201.6000;0.1050;4.4591;
201.9000;0.1099;4.4664;
202.2000;0.0985;4.4396;
202.5000;0.0993;4.4493;
202.8000;0.1026;4.4493;
203.1000;0.1066;4.4591;
203.4000;0.1050;4.4542;
203.7000;0.1066;4.4591;
204.0000;0.1083;4.4591;
204.3000;0.0977;4.4274;
204.6000;0.1034;4.4323;
204.9000;0.1050;4.4347;
205.2000;0.1058;4.4445;
205.5000;0.1066;4.4445;
205.8000;0.1066;4.4396;
206.1000;0.1050;4.4274;
206.4000;0.1042;4.4347;
206.7000;0.1083;4.4469;
207.0000;0.1009;4.4274;
207.3000;0.1034;4.4299;
207.6000;0.1066;4.4274;
207.9000;0.1050;4.4347;
208.2000;0.1042;4.4372;
208.5000;0.1074;4.4445;
208.8000;0.1042;4.4420;
209.1000;0.1074;4.4493;
209.4000;0.0944;4.4079;
209.7000;0.1042;4.4347;
210.0000;0.1042;4.4299;
210.3000;0.1074;4.4372;
210.6000;0.1026;4.4323;
210.9000;0.1058;4.4542;
211.2000;0.1034;4.4518;
211.5000;0.1042;4.4445;
211.8000;0.1050;4.4566;
212.1000;0.1034;4.4493;
212.4000;0.1034;4.4469;
212.7000;0.1050;4.4445;
213.0000;0.1058;4.4469;
213.3000;0.1034;4.4347;
213.6000;0.1034;4.4372;
213.9000;0.1050;4.4396;
214.2000;0.1099;4.4566;
214.5000;0.1058;4.4493;
214.8000;0.1042;4.4469;
215.1000;0.1026;4.4396;
215.4000;0.1074;4.4518;
215.7000;0.1018;4.4420;
216.0000;0.1034;4.4469;
216.3000;0.1034;4.4396;
216.6000;0.1050;4.4347;
216.9000;0.1050;4.4323;
217.2000;0.1042;4.4372;
217.5000;0.1074;4.4396;
217.8000;0.1009;4.4177;
218.1000;0.1058;4.4347;
218.4000;0.1066;4.4420;
218.7000;0.1050;4.4396;
219.0000;0.0993;4.4299;
219.3000;0.1091;4.4493;
219.6000;0.1050;4.4347;
219.9000;0.1050;4.4445;
220.2000;0.1026;4.4420;
220.5000;0.1042;4.4469;
220.8000;0.1050;4.4518;
221.1000;0.1034;4.4469;
221.4000;0.1026;4.4445;
221.7000;0.1066;4.4566;
222.0000;0.1066;4.4591;
222.3000;0.0993;4.4274;
222.6000;0.1050;4.4469;
222.9000;0.1074;4.4591;
223.2000;0.1042;4.4493;
223.5000;0.1050;4.4469;
223.8000;0.1042;4.4493;
224.1000;0.1091;4.4566;
224.4000;0.1050;4.4542;
224.7000;0.1066;4.4664;
225.0000;0.1066;4.4761;
225.3000;0.1050;4.4712;
225.6000;0.1058;4.4688;
225.9000;0.1050;4.4591;
226.2000;0.1042;4.4688;
226.5000;0.1018;4.4566;
226.8000;0.0985;4.4420;
227.1000;0.1066;4.4688;
227.4000;0.1050;4.4712;
227.7000;0.1156;4.5053;
228.0000;0.1074;4.4785;
228.3000;0.1034;4.4664;
228.6000;0.1009;4.4591;
228.9000;0.1050;4.4688;
229.2000;0.0961;4.4445;
229.5000;0.1058;4.4615;
229.8000;0.1026;4.4469;
230.1000;0.1066;4.4591;
230.4000;0.1205;4.4956;
230.7000;0.1123;4.4858;
231.0000;0.1050;4.4761;
231.3000;0.0952;4.4469;
231.6000;0.1034;4.4639;
231.9000;0.1018;4.4591;
232.2000;0.1099;4.4810;
232.5000;0.1009;4.4664;
232.8000;0.1172;4.4956;
233.1000;0.1115;4.4785;
233.4000;0.1042;4.4615;
233.7000;0.1058;4.4615;
234.0000;0.1058;4.4542;
234.3000;0.1050;4.4518;
234.6000;0.1066;4.4566;
234.9000;0.1074;4.4591;
235.2000;0.1009;4.4518;
235.5000;0.1050;4.4639;
235.8000;0.1058;4.4591;
236.1000;0.1074;4.4591;
236.4000;0.1066;4.4591;
236.7000;0.1042;4.4566;
237.0000;0.1042;4.4615;
237.3000;0.1026;4.4615;
237.6000;0.1026;4.4566;
237.9000;0.1026;4.4591;
238.2000;0.1091;4.4761;
238.5000;0.1050;4.4639;
238.8000;0.1058;4.4615;
239.1000;0.1083;4.4664;
239.4000;0.1083;4.4688;
239.7000;0.1091;4.4712;
240.0000;0.1050;4.4469;
240.3000;0.1050;4.4542;
240.6000;0.1123;4.4737;
240.9000;0.1042;4.4591;
241.2000;0.1018;4.4615;
241.5000;0.1026;4.4664;
241.8000;0.1034;4.4712;
242.1000;0.1050;4.4785;
242.4000;0.1042;4.4639;
242.7000;0.1034;4.4615;
243.0000;0.1042;4.4615;
243.3000;0.1042;4.4615;
243.6000;0.1018;4.4591;
243.9000;0.1050;4.4615;
244.2000;0.1034;4.4591;
244.5000;0.1050;4.4664;
244.8000;0.1042;4.4712;
245.1000;0.1042;4.4834;
245.4000;0.1042;4.4810;
245.7000;0.1042;4.4858;
246.0000;0.1050;4.4907;
246.3000;0.1050;4.4810;
246.6000;0.1042;4.4907;
246.9000;0.1050;4.4834;
247.2000;0.1066;4.4858;
247.5000;0.1058;4.4907;
247.8000;0.1009;4.4761;
248.1000;0.1034;4.4785;
248.4000;0.1058;4.4785;
248.7000;0.1018;4.4688;
249.0000;0.1058;4.4785;
249.3000;0.1042;4.4785;
249.6000;0.1099;4.4956;
249.9000;0.1034;4.4858;
250.2000;0.1074;4.4834;
250.5000;0.1026;4.4591;
250.8000;0.1018;4.4493;
251.1000;0.1083;4.4712;
251.4000;0.1058;4.4639;
251.7000;0.1099;4.4785;
252.0000;0.1050;4.4542;
252.3000;0.1050;4.4688;
252.6000;0.1018;4.4591;
252.9000;0.1026;4.4664;
253.2000;0.1058;4.4712;
253.5000;0.1042;4.4615;
253.8000;0.1099;4.4664;
254.1000;0.1058;4.4566;
254.4000;0.1034;4.4566;
254.7000;0.1107;4.4785;
255.0000;0.1083;4.4664;
255.3000;0.1058;4.4712;
255.6000;0.1034;4.4664;
255.9000;0.1042;4.4639;
256.2000;0.1018;4.4518;
256.5000;0.1050;4.4639;
256.8000;0.1018;4.4542;
257.1000;0.1042;4.4712;
257.4000;0.1058;4.4737;
257.7000;0.1042;4.4688;
258.0000;0.1034;4.4615;
258.3000;0.1042;4.4591;
258.6000;0.1026;4.4591;
258.9000;0.1066;4.4737;
259.2000;0.1066;4.4664;
259.5000;0.1050;4.4761;
259.8000;0.1099;4.4931;
260.1000;0.1188;4.5272;
260.4000;0.1050;4.4980;
260.7000;0.0977;4.4761;
261.0000;0.1034;4.4907;
261.3000;0.1042;4.4761;
261.6000;0.1034;4.4761;
261.9000;0.1034;4.4664;
262.2000;0.1058;4.4664;
262.5000;0.1042;4.4664;
262.8000;0.1026;4.4615;
263.1000;0.1050;4.4737;
263.4000;0.1034;4.4712;
263.7000;0.1009;4.4591;
264.0000;0.1131;4.4883;
264.3000;0.1034;4.4591;
264.6000;0.0977;4.4372;
264.9000;0.1026;4.4542;
265.2000;0.1042;4.4566;
265.5000;0.1050;4.4542;
265.8000;0.1026;4.4493;
266.1000;0.1050;4.4566;
266.4000;0.1058;4.4737;
266.7000;0.1042;4.4664;
267.0000;0.1009;4.4566;
267.3000;0.0895;4.4201;
267.6000;0.1050;4.4688;
267.9000;0.1074;4.4858;
268.2000;0.1026;4.4688;
268.5000;0.1034;4.4761;
268.8000;0.1050;4.4834;
269.1000;0.1001;4.4664;
269.4000;0.1042;4.4712;
269.7000;0.1026;4.4688;
270.0000;0.1050;4.4737;
270.3000;0.1042;4.4785;
270.6000;0.1042;4.4810;
270.9000;0.1066;4.4931;
271.2000;0.1034;4.4858;
271.5000;0.1050;4.4883;
271.8000;0.1058;4.4858;
272.1000;0.0977;4.4688;
272.4000;0.1115;4.5053;
272.7000;0.1066;4.4956;
273.0000;0.1074;4.4907;
273.3000;0.1107;4.5029;
273.6000;0.1034;4.4785;
273.9000;0.1066;4.4931;
274.2000;0.1058;4.4907;
274.5000;0.1099;4.5029;
274.8000;0.1058;4.4858;
275.1000;0.1074;4.4858;
275.4000;0.1058;4.4834;
275.7000;0.1050;4.4785;
276.0000;0.1042;4.4761;
276.3000;0.1050;4.4810;
276.6000;0.1042;4.4737;
276.9000;0.1034;4.4688;
277.2000;0.1034;4.4615;
277.5000;0.1042;4.4615;
277.8000;0.1042;4.4712;
278.1000;0.1009;4.4664;
278.4000;0.1050;4.4761;
278.7000;0.1050;4.4785;
279.0000;0.1074;4.4834;
279.3000;0.1034;4.4761;
279.6000;0.1074;4.4883;
279.9000;0.1058;4.4785;
280.2000;0.1107;4.5004;
280.5000;0.1066;4.4907;
280.8000;0.1026;4.4785;
281.1000;0.1042;4.4737;
281.4000;0.1066;4.4761;
281.7000;0.1058;4.4639;
282.0000;0.1034;4.4688;
282.3000;0.1018;4.4664;
282.6000;0.1026;4.4664;
282.9000;0.1074;4.4664;
283.2000;0.1050;4.4664;
283.5000;0.1042;4.4566;
283.8000;0.1050;4.4591;
284.1000;0.1066;4.4712;
284.4000;0.1026;4.4615;
284.7000;0.1001;4.4664;
285.0000;0.1107;4.4931;
285.3000;0.1091;4.4858;
285.6000;0.1058;4.4761;
285.9000;0.1083;4.4785;
286.2000;0.1066;4.4688;
286.5000;0.1066;4.4688;
286.8000;0.1050;4.4737;
287.1000;0.0952;4.4372;
287.4000;0.1034;4.4566;
287.7000;0.1050;4.4664;
288.0000;0.1034;4.4542;
288.3000;0.1001;4.4566;
288.6000;0.1156;4.4907;
288.9000;0.1042;4.4639;
289.2000;0.1034;4.4688;
289.5000;0.1058;4.4737;
289.8000;0.1042;4.4688;
290.1000;0.0985;4.4591;
290.4000;0.1042;4.4761;
290.7000;0.1083;4.4858;
291.0000;0.1042;4.4737;
291.3000;0.1042;4.4810;
291.6000;0.1034;4.4712;
291.9000;0.1034;4.4712;
292.2000;0.1058;4.4810;
292.5000;0.1050;4.4810;
292.8000;0.1050;4.4761;
293.1000;0.1050;4.4737;
293.4000;0.1083;4.4834;
293.7000;0.1042;4.4664;
294.0000;0.1050;4.4664;
294.3000;0.1058;4.4688;
294.6000;0.1066;4.4761;
294.9000;0.1058;4.4712;
295.2000;0.0969;4.4396;
295.5000;0.1034;4.4664;
295.8000;0.1058;4.4761;
296.1000;0.1058;4.4810;
296.4000;0.1099;4.5004;
296.7000;0.1034;4.4737;
297.0000;0.1034;4.4737;
297.3000;0.1034;4.4688;
297.6000;0.1058;4.4761;
297.9000;0.1083;4.4810;
298.2000;0.1074;4.4785;
298.5000;0.1099;4.4858;
298.8000;0.1066;4.4737;
299.1000;0.1066;4.4785;
299.4000;0.1050;4.4785;
299.7000;0.1058;4.4810;
300.0000;0.1042;4.4761;
300.3000;0.1066;4.4810;
300.6000;0.1083;4.4761;
300.9000;0.0985;4.4518;
301.2000;0.1026;4.4664;
301.5000;0.1050;4.4810;
301.8000;0.1026;4.4712;
302.1000;0.1042;4.4761;
302.4000;0.0944;4.4445;
302.7000;0.1042;4.4664;
303.0000;0.1058;4.4737;
303.3000;0.1058;4.4737;
303.6000;0.0928;4.4323;
303.9000;0.1050;4.4712;
304.2000;0.1107;4.4980;
304.5000;0.1042;4.4834;
304.8000;0.1034;4.4785;
305.1000;0.1034;4.4761;
305.4000;0.1058;4.4785;
305.7000;0.1058;4.4712;
306.0000;0.1026;4.4591;
306.3000;0.1074;4.4688;
306.6000;0.1026;4.4639;
306.9000;0.1034;4.4639;
307.2000;0.1026;4.4615;
307.5000;0.1042;4.4591;
307.8000;0.1026;4.4566;
308.1000;0.1042;4.4664;
308.4000;0.1050;4.4615;
308.7000;0.1034;4.4542;
309.0000;0.1213;4.5077;
309.3000;0.1042;4.4518;
309.6000;0.1107;4.4785;
309.9000;0.1042;4.4737;
310.2000;0.1042;4.4712;
310.5000;0.1018;4.4591;
310.8000;0.1058;4.4664;
311.1000;0.1058;4.4639;
311.4000;0.1042;4.4615;
311.7000;0.1083;4.4761;
312.0000;0.0977;4.4591;
312.3000;0.1066;4.4712;
312.6000;0.1058;4.4785;
312.9000;0.0985;4.4566;
313.2000;0.1050;4.4664;
313.5000;0.1050;4.4688;
313.8000;0.1066;4.4664;
314.1000;0.1050;4.4542;
314.4000;0.1066;4.4469;
314.7000;0.1042;4.4493;
315.0000;0.1034;4.4469;
315.3000;0.1042;4.4445;
315.6000;0.1042;4.4518;
315.9000;0.1066;4.4542;
316.2000;0.0977;4.4323;
316.5000;0.1018;4.4493;
316.8000;0.1042;4.4542;
317.1000;0.1050;4.4591;
317.4000;0.1066;4.4712;
317.7000;0.1026;4.4639;
318.0000;0.1042;4.4639;
318.3000;0.1091;4.4737;
318.6000;0.1050;4.4591;
318.9000;0.1066;4.4615;
319.2000;0.1083;4.4688;
319.5000;0.1066;4.4712;
319.8000;0.1131;4.4931;
320.1000;0.1058;4.4664;
320.4000;0.1042;4.4639;
320.7000;0.1058;4.4566;
321.0000;0.0936;4.4153;
321.3000;0.1058;4.4518;
321.6000;0.1026;4.4445;
321.9000;0.1058;4.4542;
322.2000;0.1050;4.4566;
322.5000;0.1066;4.4518;
322.8000;0.0985;4.4347;
323.1000;0.1050;4.4542;
323.4000;0.1058;4.4591;
323.7000;0.1042;4.4518;
324.0000;0.1034;4.4542;
324.3000;0.1058;4.4664;
324.6000;0.1009;4.4542;
324.9000;0.1026;4.4566;
325.2000;0.1107;4.4761;
325.5000;0.1050;4.4518;
325.8000;0.1009;4.4469;
326.1000;0.1058;4.4591;
326.4000;0.0993;4.4372;
326.7000;0.0985;4.4372;
327.0000;0.1026;4.4445;
327.3000;0.1001;4.4445;
327.6000;0.1042;4.4493;
327.9000;0.1042;4.4518;
328.2000;0.1058;4.4615;
328.5000;0.1026;4.4615;
328.8000;0.1042;4.4615;
329.1000;0.1099;4.4737;
329.4000;0.1018;4.4566;
329.7000;0.1066;4.4688;
330.0000;0.1066;4.4737;
330.3000;0.1018;4.4688;
330.6000;0.1058;4.4834;
330.9000;0.1066;4.4956;
331.2000;0.1050;4.4956;
331.5000;0.1050;4.4956;
331.8000;0.1050;4.4907;
332.1000;0.1066;4.4907;
332.4000;0.1066;4.4810;
332.7000;0.1050;4.4810;
333.0000;0.1042;4.4834;
333.3000;0.1058;4.4883;
333.6000;0.1115;4.5102;
333.9000;0.1026;4.4883;
334.2000;0.1034;4.4858;
334.5000;0.1034;4.4810;
334.8000;0.1042;4.4785;
335.1000;0.1042;4.4810;
335.4000;0.1050;4.4907;
335.7000;0.1026;4.4883;
336.0000;0.1050;4.4980;
336.3000;0.1042;4.5004;
336.6000;0.1042;4.5004;
336.9000;0.1074;4.4980;
337.2000;0.1042;4.4858;
337.5000;0.1026;4.4858;
337.8000;0.1026;4.4956;
338.1000;0.1123;4.5199;
338.4000;0.1026;4.4956;
338.7000;0.1042;4.5029;
339.0000;0.1050;4.5053;
339.3000;0.1034;4.5029;
339.6000;0.1034;4.4956;
339.9000;0.1050;4.4980;
340.2000;0.1066;4.5004;
340.5000;0.1042;4.4956;
340.8000;0.1050;4.4931;
341.1000;0.1026;4.4810;
341.4000;0.1074;4.4931;
341.7000;0.1066;4.4883;
342.0000;0.1018;4.4737;
342.3000;0.1018;4.4810;
342.6000;0.1066;4.4883;
342.9000;0.1026;4.4688;
343.2000;0.1050;4.4810;
343.5000;0.1034;4.4761;
343.8000;0.0928;4.4591;
344.1000;0.1066;4.4931;
344.4000;0.1050;4.4834;
344.7000;0.1009;4.4737;
345.0000;0.0961;4.4566;
345.3000;0.1018;4.4664;
345.6000;0.1042;4.4639;
345.9000;0.1042;4.4664;
346.2000;0.0993;4.4664;
346.5000;0.1050;4.4785;
346.8000;0.1131;4.5004;
347.1000;0.1066;4.4761;
347.4000;0.1107;4.4931;
347.7000;0.1026;4.4688;
348.0000;0.1050;4.4785;
348.3000;0.1050;4.4858;
348.6000;0.1066;4.4858;
348.9000;0.1058;4.4834;
349.2000;0.1099;4.4931;
349.5000;0.1058;4.4761;
349.8000;0.1131;4.4956;
350.1000;0.1066;4.4785;
350.4000;0.1001;4.4566;
350.7000;0.0928;4.4396;
351.0000;0.1058;4.4785;
351.3000;0.1042;4.4834;
351.6000;0.1042;4.4810;
351.9000;0.1034;4.4810;
352.2000;0.1026;4.4712;
352.5000;0.1050;4.4834;
352.8000;0.1050;4.4785;
353.1000;0.1058;4.4834;
353.4000;0.1050;4.4834;
353.7000;0.1042;4.4785;
354.0000;0.1066;4.4858;
354.3000;0.1058;4.4834;
354.6000;0.1050;4.4858;
354.9000;0.1058;4.4834;
355.2000;0.1034;4.4834;
355.5000;0.1018;4.4858;
355.8000;0.1034;4.4907;
356.1000;0.1009;4.4907;
356.4000;0.1050;4.5029;
356.7000;0.1018;4.4834;
357.0000;0.1034;4.4883;
357.3000;0.1001;4.4785;
357.6000;0.0952;4.4615;
357.9000;0.1066;4.4883;
358.2000;0.1034;4.4785;
358.5000;0.1050;4.4907;
358.8000;0.1074;4.4980;
359.1000;0.1018;4.4858;
359.4000;0.1066;4.4858;
359.7000;0.0944;4.4445;
360.0000;0.1058;4.4834;
360.3000;0.1034;4.4834;
360.6000;0.1009;4.4883;
360.9000;0.1058;4.4907;
361.2000;0.1042;4.4858;
361.5000;0.1066;4.4883;
361.8000;0.1034;4.4810;
362.1000;0.1034;4.4834;
362.4000;0.1058;4.4810;
362.7000;0.1042;4.4737;
363.0000;0.1058;4.4810;
363.3000;0.1050;4.4737;
363.6000;0.1042;4.4712;
363.9000;0.1066;4.4834;
364.2000;0.1034;4.4737;
364.5000;0.1050;4.4712;
364.8000;0.1050;4.4785;
365.1000;0.0912;4.4420;
365.4000;0.1058;4.4761;
365.7000;0.1074;4.4834;
366.0000;0.1058;4.4664;
366.3000;0.1058;4.4639;
366.6000;0.1009;4.4542;
366.9000;0.1058;4.4664;
367.2000;0.1009;4.4712;
367.5000;0.1050;4.4858;
367.8000;0.1091;4.5004;
368.1000;0.1042;4.4931;
368.4000;0.1058;4.4907;
368.7000;0.1001;4.4712;
369.0000;0.1050;4.4858;
369.3000;0.1050;4.4858;
369.6000;0.1026;4.4883;
369.9000;0.1050;4.4907;
370.2000;0.1001;4.4761;
370.5000;0.1042;4.4858;
370.8000;0.1034;4.4931;
371.1000;0.1058;4.4980;
371.4000;0.1042;4.4858;
371.7000;0.1009;4.4737;
372.0000;0.1042;4.4810;
372.3000;0.1058;4.4834;
372.6000;0.1018;4.4761;
372.9000;0.1042;4.4761;
373.2000;0.1009;4.4761;
373.5000;0.1026;4.4810;
373.8000;0.1074;4.4810;
374.1000;0.1066;4.4834;
374.4000;0.1050;4.4810;
374.7000;0.1050;4.4810;
375.0000;0.1050;4.4810;
375.3000;0.1066;4.4834;
375.6000;0.1058;4.4858;
375.9000;0.1042;4.4834;
376.2000;0.1099;4.5004;
376.5000;0.1066;4.4834;
376.8000;0.1066;4.4834;
377.1000;0.1066;4.4858;
377.4000;0.1050;4.4761;
377.7000;0.0985;4.4566;
378.0000;0.1066;4.4785;
378.3000;0.1042;4.4761;
378.6000;0.1058;4.4858;
378.9000;0.1042;4.4834;
379.2000;0.1034;4.4858;
379.5000;0.1026;4.4858;
379.8000;0.1018;4.4858;
380.1000;0.1034;4.4785;
380.4000;0.1058;4.4785;
380.7000;0.1115;4.4907;
381.0000;0.1042;4.4712;
381.3000;0.1042;4.4712;
381.6000;0.1042;4.4737;
381.9000;0.1074;4.4785;
382.2000;0.1050;4.4688;
382.5000;0.1058;4.4664;
382.8000;0.1042;4.4591;
383.1000;0.1058;4.4542;
383.4000;0.1026;4.4469;
383.7000;0.1034;4.4518;
384.0000;0.1018;4.4518;
384.3000;0.1050;4.4591;
384.6000;0.1050;4.4639;
384.9000;0.1050;4.4737;
385.2000;0.1058;4.4810;
385.5000;0.1058;4.4858;
385.8000;0.1050;4.4834;
386.1000;0.1001;4.4664;
386.4000;0.1018;4.4639;
386.7000;0.1042;4.4712;
387.0000;0.1050;4.4810;
387.3000;0.1042;4.4785;
387.6000;0.1099;4.4858;
387.9000;0.1058;4.4810;
388.2000;0.1042;4.4883;
388.5000;0.1042;4.4883;
388.8000;0.1034;4.4834;
389.1000;0.0969;4.4615;
389.4000;0.1058;4.4858;
389.7000;0.1074;4.4810;
390.0000;0.1026;4.4664;
390.3000;0.0993;4.4518;
390.6000;0.1034;4.4615;
390.9000;0.1026;4.4566;
391.2000;0.1034;4.4591;
391.5000;0.1042;4.4761;
391.8000;0.0961;4.4493;
392.1000;0.1074;4.4761;
392.4000;0.1050;4.4737;
392.7000;0.0961;4.4542;
393.0000;0.1034;4.4810;
393.3000;0.1050;4.4883;
393.6000;0.1131;4.5077;
393.9000;0.1042;4.4810;
394.2000;0.1018;4.4712;
394.5000;0.1066;4.4858;
394.8000;0.1018;4.4688;
395.1000;0.1050;4.4785;
395.4000;0.0985;4.4591;
395.7000;0.1034;4.4712;
396.0000;0.1074;4.4761;
396.3000;0.1099;4.4980;
396.6000;0.1050;4.4761;
396.9000;0.1001;4.4664;
397.2000;0.1050;4.4834;
397.5000;0.1058;4.4834;
397.8000;0.1034;4.4810;
398.1000;0.1042;4.4907;
398.4000;0.1050;4.4834;
398.7000;0.1042;4.4737;
399.0000;0.1034;4.4688;
399.3000;0.1058;4.4858;
399.6000;0.1042;4.4883;
399.9000;0.1042;4.4858;
400.2000;0.1058;4.4834;
400.5000;0.1058;4.4834;
400.8000;0.1009;4.4688;
401.1000;0.0993;4.4712;
401.4000;0.1026;4.4834;
401.7000;0.1074;4.4980;
402.0000;0.1018;4.4834;
402.3000;0.1050;4.4907;
402.6000;0.1018;4.4858;
402.9000;0.1034;4.4858;
403.2000;0.1050;4.4907;
403.5000;0.1058;4.4858;
403.8000;0.1042;4.4834;
404.1000;0.1009;4.4712;
404.4000;0.1050;4.4761;
404.7000;0.1099;4.4956;
405.0000;0.1042;4.4810;
405.3000;0.1018;4.4688;
405.6000;0.1156;4.4931;
405.9000;0.1042;4.4518;
406.2000;0.1026;4.4591;
406.5000;0.1050;4.4566;
406.8000;0.1009;4.4445;
407.1000;0.1026;4.4396;
407.4000;0.1074;4.4591;
407.7000;0.1001;4.4445;
408.0000;0.1058;4.4591;
408.3000;0.1009;4.4469;
408.6000;0.1042;4.4469;
408.9000;0.1034;4.4445;
409.2000;0.1074;4.4542;
409.5000;0.1099;4.4785;
409.8000;0.1034;4.4615;
410.1000;0.1050;4.4688;
410.4000;0.1034;4.4542;
410.7000;0.1050;4.4493;
411.0000;0.1034;4.4372;
411.3000;0.1058;4.4323;
411.6000;0.1140;4.4566;
411.9000;0.1042;4.4372;
412.2000;0.1058;4.4518;
412.5000;0.1083;4.4591;
412.8000;0.1058;4.4591;
413.1000;0.1042;4.4615;
413.4000;0.1042;4.4518;
413.7000;0.1018;4.4469;
414.0000;0.1042;4.4566;
414.3000;0.1050;4.4566;
414.6000;0.1066;4.4639;
414.9000;0.1050;4.4615;
415.2000;0.1026;4.4664;
415.5000;0.1050;4.4664;
415.8000;0.1058;4.4639;
416.1000;0.1066;4.4712;
416.4000;0.1034;4.4639;
416.7000;0.1026;4.4566;
417.0000;0.1074;4.4664;
417.3000;0.1107;4.4761;
417.6000;0.1050;4.4566;
417.9000;0.0985;4.4420;
418.2000;0.0985;4.4493;
418.5000;0.1026;4.4493;
418.8000;0.0985;4.4274;
419.1000;0.0928;4.4128;
419.4000;0.1058;4.4566;
419.7000;0.0985;4.4372;
420.0000;0.1066;4.4445;
420.3000;0.1058;4.4518;
420.6000;0.1074;4.4639;
420.9000;0.1091;4.4785;
421.2000;0.1034;4.4639;
421.5000;0.1042;4.4712;
421.8000;0.1050;4.4639;
422.1000;0.1066;4.4712;
422.4000;0.1042;4.4664;
422.7000;0.1050;4.4712;
423.0000;0.1050;4.4737;
423.3000;0.1018;4.4664;
423.6000;0.1058;4.4737;
423.9000;0.1066;4.4785;
424.2000;0.1107;4.4931;
424.5000;0.0944;4.4469;
424.8000;0.1042;4.4615;
425.1000;0.1026;4.4518;
425.4000;0.1058;4.4566;
425.7000;0.1050;4.4615;
426.0000;0.1018;4.4566;
426.3000;0.1034;4.4664;
426.6000;0.1050;4.4591;
426.9000;0.1050;4.4591;
427.2000;0.1074;4.4737;
427.5000;0.1091;4.4737;
427.8000;0.1050;4.4591;
428.1000;0.1042;4.4639;
428.4000;0.1066;4.4542;
428.7000;0.1009;4.4396;
429.0000;0.1042;4.4566;
429.3000;0.1042;4.4639;
429.6000;0.1034;4.4639;
429.9000;0.1042;4.4615;
430.2000;0.1074;4.4615;
430.5000;0.1034;4.4469;
430.8000;0.1026;4.4542;
431.1000;0.1050;4.4542;
431.4000;0.1042;4.4542;
431.7000;0.1034;4.4566;
432.0000;0.1034;4.4591;
432.3000;0.1026;4.4566;
432.6000;0.1042;4.4542;
432.9000;0.1026;4.4518;
433.2000;0.1026;4.4469;
433.5000;0.1058;4.4542;
433.8000;0.1066;4.4712;
434.1000;0.1034;4.4591;
434.4000;0.0977;4.4420;
434.7000;0.1001;4.4542;
435.0000;0.1107;4.4834;
435.3000;0.1042;4.4639;
435.6000;0.1034;4.4518;
435.9000;0.0993;4.4445;
436.2000;0.1009;4.4396;
436.5000;0.1042;4.4420;
436.8000;0.1042;4.4445;
437.1000;0.1058;4.4493;
437.4000;0.1058;4.4518;
437.7000;0.1091;4.4737;
438.0000;0.1034;4.4639;
438.3000;0.1066;4.4761;
438.6000;0.1058;4.4883;
438.9000;0.1026;4.4761;
439.2000;0.1034;4.4810;
439.5000;0.1026;4.4785;
439.8000;0.1066;4.4834;
440.1000;0.1034;4.4810;
440.4000;0.1058;4.4834;
440.7000;0.1042;4.4834;
441.0000;0.1050;4.4785;
441.3000;0.0961;4.4542;
441.6000;0.1050;4.4737;
441.9000;0.0993;4.4639;
442.2000;0.1001;4.4688;
442.5000;0.1034;4.4761;
442.8000;0.1140;4.4980;
443.1000;0.1034;4.4737;
443.4000;0.0969;4.4591;
443.7000;0.1058;4.4883;
444.0000;0.1042;4.4688;
444.3000;0.1083;4.4761;
444.6000;0.1066;4.4785;
444.9000;0.1074;4.4810;
445.2000;0.1083;4.4761;
445.5000;0.1042;4.4615;
445.8000;0.1034;4.4542;
446.1000;0.1042;4.4566;
446.4000;0.1058;4.4615;
446.7000;0.1001;4.4542;
447.0000;0.0944;4.4396;
447.3000;0.1018;4.4615;
447.6000;0.1026;4.4664;
447.9000;0.1058;4.4712;
448.2000;0.1050;4.4615;
448.5000;0.1034;4.4639;
448.8000;0.1050;4.4639;
449.1000;0.1042;4.4712;
449.4000;0.1042;4.4761;
449.7000;0.1050;4.4688;
450.0000;0.1042;4.4639;
450.3000;0.1058;4.4712;
450.6000;0.1050;4.4761;
450.9000;0.1050;4.4810;
451.2000;0.1009;4.4688;
451.5000;0.1058;4.4737;
451.8000;0.1018;4.4566;
452.1000;0.1034;4.4615;
452.4000;0.1034;4.4591;
452.7000;0.1050;4.4591;
453.0000;0.1050;4.4518;
453.3000;0.1058;4.4615;
453.6000;0.1042;4.4639;
453.9000;0.1034;4.4518;
454.2000;0.1091;4.4615;
454.5000;0.1050;4.4542;
454.8000;0.1042;4.4445;
455.1000;0.1042;4.4396;
455.4000;0.1042;4.4445;
455.7000;0.1066;4.4591;
456.0000;0.1042;4.4591;
456.3000;0.1083;4.4712;
456.6000;0.1042;4.4639;
456.9000;0.1058;4.4688;
457.2000;0.0977;4.4372;
457.5000;0.1026;4.4445;
457.8000;0.1009;4.4445;
458.1000;0.0985;4.4347;
458.4000;0.1018;4.4420;
458.7000;0.1058;4.4615;
459.0000;0.1058;4.4664;
459.3000;0.1107;4.4883;
459.6000;0.1050;4.4785;
459.9000;0.1042;4.4761;
460.2000;0.1026;4.4664;
460.5000;0.1066;4.4858;
460.8000;0.1050;4.4761;
461.1000;0.1172;4.5077;
461.4000;0.1034;4.4688;
461.7000;0.1050;4.4615;
462.0000;0.1018;4.4615;
462.3000;0.1018;4.4542;
462.6000;0.1083;4.4737;
462.9000;0.0993;4.4469;
463.2000;0.1066;4.4639;
463.5000;0.1066;4.4639;
463.8000;0.1050;4.4542;
464.1000;0.1042;4.4445;
464.4000;0.1042;4.4566;
464.7000;0.1058;4.4542;
465.0000;0.1018;4.4420;
465.3000;0.1066;4.4566;
465.6000;0.1058;4.4518;
465.9000;0.0969;4.4201;
466.2000;0.1058;4.4518;
466.5000;0.1058;4.4615;
466.8000;0.1026;4.4566;
467.1000;0.1115;4.4761;
467.4000;0.1083;4.4639;
467.7000;0.1058;4.4591;
468.0000;0.1050;4.4591;
468.3000;0.1140;4.4810;
468.6000;0.1034;4.4469;
468.9000;0.1066;4.4566;
469.2000;0.1091;4.4737;
469.5000;0.1058;4.4639;
469.8000;0.1050;4.4688;
470.1000;0.1026;4.4591;
470.4000;0.1058;4.4639;
470.7000;0.1026;4.4469;
471.0000;0.1050;4.4591;
471.3000;0.1034;4.4518;
471.6000;0.1042;4.4518;
471.9000;0.1050;4.4591;
472.2000;0.1050;4.4664;
472.5000;0.1026;4.4615;
472.8000;0.1050;4.4688;
473.1000;0.0961;4.4420;
473.4000;0.1018;4.4664;
473.7000;0.1058;4.4761;
474.0000;0.1050;4.4737;
474.3000;0.1074;4.4737;
474.6000;0.1172;4.4956;
474.9000;0.1050;4.4664;
475.2000;0.1026;4.4688;
475.5000;0.1042;4.4761;
475.8000;0.1042;4.4737;
476.1000;0.1066;4.4785;
476.4000;0.1050;4.4688;
476.7000;0.1026;4.4639;
477.0000;0.1034;4.4664;
477.3000;0.1083;4.4785;
477.6000;0.1050;4.4785;
477.9000;0.0993;4.4566;
478.2000;0.1034;4.4639;
478.5000;0.1140;4.4956;
478.8000;0.1050;4.4639;
479.1000;0.1099;4.4810;
479.4000;0.1083;4.4785;
479.7000;0.1058;4.4712;
480.0000;0.1050;4.4688;
480.3000;0.0977;4.4420;
480.6000;0.1050;4.4591;
480.9000;0.1083;4.4639;
481.2000;0.1074;4.4566;
481.5000;0.1034;4.4469;
481.8000;0.1034;4.4469;
482.1000;0.1058;4.4566;
482.4000;0.1050;4.4518;
482.7000;0.1058;4.4566;
483.0000;0.1018;4.4445;
483.3000;0.1050;4.4542;
483.6000;0.1050;4.4566;
483.9000;0.1050;4.4566;
484.2000;0.0855;4.4006;
484.5000;0.1042;4.4469;
484.8000;0.1034;4.4493;
485.1000;0.1034;4.4445;
485.4000;0.1042;4.4469;
485.7000;0.1034;4.4518;
486.0000;0.1058;4.4615;
486.3000;0.1042;4.4591;
486.6000;0.1026;4.4615;
486.9000;0.1050;4.4688;
487.2000;0.1058;4.4737;
487.5000;0.1018;4.4639;
487.8000;0.1050;4.4761;
488.1000;0.1018;4.4591;
488.4000;0.1058;4.4737;
488.7000;0.1066;4.4688;
489.0000;0.1042;4.4664;
489.3000;0.1009;4.4615;
489.6000;0.1066;4.4737;
489.9000;0.1050;4.4615;
490.2000;0.1026;4.4542;
490.5000;0.1042;4.4737;
490.8000;0.1050;4.4688;
491.1000;0.1026;4.4761;
491.4000;0.1026;4.4712;
491.7000;0.1018;4.4761;
492.0000;0.1026;4.4785;
492.3000;0.1050;4.4810;
492.6000;0.1058;4.4858;
492.9000;0.1042;4.4858;
493.2000;0.1034;4.4883;
493.5000;0.1066;4.4931;
493.8000;0.1066;4.4907;
494.1000;0.1009;4.4810;
494.4000;0.1034;4.4883;
494.7000;0.1066;4.4907;
495.0000;0.1083;4.4785;
495.3000;0.1034;4.4664;
495.6000;0.1026;4.4542;
495.9000;0.0993;4.4566;
496.2000;0.1050;4.4639;
496.5000;0.0977;4.4469;
496.8000;0.1026;4.4542;
497.1000;0.1083;4.4810;
497.4000;0.1058;4.4858;
497.7000;0.1099;4.4980;
498.0000;0.1050;4.4858;
498.3000;0.1074;4.4931;
498.6000;0.1058;4.4858;
498.9000;0.1058;4.4858;
499.2000;0.1050;4.4834;
499.5000;0.1026;4.4712;
499.8000;0.1034;4.4737;
500.1000;0.1066;4.4834;
500.4000;0.1058;4.4737;
500.7000;0.1042;4.4737;
501.0000;0.1042;4.4664;
501.3000;0.1018;4.4518;
501.6000;0.1042;4.4615;
501.9000;0.1074;4.4712;
502.2000;0.1140;4.4883;
502.5000;0.1009;4.4493;
502.8000;0.1034;4.4591;
503.1000;0.1066;4.4810;
503.4000;0.1050;4.4785;
503.7000;0.1042;4.4785;
504.0000;0.0985;4.4566;
504.3000;0.1034;4.4712;
504.6000;0.1050;4.4664;
504.9000;0.1050;4.4639;
505.2000;0.1099;4.4810;
505.5000;0.1001;4.4518;
505.8000;0.1026;4.4591;
506.1000;0.1042;4.4664;
506.4000;0.1042;4.4688;
506.7000;0.1042;4.4664;
507.0000;0.1042;4.4737;
507.3000;0.1001;4.4639;
507.6000;0.1050;4.4712;
507.9000;0.1034;4.4639;
508.2000;0.1009;4.4566;
508.5000;0.1026;4.4664;
508.8000;0.1058;4.4810;
509.1000;0.1026;4.4664;
509.4000;0.1009;4.4639;
509.7000;0.1058;4.4737;
510.0000;0.1042;4.4639;
510.3000;0.0993;4.4493;
510.6000;0.1026;4.4761;
510.9000;0.1034;4.4931;
511.2000;0.1066;4.4931;
511.5000;0.1050;4.4956;
511.8000;0.0977;4.4737;
512.1000;0.1050;4.4980;
512.4000;0.1050;4.5053;
512.7000;0.1034;4.4980;
513.0000;0.1050;4.4956;
513.3000;0.1066;4.4931;
513.6000;0.1050;4.4883;
513.9000;0.1107;4.4980;
514.2000;0.1050;4.4810;
514.5000;0.1042;4.4761;
514.8000;0.1042;4.4712;
515.1000;0.1058;4.4858;
515.4000;0.1066;4.4810;
515.7000;0.1026;4.4712;
516.0000;0.1001;4.4712;
516.3000;0.1034;4.4761;
516.6000;0.1042;4.4785;
516.9000;0.1026;4.4761;
517.2000;0.1042;4.4737;
517.5000;0.1050;4.4712;
517.8000;0.1050;4.4712;
518.1000;0.1018;4.4639;
518.4000;0.1058;4.4712;
518.7000;0.1074;4.4785;
519.0000;0.1083;4.4761;
519.3000;0.1034;4.4639;
519.6000;0.1074;4.4785;
519.9000;0.1058;4.4737;
520.2000;0.1034;4.4639;
520.5000;0.1115;4.4858;
520.8000;0.1050;4.4737;
521.1000;0.1042;4.4737;
521.4000;0.1050;4.4737;
521.7000;0.1042;4.4737;
522.0000;0.1042;4.4688;
522.3000;0.1050;4.4688;
522.6000;0.1050;4.4688;
522.9000;0.1066;4.4712;
523.2000;0.1034;4.4712;
523.5000;0.1083;4.4785;
523.8000;0.1034;4.4664;
524.1000;0.1042;4.4518;
524.4000;0.1050;4.4615;
524.7000;0.1042;4.4639;
525.0000;0.1018;4.4591;
525.3000;0.1042;4.4639;
525.6000;0.1074;4.4785;
525.9000;0.1042;4.4761;
526.2000;0.1058;4.4761;
526.5000;0.1058;4.4761;
526.8000;0.1042;4.4688;
527.1000;0.1050;4.4712;
527.4000;0.0969;4.4493;
527.7000;0.1042;4.4639;
528.0000;0.1034;4.4615;
528.3000;0.1066;4.4712;
528.6000;0.1050;4.4664;
528.9000;0.1058;4.4737;
529.2000;0.1058;4.4737;
529.5000;0.1066;4.4858;
529.8000;0.1066;4.4810;
530.1000;0.1066;4.4858;
530.4000;0.1058;4.4761;
530.7000;0.1001;4.4591;
531.0000;0.1074;4.4761;
531.3000;0.1066;4.4688;
531.6000;0.1009;4.4688;
531.9000;0.1050;4.4737;
532.2000;0.1018;4.4664;
532.5000;0.1026;4.4664;
532.8000;0.1091;4.4810;
533.1000;0.1050;4.4688;
533.4000;0.1140;4.5004;
533.7000;0.0993;4.4542;
534.0000;0.1042;4.4664;
534.3000;0.1164;4.5029;
534.6000;0.1066;4.4688;
534.9000;0.1009;4.4445;
535.2000;0.0977;4.4518;
535.5000;0.1058;4.4810;
535.8000;0.1042;4.4785;
536.1000;0.1074;4.4883;
536.4000;0.1042;4.4834;
536.7000;0.0993;4.4712;
537.0000;0.1058;4.4883;
537.3000;0.1042;4.4834;
537.6000;0.1066;4.4761;
537.9000;0.0985;4.4445;
538.2000;0.1050;4.4615;
538.5000;0.1026;4.4591;
538.8000;0.1018;4.4664;
539.1000;0.1058;4.4834;
539.4000;0.1066;4.4810;
539.7000;0.1042;4.4810;
540.0000;0.1083;4.4834;
540.3000;0.1058;4.4737;
540.6000;0.1066;4.4883;
540.9000;0.0969;4.4688;
541.2000;0.1018;4.4858;
541.5000;0.1050;4.4931;
541.8000;0.1042;4.4883;
542.1000;0.0928;4.4445;
542.4000;0.1042;4.4810;
542.7000;0.1091;4.4956;
543.0000;0.1042;4.4712;
543.3000;0.1042;4.4785;
543.6000;0.1091;4.4834;
543.9000;0.1050;4.4712;
544.2000;0.1018;4.4591;
544.5000;0.1066;4.4688;
544.8000;0.1042;4.4712;
545.1000;0.1091;4.4785;
545.4000;0.1050;4.4664;
545.7000;0.1034;4.4639;
546.0000;0.1058;4.4615;
546.3000;0.0985;4.4469;
546.6000;0.1042;4.4664;
546.9000;0.1050;4.4664;
547.2000;0.1042;4.4639;
547.5000;0.1058;4.4664;
547.8000;0.1058;4.4664;
548.1000;0.1066;4.4664;
548.4000;0.1042;4.4542;
548.7000;0.1034;4.4591;
549.0000;0.1042;4.4591;
549.3000;0.1018;4.4372;
549.6000;0.1050;4.4493;
549.9000;0.1034;4.4518;
550.2000;0.0961;4.4347;
550.5000;0.1042;4.4518;
550.8000;0.1066;4.4493;
551.1000;0.1034;4.4347;
551.4000;0.1026;4.4323;
551.7000;0.1034;4.4396;
552.0000;0.1026;4.4396;
552.3000;0.1058;4.4542;
552.6000;0.1042;4.4542;
552.9000;0.1026;4.4469;
553.2000;0.1034;4.4542;
553.5000;0.1009;4.4469;
553.8000;0.1034;4.4420;
554.1000;0.1018;4.4445;
554.4000;0.1074;4.4591;
554.7000;0.1018;4.4372;
555.0000;0.1042;4.4445;
555.3000;0.1050;4.4372;
555.6000;0.1050;4.4347;
555.9000;0.1026;4.4372;
556.2000;0.0912;4.4055;
556.5000;0.1042;4.4420;
556.8000;0.1091;4.4688;
557.1000;0.1058;4.4566;
557.4000;0.1018;4.4347;
557.7000;0.1221;4.4956;
558.0000;0.1074;4.4566;
558.3000;0.1050;4.4615;
558.6000;0.1042;4.4469;
558.9000;0.1042;4.4420;
559.2000;0.0952;4.4177;
559.5000;0.1050;4.4493;
559.8000;0.1050;4.4518;
560.1000;0.1042;4.4445;
560.4000;0.1042;4.4372;
560.7000;0.1074;4.4396;
561.0000;0.1001;4.4323;
561.3000;0.1050;4.4396;
561.6000;0.1042;4.4420;
561.9000;0.1058;4.4493;
562.2000;0.0985;4.4226;
562.5000;0.1009;4.4347;
562.8000;0.1018;4.4347;
563.1000;0.1074;4.4566;
563.4000;0.1042;4.4445;
563.7000;0.1034;4.4469;
564.0000;0.1034;4.4469;
564.3000;0.1026;4.4420;
564.6000;0.1058;4.4445;
564.9000;0.1066;4.4469;
565.2000;0.1188;4.4834;
565.5000;0.1009;4.4323;
565.8000;0.1083;4.4542;
566.1000;0.1050;4.4469;
566.4000;0.1018;4.4299;
566.7000;0.1009;4.4274;
567.0000;0.1034;4.4274;
567.3000;0.1058;4.4323;
567.6000;0.1042;4.4347;
567.9000;0.1034;4.4274;
568.2000;0.1034;4.4347;
568.5000;0.1050;4.4323;
568.8000;0.1050;4.4274;
569.1000;0.1018;4.4201;
569.4000;0.1058;4.4372;
569.7000;0.1042;4.4201;
570.0000;0.1050;4.4250;
570.3000;0.1058;4.4274;
570.6000;0.1042;4.4372;
570.9000;0.1058;4.4420;
571.2000;0.1091;4.4615;
571.5000;0.1131;4.4761;
571.8000;0.1042;4.4639;
572.1000;0.1058;4.4664;
572.4000;0.1066;4.4737;
572.7000;0.1034;4.4688;
573.0000;0.0977;4.4542;
573.3000;0.1042;4.4615;
573.6000;0.1050;4.4615;
573.9000;0.1050;4.4542;
574.2000;0.0895;4.4153;
574.5000;0.0993;4.4469;
574.8000;0.1042;4.4712;
575.1000;0.1034;4.4712;
575.4000;0.1034;4.4591;
575.7000;0.1042;4.4542;
576.0000;0.1042;4.4542;
576.3000;0.1034;4.4518;
576.6000;0.1018;4.4518;
576.9000;0.1026;4.4469;
577.2000;0.1026;4.4493;
577.5000;0.1026;4.4518;
577.8000;0.1034;4.4566;
578.1000;0.1050;4.4639;
578.4000;0.1050;4.4664;
578.7000;0.1050;4.4639;
579.0000;0.1042;4.4664;
579.3000;0.1034;4.4615;
579.6000;0.1026;4.4615;
579.9000;0.1050;4.4688;
580.2000;0.1221;4.5150;
580.5000;0.1018;4.4591;
580.8000;0.1050;4.4664;
581.1000;0.1034;4.4712;
581.4000;0.1066;4.4785;
581.7000;0.1042;4.4688;
582.0000;0.1042;4.4688;
582.3000;0.1074;4.4737;
582.6000;0.1026;4.4591;
582.9000;0.1026;4.4542;
583.2000;0.1034;4.4615;
583.5000;0.1050;4.4712;
583.8000;0.1034;4.4639;
584.1000;0.1026;4.4615;
584.4000;0.1026;4.4591;
584.7000;0.1042;4.4712;
585.0000;0.1058;4.4761;
585.3000;0.1050;4.4761;
585.6000;0.1034;4.4664;
585.9000;0.1042;4.4712;
586.2000;0.1026;4.4785;
586.5000;0.1058;4.4931;
586.8000;0.1018;4.4712;
587.1000;0.1042;4.4664;
587.4000;0.1074;4.4712;
587.7000;0.1009;4.4542;
588.0000;0.1042;4.4688;
588.3000;0.1042;4.4615;
588.6000;0.1050;4.4688;
588.9000;0.1058;4.4712;
589.2000;0.1050;4.4688;
589.5000;0.1083;4.4858;
589.8000;0.0993;4.4664;
590.1000;0.1009;4.4664;
590.4000;0.1034;4.4810;
590.7000;0.1050;4.4834;
591.0000;0.1009;4.4737;
591.3000;0.1042;4.4858;
591.6000;0.1066;4.4834;
591.9000;0.1042;4.4834;
592.2000;0.1074;4.4834;
592.5000;0.1034;4.4688;
592.8000;0.1034;4.4664;
593.1000;0.1083;4.4810;
593.4000;0.1034;4.4737;
593.7000;0.1074;4.4810;
594.0000;0.1058;4.4785;
594.3000;0.1066;4.4834;
594.6000;0.1034;4.4761;
594.9000;0.1042;4.4810;
595.2000;0.1066;4.4883;
595.5000;0.1083;4.4931;
595.8000;0.1026;4.4737;
596.1000;0.1034;4.4785;
596.4000;0.1066;4.4761;
596.7000;0.1050;4.4688;
597.0000;0.1034;4.4615;
597.3000;0.1107;4.4858;
597.6000;0.1050;4.4664;
597.9000;0.1050;4.4639;
598.2000;0.1123;4.4980;
598.5000;0.1042;4.4761;
598.8000;0.1026;4.4688;
599.1000;0.0969;4.4615;
599.4000;0.1058;4.4883;
599.7000;0.1091;4.5029;
600.0000;0.1034;4.4858;
600.3000;0.1140;4.5102;
600.6000;0.1058;4.4907;
600.9000;0.1042;4.4664;
601.2000;0.1058;4.4639;
601.5000;0.1026;4.4469;
601.8000;0.0928;4.4104;
602.1000;0.1009;4.4274;
602.4000;0.1009;4.4274;
602.7000;0.1034;4.4299;
603.0000;0.1050;4.4420;
603.3000;0.1009;4.4153;
603.6000;0.0993;4.4055;
603.9000;0.1042;4.4128;
604.2000;0.0944;4.3860;
604.5000;0.0993;4.3933;
604.8000;0.0961;4.3787;
605.1000;0.0977;4.3860;
605.4000;0.0969;4.3714;
605.7000;0.0928;4.3617;
606.0000;0.0887;4.3471;
606.3000;0.0961;4.3568;
606.6000;0.0961;4.3617;
606.9000;0.0920;4.3471;
607.2000;0.0969;4.3568;
607.5000;0.0969;4.3690;
607.8000;0.0961;4.3690;
608.1000;0.0936;4.3593;
608.4000;0.0961;4.3641;
608.7000;0.0928;4.3617;
609.0000;0.0952;4.3690;
609.3000;0.0961;4.3714;
609.6000;0.0952;4.3666;
609.9000;0.0944;4.3593;
610.2000;0.0944;4.3544;
610.5000;0.0895;4.3374;
610.8000;0.0920;4.3422;
611.1000;0.0887;4.3349;
611.4000;0.0928;4.3422;
611.7000;0.0912;4.3447;
612.0000;0.0944;4.3471;
612.3000;0.0952;4.3447;
612.6000;0.0944;4.3374;
612.9000;0.0895;4.3203;
613.2000;0.0944;4.3325;
613.5000;0.0936;4.3301;
613.8000;0.0912;4.3228;
614.1000;0.0944;4.3325;
614.4000;0.0920;4.3276;
614.7000;0.0928;4.3276;
615.0000;0.0912;4.3276;
615.3000;0.0912;4.3349;
615.6000;0.0928;4.3349;
615.9000;0.0904;4.3325;
616.2000;0.0912;4.3374;
616.5000;0.0928;4.3374;
616.8000;0.0912;4.3349;
617.1000;0.0952;4.3374;
617.4000;0.0904;4.3228;
617.7000;0.0920;4.3276;
618.0000;0.0920;4.3252;
618.3000;0.0871;4.3130;
618.6000;0.0887;4.3228;
618.9000;0.0920;4.3349;
619.2000;0.0895;4.3276;
619.5000;0.0912;4.3325;
619.8000;0.0887;4.3155;
620.1000;0.0920;4.3203;
620.4000;0.0944;4.3301;
620.7000;0.0838;4.2936;
621.0000;0.0879;4.3106;
621.3000;0.0895;4.3203;
621.6000;0.0887;4.3228;
621.9000;0.0912;4.3276;
622.2000;0.0830;4.2984;
622.5000;0.0806;4.2936;
622.8000;0.0904;4.3252;
623.1000;0.0912;4.3276;
623.4000;0.0944;4.3471;
623.7000;0.0741;4.2814;
624.0000;0.0944;4.3422;
624.3000;0.0822;4.3033;
624.6000;0.0887;4.3203;
624.9000;0.0879;4.3155;
625.2000;0.0920;4.3301;
625.5000;0.0895;4.3252;
625.8000;0.0887;4.3203;
626.1000;0.0904;4.3276;
626.4000;0.0920;4.3349;
626.7000;0.0879;4.3130;
627.0000;0.0879;4.3082;
627.3000;0.0871;4.3057;
627.6000;0.0887;4.3179;
627.9000;0.0830;4.2887;
628.2000;0.0847;4.2960;
628.5000;0.0863;4.3082;
628.8000;0.0904;4.3155;
629.1000;0.0879;4.3057;
629.4000;0.0830;4.2936;
629.7000;0.0887;4.3106;
630.0000;0.0887;4.3106;
630.3000;0.0879;4.3057;
630.6000;0.0879;4.3106;
630.9000;0.0887;4.3130;
631.2000;0.0879;4.3130;
631.5000;0.0879;4.3179;
631.8000;0.0936;4.3398;
632.1000;0.0879;4.3276;
632.4000;0.0977;4.3520;
632.7000;0.0879;4.3228;
633.0000;0.0887;4.3276;
633.3000;0.0904;4.3252;
633.6000;0.0879;4.3179;
633.9000;0.0895;4.3130;
634.2000;0.0895;4.3155;
634.5000;0.0887;4.3155;
634.8000;0.0904;4.3228;
635.1000;0.0871;4.3228;
635.4000;0.0871;4.3276;
635.7000;0.0879;4.3301;
636.0000;0.0912;4.3398;
636.3000;0.0871;4.3155;
636.6000;0.0879;4.3106;
636.9000;0.0879;4.3155;
637.2000;0.0879;4.3203;
637.5000;0.0920;4.3228;
637.8000;0.0871;4.3106;
638.1000;0.0895;4.3130;
638.4000;0.0863;4.3082;
638.7000;0.0863;4.3082;
639.0000;0.0887;4.3106;
639.3000;0.0847;4.2936;
639.6000;0.0904;4.3130;
639.9000;0.0904;4.3130;
640.2000;0.0838;4.2911;
640.5000;0.0904;4.3130;
640.8000;0.0879;4.3130;
641.1000;0.0863;4.3106;
641.4000;0.0871;4.3106;
641.7000;0.0871;4.3106;
642.0000;0.0920;4.3203;
642.3000;0.0887;4.3203;
642.6000;0.0887;4.3179;
642.9000;0.0879;4.3203;
643.2000;0.0879;4.3228;
643.5000;0.0961;4.3422;
643.8000;0.0863;4.3130;
644.1000;0.0863;4.3155;
644.4000;0.0928;4.3276;
644.7000;0.0895;4.3155;
645.0000;0.0871;4.3228;
645.3000;0.0879;4.3276;
645.6000;0.0887;4.3276;
645.9000;0.0871;4.3349;
646.2000;0.0879;4.3349;
646.5000;0.0887;4.3301;
646.8000;0.0838;4.3155;
647.1000;0.0887;4.3155;
647.4000;0.0871;4.3082;
647.7000;0.0912;4.3155;
648.0000;0.0847;4.2984;
648.3000;0.0887;4.3130;
648.6000;0.0952;4.3203;
648.9000;0.0871;4.3057;
649.2000;0.0887;4.3106;
649.5000;0.0895;4.3130;
649.8000;0.0944;4.3374;
650.1000;0.0871;4.3057;
650.4000;0.0879;4.3082;
650.7000;0.0912;4.3203;
651.0000;0.0871;4.3082;
651.3000;0.0920;4.3252;
651.6000;0.0879;4.3155;
651.9000;0.0855;4.3228;
652.2000;0.0879;4.3203;
652.5000;0.0871;4.3155;
652.8000;0.0920;4.3325;
653.1000;0.0871;4.3228;
653.4000;0.0952;4.3471;
653.7000;0.0847;4.3228;
654.0000;0.0871;4.3276;
654.3000;0.0920;4.3374;
654.6000;0.0855;4.3228;
654.9000;0.0871;4.3228;
655.2000;0.0773;4.3009;
655.5000;0.0838;4.3252;
655.8000;0.0887;4.3349;
656.1000;0.0879;4.3349;
656.4000;0.0847;4.3179;
656.7000;0.0847;4.3130;
657.0000;0.0733;4.2960;
657.3000;0.0887;4.3301;
657.6000;0.0847;4.3155;
657.9000;0.0855;4.3179;
658.2000;0.0887;4.3325;
658.5000;0.0871;4.3349;
658.8000;0.0863;4.3349;
659.1000;0.0936;4.3544;
659.4000;0.0863;4.3276;
659.7000;0.0855;4.3276;
660.0000;0.0863;4.3276;
660.3000;0.0855;4.3228;
660.6000;0.0838;4.3203;
660.9000;0.0887;4.3252;
661.2000;0.0904;4.3325;
661.5000;0.0871;4.3276;
661.8000;0.0855;4.3203;
662.1000;0.0847;4.3155;
662.4000;0.0904;4.3325;
662.7000;0.0871;4.3276;
663.0000;0.0871;4.3203;
663.3000;0.0863;4.3179;
663.6000;0.0936;4.3447;
663.9000;0.0895;4.3228;
664.2000;0.0838;4.3082;
664.5000;0.0863;4.3203;
664.8000;0.0871;4.3301;
665.1000;0.0904;4.3447;
665.4000;0.0871;4.3276;
665.7000;0.0887;4.3349;
666.0000;0.0863;4.3422;
666.3000;0.0822;4.3276;
666.6000;0.0855;4.3349;
666.9000;0.0855;4.3301;
667.2000;0.0790;4.3155;
667.5000;0.0863;4.3422;
667.8000;0.0838;4.3325;
668.1000;0.0798;4.3203;
668.4000;0.0871;4.3398;
668.7000;0.0863;4.3301;
669.0000;0.0879;4.3325;
669.3000;0.0847;4.3228;
669.6000;0.0847;4.3301;
669.9000;0.0871;4.3422;
670.2000;0.0847;4.3398;
670.5000;0.0838;4.3398;
670.8000;0.0871;4.3568;
671.1000;0.0838;4.3471;
671.4000;0.0879;4.3568;
671.7000;0.0904;4.3641;
672.0000;0.0879;4.3520;
672.3000;0.0838;4.3471;
672.6000;0.0895;4.3593;
672.9000;0.0830;4.3398;
673.2000;0.0855;4.3471;
673.5000;0.0855;4.3471;
673.8000;0.0855;4.3398;
674.1000;0.0904;4.3422;
674.4000;0.0871;4.3398;
674.7000;0.0814;4.3276;
675.0000;0.0879;4.3398;
675.3000;0.0863;4.3349;
675.6000;0.0855;4.3349;
675.9000;0.0830;4.3276;
676.2000;0.0830;4.3179;
676.5000;0.0838;4.3228;
676.8000;0.0871;4.3325;
677.1000;0.0961;4.3617;
677.4000;0.0855;4.3276;
677.7000;0.0879;4.3422;
678.0000;0.0879;4.3374;
678.3000;0.0838;4.3325;
678.6000;0.0863;4.3422;
678.9000;0.0887;4.3447;
679.2000;0.0871;4.3422;
679.5000;0.0871;4.3398;
679.8000;0.0855;4.3325;
680.1000;0.0847;4.3228;
680.4000;0.0830;4.3130;
680.7000;0.0847;4.3155;
681.0000;0.0822;4.3155;
681.3000;0.0847;4.3130;
681.6000;0.0806;4.3082;
681.9000;0.0863;4.3374;
682.2000;0.0871;4.3301;
682.5000;0.0920;4.3422;
682.8000;0.0863;4.3325;
683.1000;0.0838;4.3252;
683.4000;0.0830;4.3228;
683.7000;0.0830;4.3252;
684.0000;0.0863;4.3349;
684.3000;0.0855;4.3349;
684.6000;0.0879;4.3349;
684.9000;0.0855;4.3301;
685.2000;0.0887;4.3325;
685.5000;0.0790;4.2984;
685.8000;0.0847;4.3106;
686.1000;0.0814;4.3033;
686.4000;0.0855;4.3252;
686.7000;0.0847;4.3301;
687.0000;0.0863;4.3228;
687.3000;0.0895;4.3276;
687.6000;0.0863;4.3228;
687.9000;0.0871;4.3301;
688.2000;0.0847;4.3276;
688.5000;0.0855;4.3203;
688.8000;0.0879;4.3325;
689.1000;0.0871;4.3349;
689.4000;0.0944;4.3568;
689.7000;0.0895;4.3471;
690.0000;0.0855;4.3422;
690.3000;0.0912;4.3617;
690.6000;0.0855;4.3520;
690.9000;0.0838;4.3495;
691.2000;0.0977;4.3812;
691.5000;0.0871;4.3495;
691.8000;0.0806;4.3374;
692.1000;0.0830;4.3398;
692.4000;0.0806;4.3276;
692.7000;0.0887;4.3520;
693.0000;0.0871;4.3495;
693.3000;0.0863;4.3495;
693.6000;0.0847;4.3520;
693.9000;0.0838;4.3398;
694.2000;0.0871;4.3398;
694.5000;0.0838;4.3301;
694.8000;0.0855;4.3325;
695.1000;0.0863;4.3301;
695.4000;0.0879;4.3301;
695.7000;0.0855;4.3276;
696.0000;0.0855;4.3325;
696.3000;0.0847;4.3301;
696.6000;0.0936;4.3544;
696.9000;0.0952;4.3641;
697.2000;0.0855;4.3471;
697.5000;0.0822;4.3374;
697.8000;0.0724;4.3106;
698.1000;0.0855;4.3495;
698.4000;0.0847;4.3398;
698.7000;0.0879;4.3374;
699.0000;0.0863;4.3374;
699.3000;0.0871;4.3398;
699.6000;0.0871;4.3374;
699.9000;0.0855;4.3349;
700.2000;0.0830;4.3203;
700.5000;0.0863;4.3276;
700.8000;0.0855;4.3276;
701.1000;0.0855;4.3252;
701.4000;0.0863;4.3228;
701.7000;0.0855;4.3228;
702.0000;0.0863;4.3252;
702.3000;0.0879;4.3374;
702.6000;0.0855;4.3325;
702.9000;0.0847;4.3276;
703.2000;0.0855;4.3374;
703.5000;0.0855;4.3422;
703.8000;0.0887;4.3471;
704.1000;0.0912;4.3495;
704.4000;0.0871;4.3349;
704.7000;0.0847;4.3252;
705.0000;0.0936;4.3520;
705.3000;0.0879;4.3301;
705.6000;0.0847;4.3252;
705.9000;0.0855;4.3228;
706.2000;0.0838;4.3228;
706.5000;0.0904;4.3349;
706.8000;0.0863;4.3325;
707.1000;0.0887;4.3374;
707.4000;0.0863;4.3349;
707.7000;0.0944;4.3641;
708.0000;0.0863;4.3422;
708.3000;0.0863;4.3325;
708.6000;0.0863;4.3374;
708.9000;0.0863;4.3447;
709.2000;0.0855;4.3471;
709.5000;0.0879;4.3568;
709.8000;0.0863;4.3447;
710.1000;0.0863;4.3398;
710.4000;0.0887;4.3398;
710.7000;0.0855;4.3349;
711.0000;0.0855;4.3179;
711.3000;0.0838;4.3082;
711.6000;0.0838;4.3203;
711.9000;0.0855;4.3179;
712.2000;0.0904;4.3374;
712.5000;0.0855;4.3374;
712.8000;0.0863;4.3276;
713.1000;0.0863;4.3276;
713.4000;0.0863;4.3252;
713.7000;0.0871;4.3349;
714.0000;0.0871;4.3301;
714.3000;0.0863;4.3301;
714.6000;0.0847;4.3228;
714.9000;0.0920;4.3495;
715.2000;0.0847;4.3276;
715.5000;0.0863;4.3349;
715.8000;0.0798;4.3276;
716.1000;0.0855;4.3447;
716.4000;0.0936;4.3690;
716.7000;0.0838;4.3374;
717.0000;0.0879;4.3471;
717.3000;0.0847;4.3398;
717.6000;0.0855;4.3471;
717.9000;0.0847;4.3495;
718.2000;0.0863;4.3544;
718.5000;0.0830;4.3398;
718.8000;0.0773;4.3203;
719.1000;0.0822;4.3252;
719.4000;0.0847;4.3252;
719.7000;0.0855;4.3325;
720.0000;0.0887;4.3349;
720.3000;0.0838;4.3179;
720.6000;0.0838;4.3155;
720.9000;0.0838;4.3155;
721.2000;0.0838;4.3155;
721.5000;0.0814;4.3155;
721.8000;0.0936;4.3447;
722.1000;0.0847;4.3349;
722.4000;0.0838;4.3398;
722.7000;0.0822;4.3349;
723.0000;0.0838;4.3349;
723.3000;0.0838;4.3228;
723.6000;0.0855;4.3179;
723.9000;0.0855;4.3130;
724.2000;0.0879;4.3179;
724.5000;0.0871;4.3179;
724.8000;0.0871;4.3179;
725.1000;0.0847;4.3155;
725.4000;0.0855;4.3106;
725.7000;0.0863;4.3179;
726.0000;0.0814;4.3082;
726.3000;0.0863;4.3228;
726.6000;0.0855;4.3203;
726.9000;0.0855;4.3252;
727.2000;0.0855;4.3252;
727.5000;0.0863;4.3252;
727.8000;0.0855;4.3228;
728.1000;0.0863;4.3325;
728.4000;0.0871;4.3349;
728.7000;0.0912;4.3471;
729.0000;0.0863;4.3252;
729.3000;0.0822;4.3203;
729.6000;0.0830;4.3276;
729.9000;0.0863;4.3447;
730.2000;0.0904;4.3544;
730.5000;0.0855;4.3349;
730.8000;0.0863;4.3398;
731.1000;0.0814;4.3276;
731.4000;0.0830;4.3398;
731.7000;0.0871;4.3422;
732.0000;0.0822;4.3228;
732.3000;0.0773;4.3130;
732.6000;0.0936;4.3568;
732.9000;0.0838;4.3374;
733.2000;0.0863;4.3447;
733.5000;0.0871;4.3471;
733.8000;0.0863;4.3349;
734.1000;0.0822;4.3252;
734.4000;0.0838;4.3228;
734.7000;0.0863;4.3252;
735.0000;0.0895;4.3325;
735.3000;0.0838;4.3155;
735.6000;0.0838;4.3057;
735.9000;0.0822;4.2960;
736.2000;0.0838;4.2984;
736.5000;0.0944;4.3252;
736.8000;0.0855;4.3033;
737.1000;0.0855;4.3130;
737.4000;0.0855;4.3106;
737.7000;0.0863;4.3252;
738.0000;0.0830;4.3179;
738.3000;0.0944;4.3568;
738.6000;0.0879;4.3520;
738.9000;0.0855;4.3422;
739.2000;0.0912;4.3568;
739.5000;0.0912;4.3641;
739.8000;0.0904;4.3714;
740.1000;0.0863;4.3495;
740.4000;0.0847;4.3568;
740.7000;0.0822;4.3447;
741.0000;0.0814;4.3422;
741.3000;0.0838;4.3398;
741.6000;0.0838;4.3349;
741.9000;0.0830;4.3325;
742.2000;0.0847;4.3374;
742.5000;0.0855;4.3301;
742.8000;0.0822;4.3252;
743.1000;0.0822;4.3301;
743.4000;0.0855;4.3447;
743.7000;0.0830;4.3422;
744.0000;0.0855;4.3447;
744.3000;0.0838;4.3349;
744.6000;0.0830;4.3301;
744.9000;0.0838;4.3228;
745.2000;0.0855;4.3301;
745.5000;0.0847;4.3301;
745.8000;0.0830;4.3228;
746.1000;0.0855;4.3252;
746.4000;0.0863;4.3349;
746.7000;0.0855;4.3252;
747.0000;0.0798;4.3033;
747.3000;0.0863;4.3203;
747.6000;0.0855;4.3252;
747.9000;0.0838;4.3252;
748.2000;0.0838;4.3155;
748.5000;0.0830;4.3203;
748.8000;0.0855;4.3349;
749.1000;0.0838;4.3325;
749.4000;0.0863;4.3374;
749.7000;0.0830;4.3325;
750.0000;0.0887;4.3471;
750.3000;0.0781;4.3106;
750.6000;0.0855;4.3374;
750.9000;0.0830;4.3422;
751.2000;0.0847;4.3374;
751.5000;0.0806;4.3301;
751.8000;0.0822;4.3301;
752.1000;0.0847;4.3349;
752.4000;0.0847;4.3349;
752.7000;0.0847;4.3398;
753.0000;0.0847;4.3495;
753.3000;0.0822;4.3447;
753.6000;0.0863;4.3544;
753.9000;0.0863;4.3520;
754.2000;0.1034;4.4031;
754.5000;0.0838;4.3617;
754.8000;0.0838;4.3617;
755.1000;0.0904;4.3787;
755.4000;0.0838;4.3617;
755.7000;0.0895;4.3690;
756.0000;0.0879;4.3593;
756.3000;0.0855;4.3422;
756.6000;0.0838;4.3374;
756.9000;0.0830;4.3374;
757.2000;0.0822;4.3301;
757.5000;0.0847;4.3349;
757.8000;0.0847;4.3325;
758.1000;0.0863;4.3325;
758.4000;0.0855;4.3252;
758.7000;0.0879;4.3374;
759.0000;0.0855;4.3398;
759.3000;0.0838;4.3349;
759.6000;0.0855;4.3349;
759.9000;0.0822;4.3203;
760.2000;0.0855;4.3228;
760.5000;0.0904;4.3447;
760.8000;0.0830;4.3301;
761.1000;0.0822;4.3301;
761.4000;0.0863;4.3422;
761.7000;0.0822;4.3349;
762.0000;0.0838;4.3301;
762.3000;0.0871;4.3374;
762.6000;0.0871;4.3398;
762.9000;0.0724;4.2984;
763.2000;0.0830;4.3374;
763.5000;0.0847;4.3495;
763.8000;0.0830;4.3471;
764.1000;0.0822;4.3471;
764.4000;0.0863;4.3617;
764.7000;0.0847;4.3544;
765.0000;0.0838;4.3447;
765.3000;0.0830;4.3471;
765.6000;0.0847;4.3495;
765.9000;0.0830;4.3447;
766.2000;0.0847;4.3471;
766.5000;0.0822;4.3301;
766.8000;0.0855;4.3374;
767.1000;0.0855;4.3398;
767.4000;0.0855;4.3398;
767.7000;0.0863;4.3422;
768.0000;0.0847;4.3325;
768.3000;0.0847;4.3325;
768.6000;0.0855;4.3325;
768.9000;0.0855;4.3252;
769.2000;0.0806;4.3155;
769.5000;0.0838;4.3276;
769.8000;0.0855;4.3301;
770.1000;0.0920;4.3544;
770.4000;0.0863;4.3349;
770.7000;0.0830;4.3228;
771.0000;0.0830;4.3252;
771.3000;0.0855;4.3301;
771.6000;0.0855;4.3349;
771.9000;0.0847;4.3422;
772.2000;0.0830;4.3398;
772.5000;0.0847;4.3422;
772.8000;0.0895;4.3568;
773.1000;0.0855;4.3422;
773.4000;0.0863;4.3447;
773.7000;0.0830;4.3374;
774.0000;0.0855;4.3398;
774.3000;0.0830;4.3325;
774.6000;0.0806;4.3252;
774.9000;0.0838;4.3422;
775.2000;0.0790;4.3301;
775.5000;0.0806;4.3349;
775.8000;0.0838;4.3447;
776.1000;0.0838;4.3422;
776.4000;0.0838;4.3398;
776.7000;0.0952;4.3714;
777.0000;0.0814;4.3301;
777.3000;0.0798;4.3252;
777.6000;0.0838;4.3398;
777.9000;0.0863;4.3398;
778.2000;0.0944;4.3714;
778.5000;0.0773;4.3228;
778.8000;0.0838;4.3349;
779.1000;0.0863;4.3349;
779.4000;0.0863;4.3301;
779.7000;0.0847;4.3228;
780.0000;0.0822;4.3179;
780.3000;0.0806;4.3082;
780.6000;0.0855;4.3155;
780.9000;0.0871;4.3155;
781.2000;0.0806;4.3009;
781.5000;0.0879;4.3082;
781.8000;0.0847;4.3009;
782.1000;0.0790;4.2911;
782.4000;0.0863;4.3130;
782.7000;0.0871;4.3252;
783.0000;0.0879;4.3398;
783.3000;0.0700;4.3009;
783.6000;0.0863;4.3422;
783.9000;0.0855;4.3471;
784.2000;0.0830;4.3447;
784.5000;0.0822;4.3349;
784.8000;0.0830;4.3349;
785.1000;0.0806;4.3106;
785.4000;0.0855;4.3082;
785.7000;0.0814;4.3033;
786.0000;0.0830;4.3130;
786.3000;0.0822;4.3033;
786.6000;0.0847;4.3106;
786.9000;0.0838;4.3130;
787.2000;0.0830;4.3082;
787.5000;0.0830;4.3155;
787.8000;0.0773;4.3009;
788.1000;0.0838;4.3276;
788.4000;0.0863;4.3252;
788.7000;0.0830;4.3130;
789.0000;0.0920;4.3471;
789.3000;0.0830;4.3301;
789.6000;0.0822;4.3325;
789.9000;0.0855;4.3495;
790.2000;0.0838;4.3422;
790.5000;0.0855;4.3447;
790.8000;0.0806;4.3374;
791.1000;0.0822;4.3374;
791.4000;0.0847;4.3398;
791.7000;0.0855;4.3422;
792.0000;0.0863;4.3422;
792.3000;0.0806;4.3325;
792.6000;0.0863;4.3471;
792.9000;0.0830;4.3422;
793.2000;0.0879;4.3520;
793.5000;0.0863;4.3471;
793.8000;0.0847;4.3422;
794.1000;0.0830;4.3422;
794.4000;0.0847;4.3398;
794.7000;0.0838;4.3398;
795.0000;0.0855;4.3471;
795.3000;0.0830;4.3447;
795.6000;0.0855;4.3495;
795.9000;0.0838;4.3325;
796.2000;0.0830;4.3276;
796.5000;0.0830;4.3276;
796.8000;0.0871;4.3447;
797.1000;0.0863;4.3447;
797.4000;0.0830;4.3447;
797.7000;0.0838;4.3447;
798.0000;0.0790;4.3374;
798.3000;0.0830;4.3422;
798.6000;0.0879;4.3544;
798.9000;0.0838;4.3398;
799.2000;0.0765;4.3325;
799.5000;0.0863;4.3495;
799.8000;0.0863;4.3495;
800.1000;0.0814;4.3374;
800.4000;0.0855;4.3374;
800.7000;0.0887;4.3422;
801.0000;0.0733;4.2984;
801.3000;0.0847;4.3301;
801.6000;0.0724;4.2984;
801.9000;0.0781;4.3252;
802.2000;0.0830;4.3325;
802.5000;0.0847;4.3374;
802.8000;0.0847;4.3301;
803.1000;0.0871;4.3349;
803.4000;0.0855;4.3301;
803.7000;0.0847;4.3179;
804.0000;0.0855;4.3301;
804.3000;0.0969;4.3568;
804.6000;0.0855;4.3349;
804.9000;0.0830;4.3301;
805.2000;0.0871;4.3374;
805.5000;0.0838;4.3301;
805.8000;0.0855;4.3276;
806.1000;0.0855;4.3301;
806.4000;0.0847;4.3203;
806.7000;0.0847;4.3106;
807.0000;0.0855;4.3106;
807.3000;0.0830;4.3009;
807.6000;0.0855;4.3130;
807.9000;0.0781;4.3009;
808.2000;0.0871;4.3252;
808.5000;0.0798;4.3033;
808.8000;0.0863;4.3228;
809.1000;0.0830;4.3082;
809.4000;0.0847;4.3106;
809.7000;0.0822;4.3082;
810.0000;0.0838;4.3130;
810.3000;0.0814;4.3082;
810.6000;0.0855;4.3203;
810.9000;0.0838;4.3179;
811.2000;0.0822;4.3179;
811.5000;0.0847;4.3276;
811.8000;0.0838;4.3349;
812.1000;0.0847;4.3422;
812.4000;0.0814;4.3301;
812.7000;0.0847;4.3325;
813.0000;0.0781;4.3033;
813.3000;0.0847;4.3203;
813.6000;0.0847;4.3228;
813.9000;0.0855;4.3301;
814.2000;0.0847;4.3301;
814.5000;0.0838;4.3228;
814.8000;0.0798;4.3155;
815.1000;0.0871;4.3398;
815.4000;0.0855;4.3422;
815.7000;0.0847;4.3422;
816.0000;0.0806;4.3252;
816.3000;0.0847;4.3325;
816.6000;0.0830;4.3228;
816.9000;0.0887;4.3252;
817.2000;0.0814;4.3106;
817.5000;0.0855;4.3203;
817.8000;0.0838;4.3276;
818.1000;0.0847;4.3447;
818.4000;0.0871;4.3495;
818.7000;0.0855;4.3447;
819.0000;0.0781;4.3203;
819.3000;0.0895;4.3422;
819.6000;0.0863;4.3349;
819.9000;0.0863;4.3349;
820.2000;0.0838;4.3301;
820.5000;0.0855;4.3398;
820.8000;0.0855;4.3398;
821.1000;0.0879;4.3422;
821.4000;0.0847;4.3325;
821.7000;0.0838;4.3374;
822.0000;0.0765;4.3130;
822.3000;0.0887;4.3495;
822.6000;0.0847;4.3276;
822.9000;0.0855;4.3252;
823.2000;0.0814;4.3179;
823.5000;0.0822;4.3228;
823.8000;0.0838;4.3374;
824.1000;0.0871;4.3471;
824.4000;0.0838;4.3422;
824.7000;0.0814;4.3349;
825.0000;0.0863;4.3568;
825.3000;0.0830;4.3447;
825.6000;0.0879;4.3544;
825.9000;0.0830;4.3276;
826.2000;0.0822;4.3301;
826.5000;0.0830;4.3422;
826.8000;0.0847;4.3422;
827.1000;0.0855;4.3398;
827.4000;0.0838;4.3422;
827.7000;0.0830;4.3374;
828.0000;0.0855;4.3398;
828.3000;0.0822;4.3398;
828.6000;0.0879;4.3520;
828.9000;0.0814;4.3276;
829.2000;0.0830;4.3374;
829.5000;0.0814;4.3228;
829.8000;0.0830;4.3349;
830.1000;0.0887;4.3495;
830.4000;0.0969;4.3690;
830.7000;0.0822;4.3301;
831.0000;0.0822;4.3325;
831.3000;0.0798;4.3203;
831.6000;0.0847;4.3398;
831.9000;0.0847;4.3447;
832.2000;0.0863;4.3617;
832.5000;0.0830;4.3471;
832.8000;0.0928;4.3739;
833.1000;0.0822;4.3568;
833.4000;0.0822;4.3544;
833.7000;0.0814;4.3398;
834.0000;0.0879;4.3495;
834.3000;0.0830;4.3349;
834.6000;0.0855;4.3520;
834.9000;0.0838;4.3495;
835.2000;0.0863;4.3593;
835.5000;0.0855;4.3520;
835.8000;0.0912;4.3666;
836.1000;0.0855;4.3495;
836.4000;0.0838;4.3398;
836.7000;0.0847;4.3398;
837.0000;0.0814;4.3252;
837.3000;0.0855;4.3301;
837.6000;0.0855;4.3325;
837.9000;0.0847;4.3422;
838.2000;0.0847;4.3447;
838.5000;0.0830;4.3447;
838.8000;0.0871;4.3495;
839.1000;0.0822;4.3447;
839.4000;0.0855;4.3471;
839.7000;0.0838;4.3471;
840.0000;0.0847;4.3495;
840.3000;0.0847;4.3495;
840.6000;0.0838;4.3398;
840.9000;0.0855;4.3398;
841.2000;0.0863;4.3398;
841.5000;0.0855;4.3422;
841.8000;0.0863;4.3471;
842.1000;0.0871;4.3568;
842.4000;0.0814;4.3422;
842.7000;0.0798;4.3325;
843.0000;0.0895;4.3544;
843.3000;0.0757;4.3179;
843.6000;0.0798;4.3349;
843.9000;0.0838;4.3471;
844.2000;0.0830;4.3520;
844.5000;0.0830;4.3398;
844.8000;0.0855;4.3422;
845.1000;0.0822;4.3374;
845.4000;0.0838;4.3495;
845.7000;0.0830;4.3495;
846.0000;0.0838;4.3495;
846.3000;0.0790;4.3325;
846.6000;0.0895;4.3641;
846.9000;0.0838;4.3374;
847.2000;0.0798;4.3276;
847.5000;0.0847;4.3325;
847.8000;0.0879;4.3447;
848.1000;0.0855;4.3471;
848.4000;0.0765;4.3155;
848.7000;0.0847;4.3349;
849.0000;0.0830;4.3252;
849.3000;0.0830;4.3301;
849.6000;0.0847;4.3276;
849.9000;0.0830;4.3276;
850.2000;0.0847;4.3349;
850.5000;0.0847;4.3301;
850.8000;0.0847;4.3325;
851.1000;0.0895;4.3568;
851.4000;0.0855;4.3520;
851.7000;0.0855;4.3520;
852.0000;0.1042;4.4055;
852.3000;0.0838;4.3471;
852.6000;0.0855;4.3398;
852.9000;0.0830;4.3325;
853.2000;0.0830;4.3301;
853.5000;0.0912;4.3641;
853.8000;0.0855;4.3398;
854.1000;0.0855;4.3398;
854.4000;0.0838;4.3301;
854.7000;0.0855;4.3349;
855.0000;0.0863;4.3422;
855.3000;0.0936;4.3520;
855.6000;0.0838;4.3325;
855.9000;0.0838;4.3398;
856.2000;0.0765;4.3301;
856.5000;0.0961;4.3836;
856.8000;0.0822;4.3471;
857.1000;0.0838;4.3447;
857.4000;0.0847;4.3422;
857.7000;0.0904;4.3641;
858.0000;0.0806;4.3325;
858.3000;0.0863;4.3495;
858.6000;0.0749;4.3301;
858.9000;0.0879;4.3544;
859.2000;0.0847;4.3544;
859.5000;0.0847;4.3593;
859.8000;0.0952;4.3982;
860.1000;0.0879;4.3690;
860.4000;0.0838;4.3593;
860.7000;0.0847;4.3617;
861.0000;0.0847;4.3520;
861.3000;0.0847;4.3398;
861.6000;0.0871;4.3447;
861.9000;0.0838;4.3301;
862.2000;0.0855;4.3276;
862.5000;0.0847;4.3203;
862.8000;0.0863;4.3252;
863.1000;0.0806;4.3155;
863.4000;0.0863;4.3252;
863.7000;0.0838;4.3301;
864.0000;0.0863;4.3349;
864.3000;0.0847;4.3374;
864.6000;0.0830;4.3349;
864.9000;0.0822;4.3301;
865.2000;0.0855;4.3447;
865.5000;0.0847;4.3325;
865.8000;0.0961;4.3617;
866.1000;0.0838;4.3374;
866.4000;0.0838;4.3349;
866.7000;0.0847;4.3349;
867.0000;0.0781;4.3155;
867.3000;0.0814;4.3228;
867.6000;0.0871;4.3398;
867.9000;0.0830;4.3349;
868.2000;0.0814;4.3325;
868.5000;0.0814;4.3325;
868.8000;0.0855;4.3520;
869.1000;0.0847;4.3520;
869.4000;0.0855;4.3495;
869.7000;0.0847;4.3422;
870.0000;0.0822;4.3374;
870.3000;0.0847;4.3447;
870.6000;0.0798;4.3252;
870.9000;0.0863;4.3447;
871.2000;0.0814;4.3398;
871.5000;0.0838;4.3301;
871.8000;0.0830;4.3301;
872.1000;0.0757;4.3130;
872.4000;0.0798;4.3228;
872.7000;0.0863;4.3422;
873.0000;0.0838;4.3252;
873.3000;0.0855;4.3252;
873.6000;0.0838;4.3106;
873.9000;0.0855;4.3155;
874.2000;0.0847;4.3057;
874.5000;0.0847;4.3130;
874.8000;0.0863;4.3203;
875.1000;0.0781;4.3057;
875.4000;0.0798;4.3057;
875.7000;0.0863;4.3301;
876.0000;0.0847;4.3228;
876.3000;0.0806;4.3179;
876.6000;0.0838;4.3422;
876.9000;0.0863;4.3422;
877.2000;0.0887;4.3568;
877.5000;0.0806;4.3349;
877.8000;0.0871;4.3520;
878.1000;0.0879;4.3544;
878.4000;0.0847;4.3447;
878.7000;0.0895;4.3544;
879.0000;0.0855;4.3422;
879.3000;0.0847;4.3276;
879.6000;0.0855;4.3374;
879.9000;0.0847;4.3301;
880.2000;0.0757;4.3009;
880.5000;0.0863;4.3374;
880.8000;0.0863;4.3447;
881.1000;0.0855;4.3398;
881.4000;0.0855;4.3325;
881.7000;0.0822;4.3228;
882.0000;0.0871;4.3349;
882.3000;0.0871;4.3374;
882.6000;0.0838;4.3349;
882.9000;0.0863;4.3422;
883.2000;0.0838;4.3349;
883.5000;0.0814;4.3374;
883.8000;0.0847;4.3398;
884.1000;0.0847;4.3374;
884.4000;0.0830;4.3349;
884.7000;0.0838;4.3422;
885.0000;0.0838;4.3422;
885.3000;0.0830;4.3374;
885.6000;0.0838;4.3422;
885.9000;0.0847;4.3349;
886.2000;0.0863;4.3325;
886.5000;0.0830;4.3276;
886.8000;0.0871;4.3349;
887.1000;0.0838;4.3325;
887.4000;0.0838;4.3374;
887.7000;0.0863;4.3495;
888.0000;0.0863;4.3568;
888.3000;0.0863;4.3641;
888.6000;0.0847;4.3593;
888.9000;0.0847;4.3495;
889.2000;0.0838;4.3422;
889.5000;0.0838;4.3374;
889.8000;0.0871;4.3447;
890.1000;0.0838;4.3471;
890.4000;0.0806;4.3495;
890.7000;0.0830;4.3422;
891.0000;0.0798;4.3228;
891.3000;0.0887;4.3398;
891.6000;0.0822;4.3203;
891.9000;0.0838;4.3179;
892.2000;0.0822;4.3155;
892.5000;0.0969;4.3641;
892.8000;0.0822;4.3203;
893.1000;0.0790;4.3155;
893.4000;0.0863;4.3349;
893.7000;0.0863;4.3422;
894.0000;0.0863;4.3398;
894.3000;0.0830;4.3471;
894.6000;0.0798;4.3349;
894.9000;0.0790;4.3325;
895.2000;0.0838;4.3495;
895.5000;0.0855;4.3471;
895.8000;0.0855;4.3422;
896.1000;0.0838;4.3447;
896.4000;0.0855;4.3422;
896.7000;0.0798;4.3349;
897.0000;0.0822;4.3520;
897.3000;0.0830;4.3471;
897.6000;0.0855;4.3422;
897.9000;0.0847;4.3398;
898.2000;0.0814;4.3276;
898.5000;0.0863;4.3471;
898.8000;0.0830;4.3471;
899.1000;0.0855;4.3666;
899.4000;0.0790;4.3471;
899.7000;0.0863;4.3690;
900.0000;0.0830;4.3568;
900.3000;0.0830;4.3520;
900.6000;0.0871;4.3593;
900.9000;0.0855;4.3544;
901.2000;0.0912;4.3763;
901.5000;0.0952;4.3909;
901.8000;0.0822;4.3593;
902.1000;0.0969;4.3933;
902.4000;0.0863;4.3641;
902.7000;0.0871;4.3593;
903.0000;0.0855;4.3568;
903.3000;0.0847;4.3666;
903.6000;0.0847;4.3714;
903.9000;0.0847;4.3739;
904.2000;0.0855;4.3739;
904.5000;0.0838;4.3641;
904.8000;0.0847;4.3714;
905.1000;0.0855;4.3617;
905.4000;0.0855;4.3568;
905.7000;0.0838;4.3495;
906.0000;0.0822;4.3520;
906.3000;0.0863;4.3593;
906.6000;0.0855;4.3617;
906.9000;0.0863;4.3690;
907.2000;0.0838;4.3666;
907.5000;0.0855;4.3617;
907.8000;0.0822;4.3520;
908.1000;0.0814;4.3471;
908.4000;0.0855;4.3471;
908.7000;0.0847;4.3398;
909.0000;0.0855;4.3447;
909.3000;0.0830;4.3471;
909.6000;0.0838;4.3520;
909.9000;0.0822;4.3349;
910.2000;0.0855;4.3447;
910.5000;0.0871;4.3520;
910.8000;0.0838;4.3471;
911.1000;0.0847;4.3447;
911.4000;0.0855;4.3447;
911.7000;0.0855;4.3544;
912.0000;0.0863;4.3593;
912.3000;0.0847;4.3568;
912.6000;0.0863;4.3617;
912.9000;0.0863;4.3495;
913.2000;0.0855;4.3374;
913.5000;0.0822;4.3349;
913.8000;0.0895;4.3641;
914.1000;0.0977;4.3982;
914.4000;0.0814;4.3544;
914.7000;0.0944;4.3909;
915.0000;0.0895;4.3812;
915.3000;0.0855;4.3787;
915.6000;0.0847;4.3763;
915.9000;0.0847;4.3666;
916.2000;0.0855;4.3520;
916.5000;0.0863;4.3520;
916.8000;0.0830;4.3398;
917.1000;0.0920;4.3690;
917.4000;0.0724;4.3106;
917.7000;0.0838;4.3471;
918.0000;0.0773;4.3325;
918.3000;0.0838;4.3447;
918.6000;0.0855;4.3422;
918.9000;0.0855;4.3447;
919.2000;0.0863;4.3495;
919.5000;0.0847;4.3495;
919.8000;0.0830;4.3374;
920.1000;0.0830;4.3374;
920.4000;0.0847;4.3301;
920.7000;0.0830;4.3276;
921.0000;0.0855;4.3301;
921.3000;0.0838;4.3155;
921.6000;0.0847;4.3155;
921.9000;0.0830;4.3106;
922.2000;0.0830;4.3130;
922.5000;0.0904;4.3349;
922.8000;0.0847;4.3325;
923.1000;0.0847;4.3325;
923.4000;0.0838;4.3422;
923.7000;0.0871;4.3495;
924.0000;0.0830;4.3349;
924.3000;0.0863;4.3422;
924.6000;0.0838;4.3495;
924.9000;0.0863;4.3495;
925.2000;0.0863;4.3422;
925.5000;0.0830;4.3325;
925.8000;0.0822;4.3301;
926.1000;0.0838;4.3252;
926.4000;0.0920;4.3398;
926.7000;0.0863;4.3179;
927.0000;0.0773;4.3009;
927.3000;0.0855;4.3228;
927.6000;0.0855;4.3252;
927.9000;0.0863;4.3276;
928.2000;0.0847;4.3155;
928.5000;0.0855;4.3252;
928.8000;0.0944;4.3520;
929.1000;0.0879;4.3276;
929.4000;0.0838;4.3252;
929.7000;0.0871;4.3374;
930.0000;0.0855;4.3374;
930.3000;0.0847;4.3447;
930.6000;0.0838;4.3447;
930.9000;0.0724;4.3155;
931.2000;0.0855;4.3447;
931.5000;0.0863;4.3495;
931.8000;0.0847;4.3520;
932.1000;0.0855;4.3495;
932.4000;0.0822;4.3398;
932.7000;0.0838;4.3471;
933.0000;0.0838;4.3422;
933.3000;0.0855;4.3520;
933.6000;0.0830;4.3544;
933.9000;0.0847;4.3617;
934.2000;0.0863;4.3568;
934.5000;0.0855;4.3641;
934.8000;0.0838;4.3641;
935.1000;0.0806;4.3617;
935.4000;0.0838;4.3568;
935.7000;0.0855;4.3568;
936.0000;0.0838;4.3568;
936.3000;0.0830;4.3520;
936.6000;0.0814;4.3544;
936.9000;0.0838;4.3593;
937.2000;0.0838;4.3593;
937.5000;0.0830;4.3617;
937.8000;0.0912;4.3787;
938.1000;0.0912;4.3617;
938.4000;0.0838;4.3471;
938.7000;0.0781;4.3301;
939.0000;0.0798;4.3349;
939.3000;0.0838;4.3520;
939.6000;0.0773;4.3325;
939.9000;0.0830;4.3520;
940.2000;0.0781;4.3398;
940.5000;0.0733;4.3228;
940.8000;0.0814;4.3398;
941.1000;0.0838;4.3471;
941.4000;0.0847;4.3422;
941.7000;0.0847;4.3398;
942.0000;0.0847;4.3398;
942.3000;0.0830;4.3398;
942.6000;0.0781;4.3276;
942.9000;0.0855;4.3374;
943.2000;0.0838;4.3422;
943.5000;0.0855;4.3398;
943.8000;0.0830;4.3276;
944.1000;0.0847;4.3301;
944.4000;0.0847;4.3447;
944.7000;0.0993;4.3836;
945.0000;0.0838;4.3349;
945.3000;0.0920;4.3568;
945.6000;0.0757;4.3179;
945.9000;0.0749;4.3228;
946.2000;0.0838;4.3447;
946.5000;0.0838;4.3325;
946.8000;0.0871;4.3374;
947.1000;0.0855;4.3301;
947.4000;0.0879;4.3374;
947.7000;0.0822;4.3228;
948.0000;0.0871;4.3398;
948.3000;0.0806;4.3325;
948.6000;0.0871;4.3495;
948.9000;0.0871;4.3520;
949.2000;0.0830;4.3301;
949.5000;0.0847;4.3276;
949.8000;0.0757;4.3130;
950.1000;0.0847;4.3422;
950.4000;0.0822;4.3276;
950.7000;0.0855;4.3374;
951.0000;0.0904;4.3520;
951.3000;0.0830;4.3349;
951.6000;0.0871;4.3495;
951.9000;0.0855;4.3447;
952.2000;0.0773;4.3155;
952.5000;0.0838;4.3179;
952.8000;0.0920;4.3495;
953.1000;0.0814;4.3228;
953.4000;0.0855;4.3276;
953.7000;0.0830;4.3082;
954.0000;0.0838;4.3033;
954.3000;0.0822;4.3009;
954.6000;0.0863;4.3082;
954.9000;0.0855;4.3106;
955.2000;0.0855;4.3155;
955.5000;0.0863;4.3130;
955.8000;0.0830;4.3082;
956.1000;0.0814;4.3082;
956.4000;0.0887;4.3276;
956.7000;0.0863;4.3228;
957.0000;0.0887;4.3325;
957.3000;0.0830;4.3155;
957.6000;0.0847;4.3179;
957.9000;0.0830;4.3203;
958.2000;0.0838;4.3228;
958.5000;0.0863;4.3325;
958.8000;0.0855;4.3301;
959.1000;0.0847;4.3301;
959.4000;0.0879;4.3422;
959.7000;0.0838;4.3228;
960.0000;0.0863;4.3203;
960.3000;0.0879;4.3276;
960.6000;0.0838;4.3179;
960.9000;0.0847;4.3228;
961.2000;0.0838;4.3252;
961.5000;0.0855;4.3374;
961.8000;0.0855;4.3495;
962.1000;0.0838;4.3374;
962.4000;0.0863;4.3398;
962.7000;0.0838;4.3349;
963.0000;0.0830;4.3276;
963.3000;0.0936;4.3593;
963.6000;0.0806;4.3228;
963.9000;0.0855;4.3374;
964.2000;0.0863;4.3349;
964.5000;0.0887;4.3422;
964.8000;0.0847;4.3325;
965.1000;0.0920;4.3544;
965.4000;0.0863;4.3447;
965.7000;0.0847;4.3422;
966.0000;0.0855;4.3471;
966.3000;0.0838;4.3495;
966.6000;0.0838;4.3495;
966.9000;0.0838;4.3520;
967.2000;0.0879;4.3641;
967.5000;0.0847;4.3495;
967.8000;0.0838;4.3495;
968.1000;0.0838;4.3495;
968.4000;0.0879;4.3617;
968.7000;0.0855;4.3641;
969.0000;0.0855;4.3666;
969.3000;0.0871;4.3641;
969.6000;0.0847;4.3544;
969.9000;0.0871;4.3641;
970.2000;0.0790;4.3374;
970.5000;0.0871;4.3495;
970.8000;0.0847;4.3471;
971.1000;0.0936;4.3787;
971.4000;0.0814;4.3471;
971.7000;0.0904;4.3641;
972.0000;0.0838;4.3471;
972.3000;0.0806;4.3398;
972.6000;0.0855;4.3495;
972.9000;0.0847;4.3447;
973.2000;0.0838;4.3301;
973.5000;0.0855;4.3301;
973.8000;0.0863;4.3349;
974.1000;0.0822;4.3228;
974.4000;0.0847;4.3276;
974.7000;0.0790;4.3228;
975.0000;0.0847;4.3422;
975.3000;0.0847;4.3422;
975.6000;0.0838;4.3447;
975.9000;0.0830;4.3471;
976.2000;0.0822;4.3422;
976.5000;0.0806;4.3349;
976.8000;0.0887;4.3617;
977.1000;0.0830;4.3447;
977.4000;0.0863;4.3520;
977.7000;0.0855;4.3544;
978.0000;0.0838;4.3495;
978.3000;0.0855;4.3568;
978.6000;0.0838;4.3520;
978.9000;0.0855;4.3544;
979.2000;0.0855;4.3593;
979.5000;0.0855;4.3544;
979.8000;0.0863;4.3520;
980.1000;0.0838;4.3398;
980.4000;0.0855;4.3447;
980.7000;0.0847;4.3374;
981.0000;0.0887;4.3544;
981.3000;0.0830;4.3447;
981.6000;0.0847;4.3447;
981.9000;0.0863;4.3447;
982.2000;0.0838;4.3276;
982.5000;0.0838;4.3325;
982.8000;0.0838;4.3325;
983.1000;0.0847;4.3252;
983.4000;0.0863;4.3447;
983.7000;0.0838;4.3349;
984.0000;0.0814;4.3276;
984.3000;0.0847;4.3398;
984.6000;0.0904;4.3520;
984.9000;0.0855;4.3349;
985.2000;0.0847;4.3349;
985.5000;0.0855;4.3349;
985.8000;0.0838;4.3325;
986.1000;0.0871;4.3374;
986.4000;0.0838;4.3349;
986.7000;0.0773;4.3106;
987.0000;0.0806;4.3252;
987.3000;0.0847;4.3422;
987.6000;0.0863;4.3495;
987.9000;0.0838;4.3495;
988.2000;0.0757;4.3349;
988.5000;0.0847;4.3666;
988.8000;0.0855;4.3641;
989.1000;0.0863;4.3593;
989.4000;0.0904;4.3641;
989.7000;0.0847;4.3520;
990.0000;0.0838;4.3374;
990.3000;0.0830;4.3349;
990.6000;0.0830;4.3471;
990.9000;0.0814;4.3398;
991.2000;0.0822;4.3422;
991.5000;0.0895;4.3690;
991.8000;0.0863;4.3495;
992.1000;0.0830;4.3471;
992.4000;0.0855;4.3422;
992.7000;0.0855;4.3398;
993.0000;0.0847;4.3447;
993.3000;0.0879;4.3495;
993.6000;0.0838;4.3374;
993.9000;0.0838;4.3349;
994.2000;0.0822;4.3349;
994.5000;0.0773;4.3155;
994.8000;0.0855;4.3325;
995.1000;0.0822;4.3276;
995.4000;0.0863;4.3422;
995.7000;0.0822;4.3301;
996.0000;0.0822;4.3276;
996.3000;0.0838;4.3301;
996.6000;0.0847;4.3301;
996.9000;0.0830;4.3276;
997.2000;0.0830;4.3301;
997.5000;0.0871;4.3325;
997.8000;0.0847;4.3252;
998.1000;0.0838;4.3179;
998.4000;0.0855;4.3252;
998.7000;0.0838;4.3276;
999.0000;0.0838;4.3325;
999.3000;0.0822;4.3228;
999.6000;0.0847;4.3252;
999.9000;0.0847;4.3374;
1000.2000;0.0798;4.3252;
1000.5000;0.0855;4.3422;
1000.8000;0.0830;4.3447;
1001.1000;0.0863;4.3422;
1001.4000;0.0887;4.3495;
1001.7000;0.0814;4.3252;
1002.0000;0.0855;4.3325;
1002.3000;0.0847;4.3374;
1002.6000;0.0830;4.3252;
1002.9000;0.0928;4.3520;
1003.2000;0.0838;4.3398;
1003.5000;0.0838;4.3398;
1003.8000;0.0855;4.3398;
1004.1000;0.0847;4.3349;
1004.4000;0.0871;4.3398;
1004.7000;0.0855;4.3374;
1005.0000;0.0838;4.3325;
1005.3000;0.0863;4.3398;
1005.6000;0.0822;4.3228;
1005.9000;0.0830;4.3276;
1006.2000;0.0863;4.3301;
1006.5000;0.0871;4.3276;
1006.8000;0.0879;4.3325;
1007.1000;0.0928;4.3398;
1007.4000;0.0830;4.3228;
1007.7000;0.0863;4.3349;
1008.0000;0.0936;4.3690;
1008.3000;0.0847;4.3447;
1008.6000;0.0895;4.3544;
1008.9000;0.0863;4.3471;
1009.2000;0.0838;4.3398;
1009.5000;0.0912;4.3544;
1009.8000;0.0847;4.3349;
1010.1000;0.0806;4.3179;
1010.4000;0.0969;4.3544;
1010.7000;0.0977;4.3520;
1011.0000;0.0822;4.3057;
1011.3000;0.0822;4.3009;
1011.6000;0.0863;4.3057;
1011.9000;0.0814;4.2960;
1012.2000;0.0765;4.2911;
1012.5000;0.0863;4.3252;
1012.8000;0.0822;4.3203;
1013.1000;0.0847;4.3276;
1013.4000;0.0830;4.3252;
1013.7000;0.0855;4.3301;
1014.0000;0.0847;4.3325;
1014.3000;0.0806;4.3228;
1014.6000;0.0830;4.3276;
1014.9000;0.0993;4.3763;
1015.2000;0.0806;4.3301;
1015.5000;0.0847;4.3447;
1015.8000;0.0847;4.3471;
1016.1000;0.0838;4.3495;
1016.4000;0.0830;4.3471;
1016.7000;0.0855;4.3544;
1017.0000;0.0855;4.3520;
1017.3000;0.0806;4.3495;
1017.6000;0.0855;4.3593;
1017.9000;0.0863;4.3690;
1018.2000;0.0887;4.3763;
1018.5000;0.0863;4.3690;
1018.8000;0.0855;4.3666;
1019.1000;0.0871;4.3690;
1019.4000;0.0830;4.3593;
1019.7000;0.0822;4.3593;
1020.0000;0.0830;4.3666;
1020.3000;0.0838;4.3666;
1020.6000;0.0871;4.3714;
1020.9000;0.0969;4.4055;
1021.2000;0.0814;4.3520;
1021.5000;0.0806;4.3422;
1021.8000;0.0936;4.3714;
1022.1000;0.0871;4.3617;
1022.4000;0.0822;4.3471;
1022.7000;0.0830;4.3641;
1023.0000;0.0920;4.3860;
1023.3000;0.0814;4.3593;
1023.6000;0.0838;4.3495;
1023.9000;0.0847;4.3495;
1024.2000;0.0904;4.3763;
1024.5000;0.0838;4.3593;
1024.8000;0.0855;4.3568;
1025.1000;0.0757;4.3325;
1025.4000;0.0855;4.3617;
1025.7000;0.0863;4.3617;
1026.0000;0.0822;4.3568;
1026.3000;0.0822;4.3544;
1026.6000;0.0855;4.3690;
1026.9000;0.0814;4.3617;
1027.2000;0.0838;4.3690;
1027.5000;0.0822;4.3568;
1027.8000;0.0830;4.3641;
1028.1000;0.0822;4.3617;
1028.4000;0.0838;4.3520;
1028.7000;0.0863;4.3495;
1029.0000;0.0830;4.3422;
1029.3000;0.0838;4.3422;
1029.6000;0.0822;4.3325;
1029.9000;0.0814;4.3228;
1030.2000;0.0822;4.3228;
1030.5000;0.0855;4.3325;
1030.8000;0.0895;4.3520;
1031.1000;0.0765;4.3082;
1031.4000;0.0847;4.3374;
1031.7000;0.0838;4.3374;
1032.0000;0.0887;4.3471;
1032.3000;0.0830;4.3374;
1032.6000;0.0887;4.3617;
1032.9000;0.0806;4.3374;
1033.2000;0.0879;4.3568;
1033.5000;0.0855;4.3520;
1033.8000;0.0879;4.3544;
1034.1000;0.0838;4.3471;
1034.4000;0.0936;4.3739;
1034.7000;0.0863;4.3520;
1035.0000;0.0904;4.3593;
1035.3000;0.0838;4.3422;
1035.6000;0.0936;4.3617;
1035.9000;0.0847;4.3471;
1036.2000;0.0847;4.3520;
1036.5000;0.0838;4.3447;
1036.8000;0.0798;4.3374;
1037.1000;0.0887;4.3617;
1037.4000;0.0895;4.3593;
1037.7000;0.0830;4.3349;
1038.0000;0.0863;4.3447;
1038.3000;0.0855;4.3398;
1038.6000;0.0855;4.3398;
1038.9000;0.0871;4.3349;
1039.2000;0.0855;4.3276;
1039.5000;0.0952;4.3471;
1039.8000;0.0822;4.3179;
1040.1000;0.0830;4.3179;
1040.4000;0.0863;4.3301;
1040.7000;0.0879;4.3325;
1041.0000;0.0700;4.2984;
1041.3000;0.0895;4.3568;
1041.6000;0.0855;4.3374;
1041.9000;0.0838;4.3447;
1042.2000;0.0895;4.3568;
1042.5000;0.0838;4.3374;
1042.8000;0.0830;4.3374;
1043.1000;0.0847;4.3349;
1043.4000;0.0838;4.3374;
1043.7000;0.0855;4.3471;
1044.0000;0.0822;4.3398;
1044.3000;0.0863;4.3471;
1044.6000;0.0879;4.3520;
1044.9000;0.0847;4.3422;
1045.2000;0.0847;4.3447;
1045.5000;0.0855;4.3471;
1045.8000;0.0838;4.3520;
1046.1000;0.0863;4.3617;
1046.4000;0.0838;4.3568;
1046.7000;0.0830;4.3495;
1047.0000;0.0790;4.3520;
1047.3000;0.0830;4.3690;
1047.6000;0.0895;4.3836;
1047.9000;0.0863;4.3666;
1048.2000;0.0879;4.3714;
1048.5000;0.0855;4.3544;
1048.8000;0.0855;4.3617;
1049.1000;0.0855;4.3593;
1049.4000;0.0847;4.3520;
1049.7000;0.0838;4.3520;
1050.0000;0.0822;4.3520;
1050.3000;0.0855;4.3593;
1050.6000;0.0830;4.3593;
1050.9000;0.0847;4.3544;
1051.2000;0.0838;4.3495;
1051.5000;0.0847;4.3471;
1051.8000;0.0847;4.3495;
1052.1000;0.0790;4.3374;
1052.4000;0.0822;4.3617;
1052.7000;0.0830;4.3739;
1053.0000;0.0822;4.3690;
1053.3000;0.0830;4.3739;
1053.6000;0.0806;4.3714;
1053.9000;0.0847;4.3885;
1054.2000;0.0855;4.3787;
1054.5000;0.0847;4.3763;
1054.8000;0.0806;4.3787;
1055.1000;0.0847;4.3885;
1055.4000;0.0838;4.3836;
1055.7000;0.0838;4.3787;
1056.0000;0.0847;4.3763;
1056.3000;0.0830;4.3690;
1056.6000;0.0830;4.3690;
1056.9000;0.0798;4.3593;
1057.2000;0.0928;4.4006;
1057.5000;0.0863;4.3763;
1057.8000;0.0863;4.3714;
1058.1000;0.0855;4.3641;
1058.4000;0.0904;4.3739;
1058.7000;0.0855;4.3544;
1059.0000;0.0847;4.3447;
1059.3000;0.0847;4.3495;
1059.6000;0.0920;4.3714;
1059.9000;0.0879;4.3568;
1060.2000;0.0847;4.3520;
1060.5000;0.0830;4.3471;
1060.8000;0.0847;4.3495;
1061.1000;0.0871;4.3568;
1061.4000;0.0863;4.3495;
1061.7000;0.0855;4.3520;
1062.0000;0.0855;4.3471;
1062.3000;0.0855;4.3544;
1062.6000;0.0871;4.3593;
1062.9000;0.0863;4.3617;
1063.2000;0.0863;4.3617;
1063.5000;0.0847;4.3593;
1063.8000;0.0855;4.3520;
1064.1000;0.0847;4.3544;
1064.4000;0.0847;4.3495;
1064.7000;0.0855;4.3544;
1065.0000;0.0895;4.3641;
1065.3000;0.0863;4.3520;
1065.6000;0.0855;4.3447;
1065.9000;0.0838;4.3495;
1066.2000;0.0871;4.3593;
1066.5000;0.0863;4.3593;
1066.8000;0.0790;4.3471;
1067.1000;0.0863;4.3714;
1067.4000;0.0887;4.3763;
1067.7000;0.0847;4.3666;
1068.0000;0.0847;4.3739;
1068.3000;0.0863;4.3860;
1068.6000;0.0912;4.3885;
1068.9000;0.0847;4.3714;
1069.2000;0.0855;4.3739;
1069.5000;0.0855;4.3714;
1069.8000;0.0855;4.3641;
1070.1000;0.0887;4.3690;
1070.4000;0.0847;4.3617;
1070.7000;0.0879;4.3666;
1071.0000;0.0781;4.3398;
1071.3000;0.0822;4.3520;
1071.6000;0.0887;4.3641;
1071.9000;0.0887;4.3641;
1072.2000;0.0863;4.3593;
1072.5000;0.0855;4.3544;
1072.8000;0.0855;4.3544;
1073.1000;0.0855;4.3568;
1073.4000;0.0830;4.3568;
1073.7000;0.0838;4.3593;
1074.0000;0.0871;4.3690;
1074.3000;0.0855;4.3593;
1074.6000;0.0855;4.3495;
1074.9000;0.0855;4.3447;
1075.2000;0.0830;4.3398;
1075.5000;0.0855;4.3495;
1075.8000;0.0822;4.3471;
1076.1000;0.0847;4.3447;
1076.4000;0.0847;4.3568;
1076.7000;0.0830;4.3544;
1077.0000;0.0830;4.3471;
1077.3000;0.0830;4.3422;
1077.6000;0.0847;4.3422;
1077.9000;0.0822;4.3398;
1078.2000;0.0790;4.3325;
1078.5000;0.0847;4.3495;
1078.8000;0.0871;4.3568;
1079.1000;0.0855;4.3495;
1079.4000;0.0887;4.3641;
1079.7000;0.0830;4.3544;
1080.0000;0.0863;4.3666;
1080.3000;0.0822;4.3641;
1080.6000;0.0855;4.3666;
1080.9000;0.0838;4.3617;
1081.2000;0.0855;4.3690;
1081.5000;0.0855;4.3544;
1081.8000;0.0847;4.3471;
1082.1000;0.0863;4.3471;
1082.4000;0.0847;4.3447;
1082.7000;0.0855;4.3495;
1083.0000;0.0830;4.3544;
1083.3000;0.0806;4.3544;
1083.6000;0.0847;4.3690;
1083.9000;0.0871;4.3666;
1084.2000;0.0985;4.3958;
1084.5000;0.0838;4.3593;
1084.8000;0.0814;4.3520;
1085.1000;0.0822;4.3568;
1085.4000;0.0855;4.3714;
1085.7000;0.0895;4.3714;
1086.0000;0.0863;4.3617;
1086.3000;0.0879;4.3739;
1086.6000;0.0855;4.3641;
1086.9000;0.0863;4.3787;
1087.2000;0.0838;4.3787;
1087.5000;0.0855;4.3812;
1087.8000;0.0895;4.3958;
1088.1000;0.0830;4.3739;
1088.4000;0.0855;4.3885;
1088.7000;0.0847;4.3885;
1089.0000;0.0863;4.3909;
1089.3000;0.0830;4.3763;
1089.6000;0.0830;4.3763;
1089.9000;0.0920;4.3933;
1090.2000;0.0855;4.3812;
1090.5000;0.0838;4.3739;
1090.8000;0.0830;4.3690;
1091.1000;0.0847;4.3666;
1091.4000;0.0855;4.3690;
1091.7000;0.0830;4.3617;
1092.0000;0.0838;4.3690;
1092.3000;0.0847;4.3739;
1092.6000;0.0847;4.3739;
1092.9000;0.0871;4.3763;
1093.2000;0.0838;4.3666;
1093.5000;0.0847;4.3763;
1093.8000;0.0847;4.3860;
1094.1000;0.0757;4.3447;
1094.4000;0.0871;4.3690;
1094.7000;0.0847;4.3544;
1095.0000;0.0977;4.3933;
1095.3000;0.0806;4.3495;
1095.6000;0.0855;4.3568;
1095.9000;0.0887;4.3690;
1096.2000;0.0855;4.3568;
1096.5000;0.0822;4.3495;
1096.8000;0.0863;4.3593;
1097.1000;0.0847;4.3593;
1097.4000;0.0822;4.3544;
1097.7000;0.0863;4.3544;
1098.0000;0.0871;4.3495;
1098.3000;0.0855;4.3447;
1098.6000;0.0781;4.3301;
1098.9000;0.0904;4.3666;
1099.2000;0.0822;4.3447;
1099.5000;0.0838;4.3544;
1099.8000;0.0847;4.3471;
1100.1000;0.0781;4.3276;
1100.4000;0.0855;4.3471;
1100.7000;0.0830;4.3398;
1101.0000;0.0904;4.3495;
1101.3000;0.0830;4.3325;
1101.6000;0.0936;4.3714;
1101.9000;0.0847;4.3374;
1102.2000;0.0847;4.3422;
1102.5000;0.0887;4.3471;
1102.8000;0.0863;4.3447;
1103.1000;0.0855;4.3422;
1103.4000;0.0855;4.3398;
1103.7000;0.0847;4.3325;
1104.0000;0.0806;4.3252;
1104.3000;0.0863;4.3520;
1104.6000;0.0887;4.3641;
1104.9000;0.0830;4.3495;
1105.2000;0.0773;4.3228;
1105.5000;0.0847;4.3398;
1105.8000;0.0855;4.3422;
1106.1000;0.0847;4.3422;
1106.4000;0.0847;4.3374;
1106.7000;0.0863;4.3495;
1107.0000;0.0765;4.3349;
1107.3000;0.0830;4.3568;
1107.6000;0.0847;4.3641;
1107.9000;0.0838;4.3739;
1108.2000;0.0790;4.3495;
1108.5000;0.0847;4.3617;
1108.8000;0.0855;4.3617;
1109.1000;0.0855;4.3617;
1109.4000;0.0822;4.3544;
1109.7000;0.0838;4.3641;
1110.0000;0.0847;4.3714;
1110.3000;0.0847;4.3641;
1110.6000;0.0838;4.3520;
1110.9000;0.0855;4.3568;
1111.2000;0.0847;4.3617;
1111.5000;0.0847;4.3617;
1111.8000;0.0806;4.3568;
1112.1000;0.0838;4.3714;
1112.4000;0.0895;4.3739;
1112.7000;0.0863;4.3641;
1113.0000;0.0871;4.3617;
1113.3000;0.0838;4.3568;
1113.6000;0.0855;4.3641;
1113.9000;0.0863;4.3568;
1114.2000;0.0863;4.3471;
1114.5000;0.0822;4.3447;
1114.8000;0.0798;4.3398;
1115.1000;0.0855;4.3617;
1115.4000;0.0847;4.3690;
1115.7000;0.0830;4.3666;
1116.0000;0.0887;4.3617;
1116.3000;0.0855;4.3641;
1116.6000;0.0912;4.3787;
1116.9000;0.0871;4.3739;
1117.2000;0.0822;4.3593;
1117.5000;0.0855;4.3690;
1117.8000;0.0847;4.3690;
1118.1000;0.0904;4.3763;
1118.4000;0.0806;4.3520;
1118.7000;0.0822;4.3641;
1119.0000;0.0944;4.3958;
1119.3000;0.0855;4.3617;
1119.6000;0.0863;4.3714;
1119.9000;0.0822;4.3641;
1120.2000;0.0830;4.3617;
1120.5000;0.0855;4.3690;
1120.8000;0.0847;4.3641;
1121.1000;0.0855;4.3739;
1121.4000;0.0847;4.3690;
1121.7000;0.0863;4.3690;
1122.0000;0.0855;4.3593;
1122.3000;0.0830;4.3544;
1122.6000;0.0920;4.3739;
1122.9000;0.0871;4.3568;
1123.2000;0.0822;4.3471;
1123.5000;0.0863;4.3495;
1123.8000;0.0847;4.3544;
1124.1000;0.0863;4.3617;
1124.4000;0.0814;4.3520;
1124.7000;0.0838;4.3593;
1125.0000;0.0830;4.3617;
1125.3000;0.0838;4.3568;
1125.6000;0.0822;4.3374;
1125.9000;0.0847;4.3471;
1126.2000;0.0847;4.3422;
1126.5000;0.0781;4.3325;
1126.8000;0.0830;4.3471;
1127.1000;0.0863;4.3495;
1127.4000;0.0790;4.3276;
1127.7000;0.0847;4.3495;
1128.0000;0.0847;4.3495;
1128.3000;0.0863;4.3544;
1128.6000;0.0773;4.3398;
1128.9000;0.0830;4.3617;
1129.2000;0.0822;4.3495;
1129.5000;0.0765;4.3349;
1129.8000;0.0847;4.3544;
1130.1000;0.0847;4.3568;
1130.4000;0.0895;4.3739;
1130.7000;0.0847;4.3617;
1131.0000;0.0847;4.3617;
1131.3000;0.0863;4.3739;
1131.6000;0.0847;4.3714;
1131.9000;0.0912;4.3885;
1132.2000;0.0863;4.3836;
1132.5000;0.0847;4.3836;
1132.8000;0.0847;4.3812;
1133.1000;0.0855;4.3812;
1133.4000;0.0847;4.3739;
1133.7000;0.0830;4.3739;
1134.0000;0.0847;4.3763;
1134.3000;0.0830;4.3714;
1134.6000;0.0871;4.3836;
1134.9000;0.0765;4.3398;
1135.2000;0.0879;4.3763;
1135.5000;0.0895;4.3885;
1135.8000;0.0838;4.3690;
1136.1000;0.0830;4.3666;
1136.4000;0.0806;4.3544;
1136.7000;0.0855;4.3641;
1137.0000;0.0871;4.3593;
1137.3000;0.0855;4.3568;
1137.6000;0.0822;4.3520;
1137.9000;0.0879;4.3641;
1138.2000;0.0830;4.3544;
1138.5000;0.0871;4.3544;
1138.8000;0.0838;4.3471;
1139.1000;0.0773;4.3301;
1139.4000;0.0871;4.3495;
1139.7000;0.0814;4.3374;
1140.0000;0.0822;4.3447;
1140.3000;0.0830;4.3447;
1140.6000;0.0798;4.3422;
1140.9000;0.0838;4.3471;
1141.2000;0.0822;4.3447;
1141.5000;0.0855;4.3641;
1141.8000;0.0798;4.3471;
1142.1000;0.0814;4.3544;
1142.4000;0.0855;4.3641;
1142.7000;0.0830;4.3544;
1143.0000;0.0830;4.3593;
1143.3000;0.0724;4.3349;
1143.6000;0.0814;4.3568;
1143.9000;0.0847;4.3568;
1144.2000;0.0847;4.3520;
1144.5000;0.0822;4.3349;
1144.8000;0.0855;4.3471;
1145.1000;0.0863;4.3495;
1145.4000;0.0879;4.3495;
1145.7000;0.0830;4.3398;
1146.0000;0.0838;4.3422;
1146.3000;0.0863;4.3544;
1146.6000;0.0806;4.3471;
1146.9000;0.0855;4.3617;
1147.2000;0.0879;4.3617;
1147.5000;0.0895;4.3617;
1147.8000;0.0855;4.3447;
1148.1000;0.0855;4.3544;
1148.4000;0.0879;4.3593;
1148.7000;0.0879;4.3617;
1149.0000;0.0855;4.3495;
1149.3000;0.0847;4.3568;
1149.6000;0.0822;4.3447;
1149.9000;0.0830;4.3422;
1150.2000;0.0798;4.3349;
1150.5000;0.0838;4.3520;
1150.8000;0.0847;4.3495;
1151.1000;0.0863;4.3544;
1151.4000;0.0781;4.3349;
1151.7000;0.0855;4.3544;
1152.0000;0.0847;4.3593;
1152.3000;0.0838;4.3617;
1152.6000;0.0879;4.3787;
1152.9000;0.0847;4.3641;
1153.2000;0.0863;4.3568;
1153.5000;0.0977;4.3812;
1153.8000;0.0830;4.3495;
1154.1000;0.0830;4.3520;
1154.4000;0.0879;4.3568;
1154.7000;0.0830;4.3447;
1155.0000;0.0863;4.3520;
1155.3000;0.0773;4.3471;
1155.6000;0.0855;4.3641;
1155.9000;0.0863;4.3666;
1156.2000;0.0847;4.3593;
1156.5000;0.0724;4.3252;
1156.8000;0.0855;4.3666;
1157.1000;0.0871;4.3739;
1157.4000;0.0765;4.3398;
1157.7000;0.0879;4.3690;
1158.0000;0.0830;4.3495;
1158.3000;0.0830;4.3471;
1158.6000;0.0912;4.3641;
1158.9000;0.0830;4.3422;
1159.2000;0.0847;4.3495;
1159.5000;0.0838;4.3471;
1159.8000;0.0830;4.3422;
1160.1000;0.0838;4.3568;
1160.4000;0.0838;4.3617;
1160.7000;0.0806;4.3520;
1161.0000;0.0871;4.3739;
1161.3000;0.0847;4.3666;
1161.6000;0.0863;4.3641;
1161.9000;0.0936;4.3836;
1162.2000;0.0798;4.3593;
1162.5000;0.0838;4.3666;
1162.8000;0.0724;4.3325;
1163.1000;0.0830;4.3544;
1163.4000;0.0830;4.3568;
1163.7000;0.0773;4.3520;
1164.0000;0.0838;4.3641;
1164.3000;0.0847;4.3593;
1164.6000;0.0887;4.3568;
1164.9000;0.0790;4.3398;
1165.2000;0.0830;4.3495;
1165.5000;0.0838;4.3520;
1165.8000;0.0757;4.3276;
1166.1000;0.0944;4.3860;
1166.4000;0.0871;4.3617;
1166.7000;0.0838;4.3617;
1167.0000;0.0692;4.3179;
1167.3000;0.0838;4.3520;
1167.6000;0.0838;4.3593;
1167.9000;0.0847;4.3641;
1168.2000;0.0847;4.3593;
1168.5000;0.0847;4.3617;
1168.8000;0.0952;4.3787;
1169.1000;0.0847;4.3520;
1169.4000;0.0838;4.3520;
1169.7000;0.0847;4.3617;
1170.0000;0.0855;4.3666;
1170.3000;0.0847;4.3617;
1170.6000;0.0847;4.3714;
1170.9000;0.0814;4.3666;
1171.2000;0.0847;4.3666;
1171.5000;0.0887;4.3714;
1171.8000;0.0847;4.3690;
1172.1000;0.0830;4.3617;
1172.4000;0.0847;4.3593;
1172.7000;0.0855;4.3617;
1173.0000;0.0871;4.3714;
1173.3000;0.0920;4.3860;
1173.6000;0.0855;4.3617;
1173.9000;0.0863;4.3568;
1174.2000;0.0847;4.3617;
1174.5000;0.0847;4.3520;
1174.8000;0.0838;4.3471;
1175.1000;0.0879;4.3617;
1175.4000;0.0863;4.3568;
1175.7000;0.0847;4.3544;
1176.0000;0.0920;4.3690;
1176.3000;0.0863;4.3568;
1176.6000;0.0838;4.3520;
1176.9000;0.0855;4.3495;
1177.2000;0.0838;4.3471;
1177.5000;0.0855;4.3471;
1177.8000;0.0806;4.3398;
1178.1000;0.0814;4.3301;
1178.4000;0.0887;4.3544;
1178.7000;0.0847;4.3349;
1179.0000;0.0830;4.3349;
1179.3000;0.0830;4.3374;
1179.6000;0.0822;4.3276;
1179.9000;0.0855;4.3398;
1180.2000;0.0838;4.3349;
1180.5000;0.0765;4.3203;
1180.8000;0.0871;4.3544;
1181.1000;0.0847;4.3544;
1181.4000;0.0855;4.3544;
1181.7000;0.0838;4.3447;
1182.0000;0.0871;4.3568;
1182.3000;0.0887;4.3568;
1182.6000;0.0855;4.3422;
1182.9000;0.0871;4.3471;
1183.2000;0.0838;4.3422;
1183.5000;0.0855;4.3520;
1183.8000;0.0855;4.3447;
1184.1000;0.0838;4.3471;
1184.4000;0.0855;4.3471;
1184.7000;0.0863;4.3471;
1185.0000;0.0806;4.3520;
1185.3000;0.0928;4.3812;
1185.6000;0.0830;4.3568;
1185.9000;0.0847;4.3593;
1186.2000;0.0838;4.3568;
1186.5000;0.0847;4.3593;
1186.8000;0.0855;4.3520;
1187.1000;0.0847;4.3520;
1187.4000;0.0822;4.3447;
1187.7000;0.0847;4.3520;
1188.0000;0.0855;4.3495;
1188.3000;0.0887;4.3593;
1188.6000;0.0830;4.3495;
1188.9000;0.0936;4.3690;
1189.2000;0.0895;4.3520;
1189.5000;0.0806;4.3325;
1189.8000;0.0838;4.3398;
1190.1000;0.0961;4.3666;
1190.4000;0.0847;4.3325;
1190.7000;0.0790;4.3203;
1191.0000;0.0830;4.3252;
1191.3000;0.0838;4.3301;
1191.6000;0.0838;4.3301;
1191.9000;0.0936;4.3617;
1192.2000;0.0871;4.3544;
1192.5000;0.0863;4.3495;
1192.8000;0.0830;4.3447;
1193.1000;0.0822;4.3447;
1193.4000;0.0847;4.3374;
1193.7000;0.0855;4.3422;
1194.0000;0.0855;4.3471;
1194.3000;0.0863;4.3544;
1194.6000;0.0830;4.3520;
1194.9000;0.0855;4.3593;
1195.2000;0.0806;4.3447;
1195.5000;0.0847;4.3568;
1195.8000;0.0838;4.3495;
1196.1000;0.0847;4.3520;
1196.4000;0.0798;4.3495;
1196.7000;0.0871;4.3666;
1197.0000;0.0944;4.3860;
1197.3000;0.0830;4.3495;
1197.6000;0.0790;4.3374;
1197.9000;0.0912;4.3714;
1198.2000;0.0838;4.3520;
1198.5000;0.0920;4.3739;
1198.8000;0.0814;4.3447;
1199.1000;0.0863;4.3520;
1199.4000;0.0863;4.3593;
1199.7000;0.0838;4.3520;
1200.0000;0.0716;4.3228;
1200.3000;0.0814;4.3617;
1200.6000;0.0838;4.3593;
1200.9000;0.0822;4.3544;
1201.2000;0.0847;4.3593;
1201.5000;0.0871;4.3690;
1201.8000;0.0830;4.3641;
1202.1000;0.0838;4.3666;
1202.4000;0.0895;4.3836;
1202.7000;0.0847;4.3617;
1203.0000;0.0863;4.3520;
1203.3000;0.0871;4.3568;
1203.6000;0.0757;4.3325;
1203.9000;0.0814;4.3593;
1204.2000;0.0830;4.3544;
1204.5000;0.0904;4.3787;
1204.8000;0.0838;4.3617;
1205.1000;0.0847;4.3593;
1205.4000;0.0871;4.3739;
1205.7000;0.0855;4.3641;
1206.0000;0.0838;4.3593;
1206.3000;0.0847;4.3690;
1206.6000;0.0847;4.3690;
1206.9000;0.0863;4.3666;
1207.2000;0.0863;4.3617;
1207.5000;0.0855;4.3544;
1207.8000;0.0741;4.3228;
1208.1000;0.0855;4.3593;
1208.4000;0.0830;4.3520;
1208.7000;0.0847;4.3520;
1209.0000;0.0847;4.3544;
1209.3000;0.0822;4.3422;
1209.6000;0.0847;4.3422;
1209.9000;0.0830;4.3471;
1210.2000;0.0798;4.3374;
1210.5000;0.0847;4.3398;
1210.8000;0.0863;4.3471;
1211.1000;0.0895;4.3666;
1211.4000;0.0847;4.3495;
1211.7000;0.0855;4.3471;
1212.0000;0.0847;4.3471;
1212.3000;0.0814;4.3349;
1212.6000;0.0855;4.3374;
1212.9000;0.0847;4.3471;
1213.2000;0.0806;4.3301;
1213.5000;0.0855;4.3495;
1213.8000;0.0855;4.3544;
1214.1000;0.0847;4.3641;
1214.4000;0.0838;4.3544;
1214.7000;0.0838;4.3447;
1215.0000;0.0790;4.3325;
1215.3000;0.0838;4.3349;
1215.6000;0.0863;4.3325;
1215.9000;0.0814;4.3252;
1216.2000;0.0928;4.3617;
1216.5000;0.0773;4.3276;
1216.8000;0.0855;4.3471;
1217.1000;0.0871;4.3520;
1217.4000;0.0847;4.3495;
1217.7000;0.0887;4.3763;
1218.0000;0.0847;4.3763;
1218.3000;0.0838;4.3617;
1218.6000;0.0733;4.3276;
1218.9000;0.0838;4.3641;
1219.2000;0.0920;4.3885;
1219.5000;0.0838;4.3666;
1219.8000;0.0871;4.3714;
1220.1000;0.0871;4.3763;
1220.4000;0.0920;4.3836;
1220.7000;0.0822;4.3617;
1221.0000;0.0936;4.3958;
1221.3000;0.0847;4.3666;
1221.6000;0.0822;4.3568;
1221.9000;0.0830;4.3617;
1222.2000;0.0847;4.3666;
1222.5000;0.0830;4.3593;
1222.8000;0.0863;4.3641;
1223.1000;0.0855;4.3593;
1223.4000;0.0887;4.3739;
1223.7000;0.0838;4.3617;
1224.0000;0.0781;4.3398;
1224.3000;0.0928;4.3860;
1224.6000;0.0871;4.3641;
1224.9000;0.0814;4.3471;
1225.2000;0.0814;4.3495;
1225.5000;0.0855;4.3666;
1225.8000;0.0855;4.3787;
1226.1000;0.0838;4.3666;
1226.4000;0.0855;4.3812;
1226.7000;0.0871;4.3812;
1227.0000;0.0855;4.3739;
1227.3000;0.0847;4.3714;
1227.6000;0.0871;4.3690;
1227.9000;0.0863;4.3641;
1228.2000;0.0830;4.3495;
1228.5000;0.0855;4.3544;
1228.8000;0.0904;4.3666;
1229.1000;0.0830;4.3568;
1229.4000;0.0879;4.3714;
1229.7000;0.0871;4.3714;
1230.0000;0.0863;4.3714;
1230.3000;0.0863;4.3739;
1230.6000;0.0847;4.3690;
1230.9000;0.0863;4.3739;
1231.2000;0.0855;4.3690;
1231.5000;0.0822;4.3520;
1231.8000;0.0838;4.3666;
1232.1000;0.0830;4.3666;
1232.4000;0.0830;4.3690;
1232.7000;0.0838;4.3763;
1233.0000;0.0863;4.3714;
1233.3000;0.0855;4.3666;
1233.6000;0.0838;4.3666;
1233.9000;0.0773;4.3568;
1234.2000;0.0806;4.3568;
1234.5000;0.0855;4.3641;
1234.8000;0.0838;4.3617;
1235.1000;0.0920;4.3812;
1235.4000;0.0838;4.3520;
1235.7000;0.0838;4.3447;
1236.0000;0.0798;4.3252;
1236.3000;0.0863;4.3544;
1236.6000;0.0871;4.3617;
1236.9000;0.0855;4.3593;
1237.2000;0.0830;4.3520;
1237.5000;0.0847;4.3447;
1237.8000;0.0863;4.3495;
1238.1000;0.0814;4.3325;
1238.4000;0.0871;4.3471;
1238.7000;0.0871;4.3422;
1239.0000;0.0863;4.3471;
1239.3000;0.0961;4.3812;
1239.6000;0.0928;4.3812;
1239.9000;0.0814;4.3471;
1240.2000;0.0855;4.3690;
1240.5000;0.0920;4.3836;
1240.8000;0.0847;4.3593;
1241.1000;0.0822;4.3495;
1241.4000;0.0838;4.3471;
1241.7000;0.0798;4.3374;
1242.0000;0.0765;4.3398;
1242.3000;0.0798;4.3398;
1242.6000;0.0855;4.3568;
1242.9000;0.0822;4.3374;
1243.2000;0.0806;4.3374;
1243.5000;0.0855;4.3495;
1243.8000;0.0855;4.3544;
1244.1000;0.0855;4.3544;
1244.4000;0.0822;4.3544;
1244.7000;0.0855;4.3641;
1245.0000;0.0814;4.3495;
1245.3000;0.0822;4.3520;
1245.6000;0.0814;4.3447;
1245.9000;0.0838;4.3544;
1246.2000;0.0879;4.3690;
1246.5000;0.0887;4.3641;
1246.8000;0.0855;4.3471;
1247.1000;0.0847;4.3520;
1247.4000;0.0830;4.3471;
1247.7000;0.0814;4.3422;
1248.0000;0.0855;4.3422;
1248.3000;0.0920;4.3544;
1248.6000;0.0879;4.3422;
1248.9000;0.0871;4.3422;
1249.2000;0.0838;4.3398;
1249.5000;0.0814;4.3301;
1249.8000;0.0847;4.3276;
1250.1000;0.0863;4.3398;
1250.4000;0.0749;4.3179;
1250.7000;0.0806;4.3325;
1251.0000;0.0822;4.3422;
1251.3000;0.0863;4.3544;
1251.6000;0.0871;4.3568;
1251.9000;0.0855;4.3520;
1252.2000;0.0838;4.3471;
1252.5000;0.0781;4.3325;
1252.8000;0.0855;4.3568;
1253.1000;0.0838;4.3568;
1253.4000;0.0863;4.3641;
1253.7000;0.0895;4.3739;
1254.0000;0.0871;4.3763;
1254.3000;0.0838;4.3617;
1254.6000;0.0855;4.3666;
1254.9000;0.0838;4.3690;
1255.2000;0.0830;4.3666;
1255.5000;0.0692;4.3325;
1255.8000;0.0855;4.3739;
1256.1000;0.0863;4.3690;
1256.4000;0.0863;4.3666;
1256.7000;0.0879;4.3714;
1257.0000;0.0716;4.3301;
1257.3000;0.0847;4.3739;
1257.6000;0.0871;4.3714;
1257.9000;0.0847;4.3617;
1258.2000;0.0790;4.3495;
1258.5000;0.0838;4.3617;
1258.8000;0.0781;4.3520;
1259.1000;0.0806;4.3495;
1259.4000;0.0830;4.3520;
1259.7000;0.0855;4.3641;
1260.0000;0.0790;4.3447;
1260.3000;0.0814;4.3471;
1260.6000;0.0904;4.3714;
1260.9000;0.0855;4.3714;
1261.2000;0.0830;4.3714;
1261.5000;0.0830;4.3763;
1261.8000;0.0830;4.3690;
1262.1000;0.0830;4.3666;
1262.4000;0.0822;4.3641;
1262.7000;0.0830;4.3641;
1263.0000;0.0838;4.3690;
1263.3000;0.0830;4.3714;
1263.6000;0.0822;4.3690;
1263.9000;0.0830;4.3666;
1264.2000;0.0830;4.3617;
1264.5000;0.0830;4.3471;
1264.8000;0.0830;4.3520;
1265.1000;0.0847;4.3593;
1265.4000;0.0847;4.3544;
1265.7000;0.0838;4.3544;
1266.0000;0.0822;4.3568;
1266.3000;0.0863;4.3763;
1266.6000;0.0830;4.3641;
1266.9000;0.0806;4.3666;
1267.2000;0.0822;4.3690;
1267.5000;0.0879;4.3836;
1267.8000;0.0822;4.3714;
1268.1000;0.0838;4.3690;
1268.4000;0.0847;4.3666;
1268.7000;0.0855;4.3739;
1269.0000;0.0871;4.3787;
1269.3000;0.0863;4.3885;
1269.6000;0.0838;4.3739;
1269.9000;0.0814;4.3690;
1270.2000;0.0830;4.3739;
1270.5000;0.0830;4.3787;
1270.8000;0.0749;4.3520;
1271.1000;0.0847;4.3787;
1271.4000;0.0855;4.3836;
1271.7000;0.0847;4.3836;
1272.0000;0.0830;4.3739;
1272.3000;0.0879;4.3812;
1272.6000;0.0838;4.3641;
1272.9000;0.0847;4.3714;
1273.2000;0.0838;4.3568;
1273.5000;0.0928;4.3787;
1273.8000;0.0757;4.3276;
1274.1000;0.0822;4.3593;
1274.4000;0.0798;4.3520;
1274.7000;0.0863;4.3617;
1275.0000;0.0855;4.3568;
1275.3000;0.0806;4.3447;
1275.6000;0.0855;4.3617;
1275.9000;0.0847;4.3666;
1276.2000;0.0847;4.3641;
1276.5000;0.0806;4.3544;
1276.8000;0.0847;4.3714;
1277.1000;0.0855;4.3666;
1277.4000;0.0838;4.3641;
1277.7000;0.0863;4.3714;
1278.0000;0.0863;4.3714;
1278.3000;0.0798;4.3544;
1278.6000;0.0879;4.3714;
1278.9000;0.0855;4.3617;
1279.2000;0.0847;4.3714;
1279.5000;0.0847;4.3641;
1279.8000;0.0855;4.3666;
1280.1000;0.0847;4.3641;
1280.4000;0.0822;4.3617;
1280.7000;0.0855;4.3714;
1281.0000;0.0879;4.3812;
1281.3000;0.0838;4.3641;
1281.6000;0.0830;4.3617;
1281.9000;0.0977;4.4006;
1282.2000;0.0961;4.3933;
1282.5000;0.0830;4.3641;
1282.8000;0.0855;4.3666;
1283.1000;0.0822;4.3495;
1283.4000;0.0863;4.3593;
1283.7000;0.0847;4.3666;
1284.0000;0.0806;4.3544;
1284.3000;0.0806;4.3544;
1284.6000;0.0871;4.3544;
1284.9000;0.0887;4.3568;
1285.2000;0.0830;4.3495;
1285.5000;0.0863;4.3520;
1285.8000;0.0855;4.3471;
1286.1000;0.0855;4.3471;
1286.4000;0.0838;4.3447;
1286.7000;0.0847;4.3422;
1287.0000;0.0855;4.3495;
1287.3000;0.0838;4.3568;
1287.6000;0.0855;4.3641;
1287.9000;0.0830;4.3593;
1288.2000;0.0879;4.3641;
1288.5000;0.0838;4.3568;
1288.8000;0.0830;4.3617;
1289.1000;0.0863;4.3666;
1289.4000;0.0863;4.3641;
1289.7000;0.0708;4.3301;
1290.0000;0.0871;4.3812;
1290.3000;0.0814;4.3739;
1290.6000;0.0830;4.3787;
1290.9000;0.0806;4.3666;
1291.2000;0.0855;4.3763;
1291.5000;0.0855;4.3763;
1291.8000;0.0855;4.3763;
1292.1000;0.0830;4.3641;
1292.4000;0.0855;4.3787;
1292.7000;0.0904;4.3885;
1293.0000;0.0863;4.3812;
1293.3000;0.0855;4.3714;
1293.6000;0.0847;4.3763;
1293.9000;0.0847;4.3787;
1294.2000;0.0863;4.3787;
1294.5000;0.0871;4.3836;
1294.8000;0.0871;4.3763;
1295.1000;0.0806;4.3666;
1295.4000;0.0822;4.3666;
1295.7000;0.0855;4.3714;
1296.0000;0.0830;4.3714;
1296.3000;0.0855;4.3787;
1296.6000;0.0838;4.3763;
1296.9000;0.0838;4.3714;
1297.2000;0.0847;4.3714;
1297.5000;0.0830;4.3666;
1297.8000;0.0920;4.3933;
1298.1000;0.0855;4.3714;
1298.4000;0.0838;4.3666;
1298.7000;0.0847;4.3690;
1299.0000;0.0838;4.3666;
1299.3000;0.0863;4.3812;
1299.6000;0.0855;4.3763;
1299.9000;0.0838;4.3690;
1300.2000;0.0879;4.3836;
1300.5000;0.0838;4.3787;
1300.8000;0.0838;4.3812;
1301.1000;0.0855;4.3812;
1301.4000;0.0871;4.3763;
1301.7000;0.0863;4.3739;
1302.0000;0.0855;4.3666;
1302.3000;0.0855;4.3593;
1302.6000;0.0863;4.3690;
1302.9000;0.0855;4.3593;
1303.2000;0.0855;4.3666;
1303.5000;0.0863;4.3666;
1303.8000;0.0724;4.3276;
1304.1000;0.0830;4.3520;
1304.4000;0.0822;4.3495;
1304.7000;0.0863;4.3666;
1305.0000;0.0822;4.3520;
1305.3000;0.0838;4.3593;
1305.6000;0.0863;4.3666;
1305.9000;0.0814;4.3641;
1306.2000;0.0798;4.3520;
1306.5000;0.0855;4.3617;
1306.8000;0.0838;4.3617;
1307.1000;0.0879;4.3714;
1307.4000;0.0830;4.3714;
1307.7000;0.0855;4.3739;
1308.0000;0.0855;4.3787;
1308.3000;0.0830;4.3690;
1308.6000;0.0855;4.3763;
1308.9000;0.0920;4.3982;
1309.2000;0.0847;4.3812;
1309.5000;0.0814;4.3714;
1309.8000;0.0830;4.3690;
1310.1000;0.0855;4.3739;
1310.4000;0.0863;4.3787;
1310.7000;0.0847;4.3739;
1311.0000;0.0773;4.3568;
1311.3000;0.0847;4.3812;
1311.6000;0.0863;4.3787;
1311.9000;0.0741;4.3617;
1312.2000;0.0863;4.3860;
1312.5000;0.0806;4.3666;
1312.8000;0.0855;4.3763;
1313.1000;0.0724;4.3520;
1313.4000;0.0700;4.3301;
1313.7000;0.0822;4.3471;
1314.0000;0.0961;4.3787;
1314.3000;0.0814;4.3398;
1314.6000;0.0757;4.3155;
1314.9000;0.0830;4.3374;
1315.2000;0.0822;4.3349;
1315.5000;0.0887;4.3422;
1315.8000;0.0822;4.3398;
1316.1000;0.0814;4.3374;
1316.4000;0.0855;4.3471;
1316.7000;0.0855;4.3520;
1317.0000;0.0765;4.3325;
1317.3000;0.0847;4.3520;
1317.6000;0.0847;4.3495;
1317.9000;0.0928;4.3812;
1318.2000;0.0830;4.3593;
1318.5000;0.0838;4.3690;
1318.8000;0.0822;4.3666;
1319.1000;0.0855;4.3739;
1319.4000;0.0822;4.3714;
1319.7000;0.0847;4.3714;
1320.0000;0.0855;4.3739;
1320.3000;0.0822;4.3593;
1320.6000;0.0838;4.3617;
1320.9000;0.0855;4.3641;
1321.2000;0.0863;4.3666;
1321.5000;0.0863;4.3787;
1321.8000;0.0814;4.3739;
1322.1000;0.0847;4.3787;
1322.4000;0.0855;4.3812;
1322.7000;0.0871;4.3787;
1323.0000;0.0847;4.3690;
1323.3000;0.0838;4.3739;
1323.6000;0.0830;4.3714;
1323.9000;0.0847;4.3812;
1324.2000;0.0871;4.3909;
1324.5000;0.0863;4.3860;
1324.8000;0.0847;4.3714;
1325.1000;0.0838;4.3739;
1325.4000;0.0830;4.3714;
1325.7000;0.0847;4.3763;
1326.0000;0.0822;4.3739;
1326.3000;0.0838;4.3787;
1326.6000;0.0863;4.3812;
1326.9000;0.0838;4.3714;
1327.2000;0.0855;4.3763;
1327.5000;0.0887;4.3885;
1327.8000;0.0781;4.3617;
1328.1000;0.0847;4.3641;
1328.4000;0.0863;4.3690;
1328.7000;0.0855;4.3617;
1329.0000;0.0912;4.3714;
1329.3000;0.0847;4.3568;
1329.6000;0.0847;4.3666;
1329.9000;0.0936;4.3860;
1330.2000;0.0855;4.3568;
1330.5000;0.0814;4.3495;
1330.8000;0.0847;4.3593;
1331.1000;0.0855;4.3641;
1331.4000;0.0863;4.3714;
1331.7000;0.0847;4.3544;
1332.0000;0.0790;4.3422;
1332.3000;0.0830;4.3568;
1332.6000;0.0863;4.3568;
1332.9000;0.0879;4.3568;
1333.2000;0.0871;4.3495;
1333.5000;0.0847;4.3422;
1333.8000;0.0838;4.3471;
1334.1000;0.0790;4.3374;
1334.4000;0.0871;4.3617;
1334.7000;0.0838;4.3471;
1335.0000;0.0806;4.3349;
1335.3000;0.0928;4.3666;
1335.6000;0.0806;4.3374;
1335.9000;0.0830;4.3422;
1336.2000;0.0830;4.3447;
1336.5000;0.0838;4.3374;
1336.8000;0.0855;4.3447;
1337.1000;0.0757;4.3301;
1337.4000;0.0773;4.3276;
1337.7000;0.0871;4.3568;
1338.0000;0.0855;4.3398;
1338.3000;0.0838;4.3228;
1338.6000;0.0920;4.3447;
1338.9000;0.0863;4.3301;
1339.2000;0.0838;4.3349;
1339.5000;0.0863;4.3349;
1339.8000;0.0847;4.3203;
1340.1000;0.0838;4.3155;
1340.4000;0.0773;4.3082;
1340.7000;0.0814;4.3252;
1341.0000;0.0855;4.3349;
1341.3000;0.0863;4.3422;
1341.6000;0.0855;4.3447;
1341.9000;0.0806;4.3374;
1342.2000;0.0847;4.3544;
1342.5000;0.0838;4.3568;
1342.8000;0.0863;4.3690;
1343.1000;0.0847;4.3641;
1343.4000;0.0887;4.3739;
1343.7000;0.0838;4.3593;
1344.0000;0.0863;4.3714;
1344.3000;0.0822;4.3471;
1344.6000;0.0855;4.3471;
1344.9000;0.0855;4.3568;
1345.2000;0.0847;4.3520;
1345.5000;0.0781;4.3325;
1345.8000;0.0855;4.3471;
1346.1000;0.0855;4.3398;
1346.4000;0.0871;4.3422;
1346.7000;0.0847;4.3447;
1347.0000;0.0830;4.3471;
1347.3000;0.0863;4.3544;
1347.6000;0.0847;4.3544;
1347.9000;0.0887;4.3641;
1348.2000;0.0814;4.3447;
1348.5000;0.0847;4.3544;
1348.8000;0.0838;4.3471;
1349.1000;0.0798;4.3374;
1349.4000;0.0871;4.3520;
1349.7000;0.0855;4.3495;
1350.0000;0.0863;4.3568;
1350.3000;0.0781;4.3301;
1350.6000;0.0863;4.3422;
1350.9000;0.0790;4.3252;
1351.2000;0.0838;4.3495;
1351.5000;0.0879;4.3593;
1351.8000;0.0830;4.3471;
1352.1000;0.0969;4.3836;
1352.4000;0.0838;4.3422;
1352.7000;0.0887;4.3568;
1353.0000;0.0847;4.3471;
1353.3000;0.0912;4.3641;
1353.6000;0.0838;4.3495;
1353.9000;0.0765;4.3349;
1354.2000;0.0838;4.3544;
1354.5000;0.0830;4.3568;
1354.8000;0.0806;4.3471;
1355.1000;0.0838;4.3471;
1355.4000;0.0871;4.3593;
1355.7000;0.0863;4.3617;
1356.0000;0.0847;4.3520;
1356.3000;0.0806;4.3374;
1356.6000;0.0838;4.3398;
1356.9000;0.0855;4.3471;
1357.2000;0.0879;4.3422;
1357.5000;0.0855;4.3471;
1357.8000;0.0855;4.3447;
1358.1000;0.0855;4.3447;
1358.4000;0.0822;4.3349;
1358.7000;0.0855;4.3398;
1359.0000;0.0838;4.3374;
1359.3000;0.0895;4.3447;
1359.6000;0.0847;4.3301;
1359.9000;0.0871;4.3374;
1360.2000;0.0838;4.3471;
1360.5000;0.0847;4.3544;
1360.8000;0.0863;4.3593;
1361.1000;0.0887;4.3666;
1361.4000;0.0773;4.3252;
1361.7000;0.0822;4.3325;
1362.0000;0.0830;4.3349;
1362.3000;0.0847;4.3325;
1362.6000;0.0814;4.3276;
1362.9000;0.0855;4.3374;
1363.2000;0.0863;4.3593;
1363.5000;0.0765;4.3325;
1363.8000;0.0838;4.3495;
1364.1000;0.0855;4.3422;
1364.4000;0.0806;4.3276;
1364.7000;0.0838;4.3349;
1365.0000;0.0830;4.3398;
1365.3000;0.0920;4.3690;
1365.6000;0.0871;4.3593;
1365.9000;0.0863;4.3568;
1366.2000;0.0855;4.3520;
1366.5000;0.0863;4.3641;
1366.8000;0.0879;4.3617;
1367.1000;0.0830;4.3495;
1367.4000;0.0863;4.3568;
1367.7000;0.0855;4.3544;
1368.0000;0.0847;4.3422;
1368.3000;0.0822;4.3252;
1368.6000;0.0814;4.3276;
1368.9000;0.0847;4.3276;
1369.2000;0.0830;4.3349;
1369.5000;0.0855;4.3422;
1369.8000;0.0838;4.3276;
1370.1000;0.0855;4.3301;
1370.4000;0.0798;4.3228;
1370.7000;0.0847;4.3301;
1371.0000;0.0838;4.3252;
1371.3000;0.0830;4.3203;
1371.6000;0.0879;4.3228;
1371.9000;0.0855;4.3155;
1372.2000;0.0847;4.3057;
1372.5000;0.0806;4.2936;
1372.8000;0.0855;4.3155;
1373.1000;0.0830;4.3203;
1373.4000;0.0830;4.3057;
1373.7000;0.0920;4.3228;
1374.0000;0.0798;4.2984;
1374.3000;0.0855;4.3179;
1374.6000;0.0781;4.2984;
1374.9000;0.0871;4.3252;
1375.2000;0.0863;4.3179;
1375.5000;0.0920;4.3374;
1375.8000;0.0830;4.3082;
1376.1000;0.0871;4.3252;
1376.4000;0.0814;4.3155;
1376.7000;0.0855;4.3155;
1377.0000;0.0879;4.3228;
1377.3000;0.0822;4.3155;
1377.6000;0.0822;4.3155;
1377.9000;0.0855;4.3130;
1378.2000;0.0863;4.3179;
1378.5000;0.0863;4.3276;
1378.8000;0.0838;4.3276;
1379.1000;0.0847;4.3374;
1379.4000;0.0863;4.3374;
1379.7000;0.0847;4.3252;
1380.0000;0.0847;4.3228;
1380.3000;0.0863;4.3301;
1380.6000;0.0773;4.3203;
1380.9000;0.0855;4.3422;
1381.2000;0.0871;4.3593;
1381.5000;0.0855;4.3544;
1381.8000;0.0847;4.3520;
1382.1000;0.0961;4.3763;
1382.4000;0.0847;4.3544;
1382.7000;0.0798;4.3374;
1383.0000;0.0838;4.3471;
1383.3000;0.0838;4.3471;
1383.6000;0.0830;4.3471;
1383.9000;0.0855;4.3520;
1384.2000;0.0814;4.3276;
1384.5000;0.0847;4.3349;
1384.8000;0.0822;4.3374;
1385.1000;0.0847;4.3471;
1385.4000;0.0847;4.3495;
1385.7000;0.0838;4.3398;
1386.0000;0.0855;4.3447;
1386.3000;0.0847;4.3471;
1386.6000;0.0855;4.3422;
1386.9000;0.0863;4.3447;
1387.2000;0.0765;4.3228;
1387.5000;0.0871;4.3471;
1387.8000;0.0838;4.3471;
1388.1000;0.0838;4.3520;
1388.4000;0.0863;4.3641;
1388.7000;0.0847;4.3641;
1389.0000;0.0830;4.3520;
1389.3000;0.0847;4.3544;
1389.6000;0.0855;4.3520;
1389.9000;0.0838;4.3422;
1390.2000;0.0887;4.3568;
1390.5000;0.0838;4.3495;
1390.8000;0.0855;4.3568;
1391.1000;0.0871;4.3593;
1391.4000;0.0912;4.3714;
1391.7000;0.0838;4.3447;
1392.0000;0.0855;4.3495;
1392.3000;0.0912;4.3568;
1392.6000;0.0863;4.3447;
1392.9000;0.0928;4.3739;
1393.2000;0.0855;4.3520;
1393.5000;0.0838;4.3593;
1393.8000;0.0993;4.3933;
1394.1000;0.0847;4.3471;
1394.4000;0.0863;4.3544;
1394.7000;0.0847;4.3520;
1395.0000;0.0847;4.3447;
1395.3000;0.0830;4.3447;
1395.6000;0.0855;4.3520;
1395.9000;0.0781;4.3349;
1396.2000;0.0847;4.3374;
1396.5000;0.0724;4.3033;
1396.8000;0.0806;4.3276;
1397.1000;0.0814;4.3374;
1397.4000;0.0879;4.3471;
1397.7000;0.0830;4.3349;
1398.0000;0.0822;4.3349;
1398.3000;0.0773;4.3252;
1398.6000;0.0855;4.3422;
1398.9000;0.0985;4.3739;
1399.2000;0.0855;4.3301;
1399.5000;0.0814;4.3203;
1399.8000;0.0863;4.3374;
