time/ms;Fluo/V;P700 deltaI/I x10³;
-199.8000;0.0944;4.3568;
-199.5000;0.1009;4.3763;
-199.2000;0.0952;4.3520;
-198.9000;0.0895;4.3422;
-198.6000;0.1050;4.3860;
-198.3000;0.0928;4.3593;
-198.0000;0.0944;4.3617;
-197.7000;0.0912;4.3495;
-197.4000;0.0920;4.3495;
-197.1000;0.0928;4.3471;
-196.8000;0.0952;4.3520;
-196.5000;0.0977;4.3593;
-196.2000;0.0977;4.3617;
-195.9000;0.0928;4.3520;
-195.6000;0.0936;4.3471;
-195.3000;0.1009;4.3690;
-195.0000;0.0944;4.3568;
-194.7000;0.0928;4.3593;
-194.4000;0.0936;4.3617;
-194.1000;0.0871;4.3398;
-193.8000;0.0969;4.3690;
-193.5000;0.0855;4.3349;
-193.2000;0.0985;4.3641;
-192.9000;0.0936;4.3520;
-192.6000;0.0895;4.3495;
-192.3000;0.0985;4.3714;
-192.0000;0.0944;4.3520;
-191.7000;0.0920;4.3447;
-191.4000;0.0928;4.3374;
-191.1000;0.0952;4.3398;
-190.8000;0.0944;4.3374;
-190.5000;0.0920;4.3228;
-190.2000;0.0928;4.3228;
-189.9000;0.0904;4.3252;
-189.6000;0.0961;4.3447;
-189.3000;0.0928;4.3495;
-189.0000;0.0952;4.3447;
-188.7000;0.0952;4.3422;
-188.4000;0.0961;4.3398;
-188.1000;0.0936;4.3398;
-187.8000;0.0952;4.3301;
-187.5000;0.0928;4.3276;
-187.2000;0.0855;4.3106;
-186.9000;0.0936;4.3349;
-186.6000;0.0952;4.3447;
-186.3000;0.0936;4.3374;
-186.0000;0.0928;4.3471;
-185.7000;0.0928;4.3398;
-185.4000;0.0936;4.3398;
-185.1000;0.0936;4.3301;
-184.8000;0.1066;4.3641;
-184.5000;0.0928;4.3325;
-184.2000;0.0944;4.3374;
-183.9000;0.0944;4.3301;
-183.6000;0.0961;4.3495;
-183.3000;0.0822;4.3155;
-183.0000;0.0928;4.3520;
-182.7000;0.0863;4.3349;
-182.4000;0.0887;4.3349;
-182.1000;0.0952;4.3568;
-181.8000;0.0952;4.3617;
-181.5000;0.0928;4.3495;
-181.2000;0.0814;4.3179;
-180.9000;0.0944;4.3495;
-180.6000;0.0944;4.3520;
-180.3000;0.0920;4.3544;
-180.0000;0.0936;4.3544;
-179.7000;0.0920;4.3544;
-179.4000;0.0912;4.3349;
-179.1000;0.0936;4.3398;
-178.8000;0.0936;4.3301;
-178.5000;0.0920;4.3301;
-178.2000;0.0928;4.3252;
-177.9000;0.0944;4.3252;
-177.6000;0.0944;4.3301;
-177.3000;0.0944;4.3398;
-177.0000;0.0952;4.3325;
-176.7000;0.0887;4.3082;
-176.4000;0.0920;4.3228;
-176.1000;0.0928;4.3203;
-175.8000;0.0936;4.3179;
-175.5000;0.0961;4.3228;
-175.2000;0.0936;4.3203;
-174.9000;0.0928;4.3325;
-174.6000;0.0952;4.3471;
-174.3000;0.0961;4.3568;
-174.0000;0.0936;4.3544;
-173.7000;0.0944;4.3495;
-173.4000;0.0952;4.3520;
-173.1000;0.0912;4.3422;
-172.8000;0.0855;4.3228;
-172.5000;0.0961;4.3447;
-172.2000;0.0977;4.3617;
-171.9000;0.0993;4.3666;
-171.6000;0.0936;4.3520;
-171.3000;0.0928;4.3471;
-171.0000;0.0928;4.3568;
-170.7000;0.0912;4.3641;
-170.4000;0.0977;4.3641;
-170.1000;0.0928;4.3544;
-169.8000;0.0985;4.3690;
-169.5000;0.0928;4.3447;
-169.2000;0.0936;4.3422;
-168.9000;0.0936;4.3520;
-168.6000;0.0936;4.3568;
-168.3000;0.0936;4.3568;
-168.0000;0.0952;4.3568;
-167.7000;0.0952;4.3544;
-167.4000;0.0871;4.3398;
-167.1000;0.0952;4.3544;
-166.8000;0.0928;4.3568;
-166.5000;0.0952;4.3568;
-166.2000;0.0936;4.3398;
-165.9000;0.0920;4.3301;
-165.6000;0.0977;4.3495;
-165.3000;0.0944;4.3495;
-165.0000;0.0952;4.3568;
-164.7000;0.0928;4.3568;
-164.4000;0.0928;4.3520;
-164.1000;0.0895;4.3447;
-163.8000;0.0985;4.3593;
-163.5000;0.0961;4.3495;
-163.2000;0.0887;4.3398;
-162.9000;0.0952;4.3495;
-162.6000;0.0928;4.3398;
-162.3000;0.0936;4.3374;
-162.0000;0.0814;4.2960;
-161.7000;0.0944;4.3228;
-161.4000;0.0912;4.3179;
-161.1000;0.0912;4.3252;
-160.8000;0.0928;4.3252;
-160.5000;0.1001;4.3447;
-160.2000;0.1001;4.3471;
-159.9000;0.0912;4.3252;
-159.6000;0.0871;4.3130;
-159.3000;0.0969;4.3349;
-159.0000;0.0969;4.3422;
-158.7000;0.0920;4.3252;
-158.4000;0.0985;4.3374;
-158.1000;0.0871;4.3179;
-157.8000;0.0969;4.3520;
-157.5000;0.0969;4.3544;
-157.2000;0.0879;4.3301;
-156.9000;0.0961;4.3520;
-156.6000;0.0952;4.3593;
-156.3000;0.0928;4.3568;
-156.0000;0.0920;4.3593;
-155.7000;0.0928;4.3520;
-155.4000;0.0920;4.3398;
-155.1000;0.0879;4.3301;
-154.8000;0.0928;4.3471;
-154.5000;0.0952;4.3593;
-154.2000;0.0944;4.3520;
-153.9000;0.0961;4.3520;
-153.6000;0.0952;4.3544;
-153.3000;0.0912;4.3349;
-153.0000;0.0920;4.3374;
-152.7000;0.0936;4.3447;
-152.4000;0.0936;4.3447;
-152.1000;0.0944;4.3422;
-151.8000;0.0969;4.3495;
-151.5000;0.0936;4.3495;
-151.2000;0.0912;4.3447;
-150.9000;0.0985;4.3593;
-150.6000;0.0936;4.3520;
-150.3000;0.0944;4.3471;
-150.0000;0.0920;4.3422;
-149.7000;0.0879;4.3349;
-149.4000;0.0969;4.3520;
-149.1000;0.0936;4.3495;
-148.8000;0.0936;4.3520;
-148.5000;0.0993;4.3593;
-148.2000;0.0969;4.3422;
-147.9000;0.0944;4.3398;
-147.6000;0.0936;4.3349;
-147.3000;0.0928;4.3471;
-147.0000;0.0920;4.3398;
-146.7000;0.0985;4.3520;
-146.4000;0.0912;4.3252;
-146.1000;0.0920;4.3301;
-145.8000;0.0920;4.3203;
-145.5000;0.0822;4.2936;
-145.2000;0.0961;4.3203;
-144.9000;0.0928;4.3203;
-144.6000;0.0773;4.2838;
-144.3000;0.0928;4.3301;
-144.0000;0.0952;4.3349;
-143.7000;0.0871;4.3106;
-143.4000;0.1042;4.3568;
-143.1000;0.0985;4.3398;
-142.8000;0.0928;4.3252;
-142.5000;0.0871;4.3155;
-142.2000;0.0961;4.3495;
-141.9000;0.0928;4.3422;
-141.6000;0.0904;4.3349;
-141.3000;0.0904;4.3325;
-141.0000;0.0936;4.3398;
-140.7000;0.0920;4.3325;
-140.4000;0.0928;4.3349;
-140.1000;0.0952;4.3495;
-139.8000;0.1018;4.3666;
-139.5000;0.0928;4.3495;
-139.2000;0.0969;4.3641;
-138.9000;0.0920;4.3495;
-138.6000;0.0871;4.3252;
-138.3000;0.0928;4.3422;
-138.0000;0.1026;4.3641;
-137.7000;0.0985;4.3471;
-137.4000;0.0961;4.3495;
-137.1000;0.0904;4.3398;
-136.8000;0.0936;4.3422;
-136.5000;0.0904;4.3398;
-136.2000;0.1009;4.3617;
-135.9000;0.0936;4.3349;
-135.6000;0.0969;4.3422;
-135.3000;0.0952;4.3374;
-135.0000;0.1001;4.3520;
-134.7000;0.0944;4.3398;
-134.4000;0.0944;4.3301;
-134.1000;0.1018;4.3447;
-133.8000;0.0961;4.3301;
-133.5000;0.0944;4.3349;
-133.2000;0.0944;4.3325;
-132.9000;0.0977;4.3471;
-132.6000;0.0952;4.3422;
-132.3000;0.0936;4.3349;
-132.0000;0.0944;4.3349;
-131.7000;0.0944;4.3422;
-131.4000;0.0944;4.3422;
-131.1000;0.0936;4.3349;
-130.8000;0.0928;4.3325;
-130.5000;0.0904;4.3252;
-130.2000;0.0961;4.3301;
-129.9000;0.0969;4.3398;
-129.6000;0.0977;4.3374;
-129.3000;0.0936;4.3252;
-129.0000;0.0961;4.3301;
-128.7000;0.0920;4.3203;
-128.4000;0.0961;4.3252;
-128.1000;0.0952;4.3203;
-127.8000;0.0944;4.3179;
-127.5000;0.0936;4.3179;
-127.2000;0.0944;4.3203;
-126.9000;0.0863;4.3033;
-126.6000;0.0952;4.3276;
-126.3000;0.0936;4.3301;
-126.0000;0.0961;4.3325;
-125.7000;0.0936;4.3325;
-125.4000;0.0969;4.3520;
-125.1000;0.0961;4.3593;
-124.8000;0.0944;4.3641;
-124.5000;0.1034;4.3885;
-124.2000;0.0936;4.3520;
-123.9000;0.0952;4.3593;
-123.6000;0.1083;4.3933;
-123.3000;0.0920;4.3471;
-123.0000;0.1026;4.3739;
-122.7000;0.0961;4.3520;
-122.4000;0.0920;4.3422;
-122.1000;0.0944;4.3447;
-121.8000;0.0944;4.3520;
-121.5000;0.1172;4.4226;
-121.2000;0.0944;4.3593;
-120.9000;0.0920;4.3641;
-120.6000;0.0944;4.3617;
-120.3000;0.0920;4.3495;
-120.0000;0.0912;4.3374;
-119.7000;0.0871;4.3252;
-119.4000;0.0944;4.3398;
-119.1000;0.0944;4.3325;
-118.8000;0.0944;4.3301;
-118.5000;0.0944;4.3301;
-118.2000;0.0936;4.3349;
-117.9000;0.0952;4.3398;
-117.6000;0.0936;4.3495;
-117.3000;0.0928;4.3422;
-117.0000;0.0969;4.3495;
-116.7000;0.0920;4.3252;
-116.4000;0.0985;4.3447;
-116.1000;0.0928;4.3203;
-115.8000;0.0879;4.3033;
-115.5000;0.0928;4.3203;
-115.2000;0.0969;4.3228;
-114.9000;0.0944;4.3228;
-114.6000;0.0920;4.3179;
-114.3000;0.0912;4.3155;
-114.0000;0.0904;4.3082;
-113.7000;0.0928;4.3179;
-113.4000;0.0944;4.3155;
-113.1000;0.0847;4.2911;
-112.8000;0.0920;4.3130;
-112.5000;0.0936;4.3130;
-112.2000;0.0928;4.3130;
-111.9000;0.0928;4.3106;
-111.6000;0.0944;4.3228;
-111.3000;0.0944;4.3276;
-111.0000;0.0814;4.2984;
-110.7000;0.0961;4.3398;
-110.4000;0.0920;4.3398;
-110.1000;0.0952;4.3349;
-109.8000;0.0969;4.3398;
-109.5000;0.0961;4.3520;
-109.2000;0.0928;4.3422;
-108.9000;0.0855;4.3276;
-108.6000;0.0928;4.3447;
-108.3000;0.0952;4.3495;
-108.0000;0.0944;4.3495;
-107.7000;0.0969;4.3641;
-107.4000;0.0952;4.3520;
-107.1000;0.0895;4.3349;
-106.8000;0.0944;4.3520;
-106.5000;0.0928;4.3422;
-106.2000;0.0969;4.3593;
-105.9000;0.1026;4.3739;
-105.6000;0.0928;4.3471;
-105.3000;0.0936;4.3495;
-105.0000;0.0961;4.3520;
-104.7000;0.0944;4.3447;
-104.4000;0.0944;4.3495;
-104.1000;0.0944;4.3422;
-103.8000;0.0952;4.3398;
-103.5000;0.0928;4.3276;
-103.2000;0.0936;4.3325;
-102.9000;0.0944;4.3349;
-102.6000;0.0936;4.3374;
-102.3000;0.0936;4.3349;
-102.0000;0.0952;4.3422;
-101.7000;0.0920;4.3252;
-101.4000;0.0928;4.3349;
-101.1000;0.0904;4.3301;
-100.8000;0.1009;4.3593;
-100.5000;0.0920;4.3398;
-100.2000;0.0944;4.3422;
-99.9000;0.0928;4.3349;
-99.6000;0.0863;4.3179;
-99.3000;0.0920;4.3349;
-99.0000;0.0961;4.3495;
-98.7000;0.0928;4.3398;
-98.4000;0.0936;4.3374;
-98.1000;0.0936;4.3349;
-97.8000;0.0952;4.3471;
-97.5000;0.0944;4.3593;
-97.2000;0.0952;4.3690;
-96.9000;0.0920;4.3495;
-96.6000;0.0944;4.3520;
-96.3000;0.0944;4.3447;
-96.0000;0.0912;4.3398;
-95.7000;0.0920;4.3325;
-95.4000;0.0928;4.3349;
-95.1000;0.0936;4.3398;
-94.8000;0.0952;4.3544;
-94.5000;0.0944;4.3593;
-94.2000;0.0928;4.3422;
-93.9000;0.0928;4.3325;
-93.6000;0.0961;4.3422;
-93.3000;0.0952;4.3422;
-93.0000;0.0969;4.3471;
-92.7000;0.0936;4.3447;
-92.4000;0.0871;4.3228;
-92.1000;0.0944;4.3471;
-91.8000;0.0928;4.3447;
-91.5000;0.0952;4.3422;
-91.2000;0.0920;4.3398;
-90.9000;0.0928;4.3398;
-90.6000;0.0838;4.3155;
-90.3000;0.0920;4.3422;
-90.0000;0.0936;4.3422;
-89.7000;0.0904;4.3374;
-89.4000;0.0936;4.3447;
-89.1000;0.0952;4.3447;
-88.8000;0.0985;4.3520;
-88.5000;0.0961;4.3471;
-88.2000;0.0936;4.3422;
-87.9000;0.0961;4.3447;
-87.6000;0.0936;4.3349;
-87.3000;0.0912;4.3301;
-87.0000;0.0936;4.3301;
-86.7000;0.0952;4.3301;
-86.4000;0.1042;4.3568;
-86.1000;0.0969;4.3398;
-85.8000;0.0952;4.3325;
-85.5000;0.0952;4.3374;
-85.2000;0.0863;4.3155;
-84.9000;0.0944;4.3349;
-84.6000;0.0928;4.3301;
-84.3000;0.0895;4.3252;
-84.0000;0.0936;4.3422;
-83.7000;0.1074;4.3812;
-83.4000;0.0944;4.3447;
-83.1000;0.0977;4.3568;
-82.8000;0.0944;4.3398;
-82.5000;0.0928;4.3349;
-82.2000;0.0961;4.3349;
-81.9000;0.0952;4.3325;
-81.6000;0.0952;4.3374;
-81.3000;0.0920;4.3228;
-81.0000;0.0944;4.3325;
-80.7000;0.0944;4.3398;
-80.4000;0.0977;4.3471;
-80.1000;0.0944;4.3568;
-79.8000;0.0936;4.3568;
-79.5000;0.0961;4.3690;
-79.2000;0.0993;4.3763;
-78.9000;0.0944;4.3666;
-78.6000;0.0969;4.3641;
-78.3000;0.0952;4.3593;
-78.0000;0.0904;4.3398;
-77.7000;0.0936;4.3471;
-77.4000;0.0920;4.3349;
-77.1000;0.0961;4.3520;
-76.8000;0.0912;4.3422;
-76.5000;0.0912;4.3422;
-76.2000;0.0912;4.3422;
-75.9000;0.0936;4.3471;
-75.6000;0.0830;4.3130;
-75.3000;0.0936;4.3422;
-75.0000;0.0944;4.3374;
-74.7000;0.0936;4.3374;
-74.4000;0.1018;4.3544;
-74.1000;0.0977;4.3471;
-73.8000;0.0944;4.3398;
-73.5000;0.0936;4.3447;
-73.2000;0.0936;4.3495;
-72.9000;0.1009;4.3714;
-72.6000;0.0961;4.3374;
-72.3000;0.0920;4.3349;
-72.0000;0.0944;4.3422;
-71.7000;0.0944;4.3495;
-71.4000;0.0928;4.3398;
-71.1000;0.0952;4.3520;
-70.8000;0.0936;4.3544;
-70.5000;0.0936;4.3447;
-70.2000;0.0961;4.3447;
-69.9000;0.0944;4.3447;
-69.6000;0.0961;4.3495;
-69.3000;0.0961;4.3495;
-69.0000;0.0928;4.3422;
-68.7000;0.0969;4.3495;
-68.4000;0.1066;4.3787;
-68.1000;0.0904;4.3349;
-67.8000;0.0928;4.3398;
-67.5000;0.0830;4.3155;
-67.2000;0.0879;4.3301;
-66.9000;0.0952;4.3544;
-66.6000;0.0993;4.3544;
-66.3000;0.1099;4.3836;
-66.0000;0.0879;4.3179;
-65.7000;0.0961;4.3422;
-65.4000;0.0977;4.3544;
-65.1000;0.0798;4.3106;
-64.8000;0.0855;4.3252;
-64.5000;0.0944;4.3398;
-64.2000;0.0969;4.3471;
-63.9000;0.0920;4.3276;
-63.6000;0.0952;4.3325;
-63.3000;0.0936;4.3374;
-63.0000;0.0944;4.3398;
-62.7000;0.0977;4.3471;
-62.4000;0.0936;4.3422;
-62.1000;0.0952;4.3447;
-61.8000;0.0928;4.3398;
-61.5000;0.0944;4.3471;
-61.2000;0.0936;4.3520;
-60.9000;0.0920;4.3422;
-60.6000;0.0895;4.3471;
-60.3000;0.0944;4.3495;
-60.0000;0.0928;4.3495;
-59.7000;0.0920;4.3447;
-59.4000;0.0920;4.3495;
-59.1000;0.0936;4.3641;
-58.8000;0.0928;4.3593;
-58.5000;0.0977;4.3714;
-58.2000;0.0936;4.3641;
-57.9000;0.0936;4.3617;
-57.6000;0.0952;4.3617;
-57.3000;0.0952;4.3641;
-57.0000;0.0904;4.3447;
-56.7000;0.0961;4.3568;
-56.4000;0.0961;4.3593;
-56.1000;0.0944;4.3520;
-55.8000;0.0928;4.3520;
-55.5000;0.0944;4.3495;
-55.2000;0.0936;4.3568;
-54.9000;0.0944;4.3544;
-54.6000;0.0969;4.3593;
-54.3000;0.0952;4.3593;
-54.0000;0.0904;4.3398;
-53.7000;0.0928;4.3520;
-53.4000;0.0936;4.3520;
-53.1000;0.0912;4.3495;
-52.8000;0.0920;4.3617;
-52.5000;0.0944;4.3593;
-52.2000;0.0920;4.3520;
-51.9000;0.0961;4.3568;
-51.6000;0.0855;4.3301;
-51.3000;0.0961;4.3520;
-51.0000;0.0928;4.3544;
-50.7000;0.0944;4.3568;
-50.4000;0.0969;4.3593;
-50.1000;0.0920;4.3520;
-49.8000;0.0920;4.3520;
-49.5000;0.0936;4.3666;
-49.2000;0.0944;4.3739;
-48.9000;0.0969;4.3909;
-48.6000;0.0952;4.3836;
-48.3000;0.0969;4.3860;
-48.0000;0.0920;4.3714;
-47.7000;0.0952;4.3666;
-47.4000;0.0969;4.3787;
-47.1000;0.0952;4.3666;
-46.8000;0.0928;4.3544;
-46.5000;0.0952;4.3593;
-46.2000;0.0936;4.3593;
-45.9000;0.0936;4.3641;
-45.6000;0.0887;4.3422;
-45.3000;0.0985;4.3787;
-45.0000;0.0944;4.3641;
-44.7000;0.0863;4.3471;
-44.4000;0.0969;4.3714;
-44.1000;0.0928;4.3520;
-43.8000;0.0863;4.3398;
-43.5000;0.0944;4.3495;
-43.2000;0.0961;4.3544;
-42.9000;0.0944;4.3568;
-42.6000;0.0944;4.3568;
-42.3000;0.0936;4.3617;
-42.0000;0.0936;4.3617;
-41.7000;0.0936;4.3593;
-41.4000;0.0952;4.3593;
-41.1000;0.0936;4.3520;
-40.8000;0.0936;4.3520;
-40.5000;0.0944;4.3544;
-40.2000;0.0944;4.3593;
-39.9000;0.0944;4.3544;
-39.6000;0.0936;4.3617;
-39.3000;0.0961;4.3593;
-39.0000;0.0912;4.3471;
-38.7000;0.0936;4.3593;
-38.4000;0.0928;4.3641;
-38.1000;0.0969;4.3739;
-37.8000;0.0936;4.3593;
-37.5000;0.0944;4.3544;
-37.2000;0.0920;4.3471;
-36.9000;0.0928;4.3422;
-36.6000;0.0912;4.3398;
-36.3000;0.0944;4.3471;
-36.0000;0.0936;4.3520;
-35.7000;0.0961;4.3520;
-35.4000;0.0952;4.3544;
-35.1000;0.0985;4.3544;
-34.8000;0.0961;4.3568;
-34.5000;0.0936;4.3568;
-34.2000;0.0936;4.3544;
-33.9000;0.0944;4.3568;
-33.6000;0.0961;4.3593;
-33.3000;0.0928;4.3471;
-33.0000;0.0920;4.3471;
-32.7000;0.0912;4.3471;
-32.4000;0.0952;4.3593;
-32.1000;0.0952;4.3568;
-31.8000;0.0961;4.3593;
-31.5000;0.1123;4.3933;
-31.2000;0.0952;4.3520;
-30.9000;0.0944;4.3593;
-30.6000;0.0920;4.3520;
-30.3000;0.0961;4.3568;
-30.0000;0.0936;4.3495;
-29.7000;0.1034;4.3714;
-29.4000;0.0977;4.3593;
-29.1000;0.0936;4.3471;
-28.8000;0.0936;4.3495;
-28.5000;0.0887;4.3325;
-28.2000;0.0977;4.3495;
-27.9000;0.0952;4.3520;
-27.6000;0.0887;4.3422;
-27.3000;0.0944;4.3617;
-27.0000;0.0928;4.3520;
-26.7000;0.0855;4.3325;
-26.4000;0.0928;4.3447;
-26.1000;0.0944;4.3374;
-25.8000;0.0928;4.3276;
-25.5000;0.0904;4.3349;
-25.2000;0.0952;4.3398;
-24.9000;0.0928;4.3349;
-24.6000;0.0944;4.3398;
-24.3000;0.0936;4.3447;
-24.0000;0.0920;4.3422;
-23.7000;0.0977;4.3544;
-23.4000;0.1018;4.3641;
-23.1000;0.0961;4.3495;
-22.8000;0.0920;4.3471;
-22.5000;0.0936;4.3544;
-22.2000;0.0928;4.3447;
-21.9000;0.0936;4.3447;
-21.6000;0.0944;4.3471;
-21.3000;0.0904;4.3471;
-21.0000;0.0928;4.3544;
-20.7000;0.0928;4.3471;
-20.4000;0.0871;4.3228;
-20.1000;0.0977;4.3544;
-19.8000;0.0936;4.3471;
-19.5000;0.0952;4.3495;
-19.2000;0.0912;4.3520;
-18.9000;0.0920;4.3544;
-18.6000;0.0920;4.3593;
-18.3000;0.0952;4.3714;
-18.0000;0.0993;4.3739;
-17.7000;0.0952;4.3641;
-17.4000;0.0969;4.3593;
-17.1000;0.0895;4.3422;
-16.8000;0.0936;4.3593;
-16.5000;0.0944;4.3593;
-16.2000;0.0928;4.3593;
-15.9000;0.0944;4.3568;
-15.6000;0.0912;4.3544;
-15.3000;0.0928;4.3544;
-15.0000;0.0985;4.3714;
-14.7000;0.0969;4.3714;
-14.4000;0.0952;4.3617;
-14.1000;0.0952;4.3568;
-13.8000;0.0936;4.3520;
-13.5000;0.0912;4.3398;
-13.2000;0.0944;4.3495;
-12.9000;0.0961;4.3568;
-12.6000;0.0944;4.3495;
-12.3000;0.0871;4.3301;
-12.0000;0.0936;4.3447;
-11.7000;0.0928;4.3349;
-11.4000;0.0944;4.3325;
-11.1000;0.0920;4.3301;
-10.8000;0.0952;4.3447;
-10.5000;0.0952;4.3447;
-10.2000;0.0936;4.3398;
-9.9000;0.0895;4.3276;
-9.6000;0.0920;4.3398;
-9.3000;0.0928;4.3349;
-9.0000;0.0895;4.3276;
-8.7000;0.0904;4.3155;
-8.4000;0.0912;4.3228;
-8.1000;0.0977;4.3349;
-7.8000;0.0952;4.3325;
-7.5000;0.0944;4.3422;
-7.2000;0.1009;4.3593;
-6.9000;0.0887;4.3228;
-6.6000;0.0944;4.3325;
-6.3000;0.0944;4.3325;
-6.0000;0.0961;4.3374;
-5.7000;0.0904;4.3228;
-5.4000;0.0944;4.3325;
-5.1000;0.0887;4.3203;
-4.8000;0.0912;4.3276;
-4.5000;0.0985;4.3447;
-4.2000;0.0944;4.3276;
-3.9000;0.0936;4.3252;
-3.6000;0.0936;4.3276;
-3.3000;0.0944;4.3301;
-3.0000;0.0936;4.3155;
-2.7000;0.0936;4.3130;
-2.4000;0.0855;4.2936;
-2.1000;0.0928;4.3228;
-1.8000;0.0928;4.3203;
-1.5000;0.0936;4.3228;
-1.2000;0.0920;4.3203;
-0.9000;0.0944;4.3276;
-0.6000;0.0944;4.3252;
-0.3000;0.0952;4.3301;
0.0000;0.0952;4.3301;
0.3000;0.0936;4.2911;
0.6000;0.0920;4.3009;
0.9000;0.0977;4.3349;
1.2000;0.0952;4.3471;
1.5000;0.1001;4.3641;
1.8000;0.1042;4.3885;
2.1000;0.1009;4.3885;
2.4000;0.1001;4.3909;
2.7000;0.1042;4.4128;
3.0000;0.1018;4.4128;
3.3000;0.1074;4.4347;
3.6000;0.1018;4.4250;
3.9000;0.1001;4.4323;
4.2000;0.1123;4.4639;
4.5000;0.1026;4.4372;
4.8000;0.1034;4.4469;
5.1000;0.1001;4.4299;
5.4000;0.0961;4.4201;
5.7000;0.1018;4.4347;
6.0000;0.1042;4.4347;
6.3000;0.1042;4.4420;
6.6000;0.1009;4.4469;
6.9000;0.1050;4.4542;
7.2000;0.1050;4.4518;
7.5000;0.1018;4.4469;
7.8000;0.0993;4.4420;
8.1000;0.0993;4.4445;
8.4000;0.1018;4.4469;
8.7000;0.1001;4.4372;
9.0000;0.1026;4.4445;
9.3000;0.1131;4.4664;
9.6000;0.1034;4.4542;
9.9000;0.1066;4.4639;
10.2000;0.0961;4.4372;
10.5000;0.1042;4.4639;
10.8000;0.1148;4.4810;
11.1000;0.1066;4.4542;
11.4000;0.0993;4.4372;
11.7000;0.1018;4.4445;
12.0000;0.1042;4.4518;
12.3000;0.1026;4.4469;
12.6000;0.1058;4.4518;
12.9000;0.1034;4.4396;
13.2000;0.1050;4.4396;
13.5000;0.1050;4.4445;
13.8000;0.1050;4.4445;
14.1000;0.1034;4.4396;
14.4000;0.1034;4.4372;
14.7000;0.1042;4.4445;
15.0000;0.1058;4.4445;
15.3000;0.1058;4.4396;
15.6000;0.1001;4.4226;
15.9000;0.1034;4.4469;
16.2000;0.1050;4.4615;
16.5000;0.0961;4.4469;
16.8000;0.1034;4.4834;
17.1000;0.1001;4.4639;
17.4000;0.1058;4.4785;
17.7000;0.1009;4.4615;
18.0000;0.1009;4.4615;
18.3000;0.0969;4.4542;
18.6000;0.0993;4.4615;
18.9000;0.1058;4.4639;
19.2000;0.1009;4.4566;
19.5000;0.1034;4.4615;
19.8000;0.1034;4.4591;
20.1000;0.1042;4.4518;
20.4000;0.1018;4.4420;
20.7000;0.1050;4.4469;
21.0000;0.1050;4.4493;
21.3000;0.1074;4.4493;
21.6000;0.1058;4.4615;
21.9000;0.1026;4.4542;
22.2000;0.1018;4.4566;
22.5000;0.1050;4.4615;
22.8000;0.1034;4.4615;
23.1000;0.1042;4.4664;
23.4000;0.1050;4.4615;
23.7000;0.0977;4.4372;
24.0000;0.1042;4.4591;
24.3000;0.1001;4.4542;
24.6000;0.0928;4.4347;
24.9000;0.1074;4.4664;
25.2000;0.1042;4.4615;
25.5000;0.1042;4.4639;
25.8000;0.1123;4.4956;
26.1000;0.1042;4.4810;
26.4000;0.1042;4.4810;
26.7000;0.1009;4.4761;
27.0000;0.1074;4.4931;
27.3000;0.1026;4.4785;
27.6000;0.1058;4.4858;
27.9000;0.1058;4.4737;
28.2000;0.1034;4.4712;
28.5000;0.1009;4.4664;
28.8000;0.1026;4.4639;
29.1000;0.1009;4.4566;
29.4000;0.1042;4.4639;
29.7000;0.1001;4.4420;
30.0000;0.1050;4.4615;
30.3000;0.1058;4.4518;
30.6000;0.1083;4.4615;
30.9000;0.1083;4.4664;
31.2000;0.1066;4.4542;
31.5000;0.1066;4.4518;
31.8000;0.0977;4.4299;
32.1000;0.1050;4.4542;
32.4000;0.1050;4.4542;
32.7000;0.1066;4.4639;
33.0000;0.1058;4.4688;
33.3000;0.1066;4.4639;
33.6000;0.1066;4.4518;
33.9000;0.1034;4.4469;
34.2000;0.1042;4.4493;
34.5000;0.1034;4.4566;
34.8000;0.1034;4.4591;
35.1000;0.1058;4.4664;
35.4000;0.1197;4.5053;
35.7000;0.1050;4.4664;
36.0000;0.1066;4.4761;
36.3000;0.1018;4.4566;
36.6000;0.1066;4.4761;
36.9000;0.1083;4.4785;
37.2000;0.1066;4.4688;
37.5000;0.1001;4.4493;
37.8000;0.1058;4.4591;
38.1000;0.1042;4.4518;
38.4000;0.0993;4.4493;
38.7000;0.0977;4.4469;
39.0000;0.1058;4.4737;
39.3000;0.1034;4.4664;
39.6000;0.1042;4.4688;
39.9000;0.1066;4.4761;
40.2000;0.1058;4.4785;
40.5000;0.1066;4.4761;
40.8000;0.1074;4.4785;
41.1000;0.1050;4.4737;
41.4000;0.0993;4.4469;
41.7000;0.1083;4.4712;
42.0000;0.1050;4.4615;
42.3000;0.1009;4.4469;
42.6000;0.1066;4.4712;
42.9000;0.1042;4.4639;
43.2000;0.1050;4.4688;
43.5000;0.1066;4.4688;
43.8000;0.1058;4.4591;
44.1000;0.1066;4.4639;
44.4000;0.1026;4.4518;
44.7000;0.1074;4.4761;
45.0000;0.1115;4.4858;
45.3000;0.1026;4.4688;
45.6000;0.1083;4.4737;
45.9000;0.1074;4.4688;
46.2000;0.1026;4.4493;
46.5000;0.1074;4.4688;
46.8000;0.1091;4.4785;
47.1000;0.1050;4.4712;
47.4000;0.1074;4.4591;
47.7000;0.1066;4.4615;
48.0000;0.1034;4.4615;
48.3000;0.1034;4.4664;
48.6000;0.1091;4.4858;
48.9000;0.1083;4.4834;
49.2000;0.1188;4.5077;
49.5000;0.1066;4.4810;
49.8000;0.1058;4.4907;
50.1000;0.1042;4.4907;
50.4000;0.1066;4.4980;
50.7000;0.1066;4.5004;
51.0000;0.1050;4.4931;
51.3000;0.1066;4.4956;
51.6000;0.1058;4.4931;
51.9000;0.1074;4.4980;
52.2000;0.1066;4.4883;
52.5000;0.1099;4.4931;
52.8000;0.1083;4.4907;
53.1000;0.1058;4.4883;
53.4000;0.1058;4.4858;
53.7000;0.0993;4.4785;
54.0000;0.1050;4.4931;
54.3000;0.1083;4.5077;
54.6000;0.1018;4.4931;
54.9000;0.1058;4.5029;
55.2000;0.1058;4.4980;
55.5000;0.1050;4.5004;
55.8000;0.1091;4.5077;
56.1000;0.1050;4.4931;
56.4000;0.1034;4.4834;
56.7000;0.1066;4.4907;
57.0000;0.1164;4.5150;
57.3000;0.1058;4.4858;
57.6000;0.1074;4.4931;
57.9000;0.1058;4.4834;
58.2000;0.1058;4.4834;
58.5000;0.1058;4.4761;
58.8000;0.1050;4.4688;
59.1000;0.1074;4.4761;
59.4000;0.1050;4.4615;
59.7000;0.1026;4.4542;
60.0000;0.1058;4.4591;
60.3000;0.1042;4.4615;
60.6000;0.1066;4.4566;
60.9000;0.1066;4.4542;
61.2000;0.1034;4.4445;
61.5000;0.1034;4.4493;
61.8000;0.1066;4.4542;
62.1000;0.1074;4.4591;
62.4000;0.1188;4.4956;
62.7000;0.1091;4.4712;
63.0000;0.1074;4.4712;
63.3000;0.1180;4.5053;
63.6000;0.1050;4.4737;
63.9000;0.1066;4.4785;
64.2000;0.0985;4.4591;
64.5000;0.0944;4.4469;
64.8000;0.1066;4.4688;
65.1000;0.1083;4.4737;
65.4000;0.1066;4.4639;
65.7000;0.1034;4.4566;
66.0000;0.1066;4.4712;
66.3000;0.1066;4.4761;
66.6000;0.1058;4.4737;
66.9000;0.1058;4.4664;
67.2000;0.1058;4.4688;
67.5000;0.1058;4.4615;
67.8000;0.1042;4.4615;
68.1000;0.1066;4.4615;
68.4000;0.1042;4.4518;
68.7000;0.1074;4.4591;
69.0000;0.1050;4.4615;
69.3000;0.1091;4.4737;
69.6000;0.1042;4.4615;
69.9000;0.1058;4.4664;
70.2000;0.1074;4.4688;
70.5000;0.1083;4.4712;
70.8000;0.1099;4.4712;
71.1000;0.1058;4.4591;
71.4000;0.1074;4.4615;
71.7000;0.0944;4.4274;
72.0000;0.1042;4.4566;
72.3000;0.1034;4.4542;
72.6000;0.1099;4.4712;
72.9000;0.1074;4.4566;
73.2000;0.1091;4.4639;
73.5000;0.1066;4.4664;
73.8000;0.1099;4.4761;
74.1000;0.1058;4.4639;
74.4000;0.1091;4.4566;
74.7000;0.1083;4.4566;
75.0000;0.1066;4.4591;
75.3000;0.1058;4.4591;
75.6000;0.1050;4.4493;
75.9000;0.1107;4.4591;
76.2000;0.1091;4.4591;
76.5000;0.1050;4.4493;
76.8000;0.1066;4.4542;
77.1000;0.1083;4.4566;
77.4000;0.1050;4.4542;
77.7000;0.1058;4.4566;
78.0000;0.1042;4.4542;
78.3000;0.1074;4.4688;
78.6000;0.1115;4.4785;
78.9000;0.1026;4.4566;
79.2000;0.1050;4.4591;
79.5000;0.1058;4.4639;
79.8000;0.1018;4.4518;
80.1000;0.1058;4.4688;
80.4000;0.1034;4.4591;
80.7000;0.1050;4.4688;
81.0000;0.1074;4.4688;
81.3000;0.1050;4.4615;
81.6000;0.1001;4.4639;
81.9000;0.1188;4.5029;
82.2000;0.1066;4.4615;
82.5000;0.1050;4.4518;
82.8000;0.1066;4.4518;
83.1000;0.1009;4.4445;
83.4000;0.1074;4.4591;
83.7000;0.1091;4.4542;
84.0000;0.1083;4.4469;
84.3000;0.1074;4.4469;
84.6000;0.1001;4.4347;
84.9000;0.1074;4.4518;
85.2000;0.1026;4.4372;
85.5000;0.1091;4.4493;
85.8000;0.1091;4.4518;
86.1000;0.1074;4.4542;
86.4000;0.0993;4.4396;
86.7000;0.1018;4.4445;
87.0000;0.1197;4.4956;
87.3000;0.1050;4.4566;
87.6000;0.1091;4.4591;
87.9000;0.1066;4.4542;
88.2000;0.1058;4.4566;
88.5000;0.1148;4.4810;
88.8000;0.1083;4.4566;
89.1000;0.1026;4.4518;
89.4000;0.1083;4.4639;
89.7000;0.1058;4.4591;
90.0000;0.1123;4.4785;
90.3000;0.1050;4.4615;
90.6000;0.1042;4.4591;
90.9000;0.1042;4.4518;
91.2000;0.1074;4.4639;
91.5000;0.1042;4.4591;
91.8000;0.1083;4.4712;
92.1000;0.1018;4.4493;
92.4000;0.1042;4.4566;
92.7000;0.1034;4.4518;
93.0000;0.1058;4.4639;
93.3000;0.1083;4.4737;
93.6000;0.1058;4.4664;
93.9000;0.1050;4.4591;
94.2000;0.1042;4.4615;
94.5000;0.1042;4.4639;
94.8000;0.1091;4.4761;
95.1000;0.1042;4.4688;
95.4000;0.1074;4.4664;
95.7000;0.1083;4.4688;
96.0000;0.1042;4.4566;
96.3000;0.1099;4.4639;
96.6000;0.1050;4.4615;
96.9000;0.1042;4.4566;
97.2000;0.1058;4.4639;
97.5000;0.1058;4.4688;
97.8000;0.1074;4.4737;
98.1000;0.1058;4.4737;
98.4000;0.1091;4.4785;
98.7000;0.1083;4.4761;
99.0000;0.1083;4.4688;
99.3000;0.1018;4.4615;
99.6000;0.1001;4.4615;
99.9000;0.1026;4.4712;
100.2000;0.1091;4.4883;
100.5000;0.1058;4.4664;
100.8000;0.1083;4.4688;
101.1000;0.1058;4.4737;
101.4000;0.1042;4.4615;
101.7000;0.1001;4.4493;
102.0000;0.1083;4.4639;
102.3000;0.1083;4.4591;
102.6000;0.1050;4.4542;
102.9000;0.1099;4.4615;
103.2000;0.1034;4.4420;
103.5000;0.1066;4.4493;
103.8000;0.1131;4.4615;
104.1000;0.1074;4.4518;
104.4000;0.1066;4.4518;
104.7000;0.1083;4.4542;
105.0000;0.1066;4.4542;
105.3000;0.1042;4.4518;
105.6000;0.1083;4.4664;
105.9000;0.1091;4.4688;
106.2000;0.1091;4.4688;
106.5000;0.1099;4.4664;
106.8000;0.1083;4.4566;
107.1000;0.1107;4.4566;
107.4000;0.1050;4.4518;
107.7000;0.1107;4.4591;
108.0000;0.1066;4.4469;
108.3000;0.0944;4.4226;
108.6000;0.1058;4.4469;
108.9000;0.1009;4.4396;
109.2000;0.1066;4.4591;
109.5000;0.1050;4.4591;
109.8000;0.1066;4.4566;
110.1000;0.1066;4.4518;
110.4000;0.1083;4.4664;
110.7000;0.1107;4.4688;
111.0000;0.1074;4.4566;
111.3000;0.1009;4.4445;
111.6000;0.1156;4.4834;
111.9000;0.1058;4.4518;
112.2000;0.1058;4.4420;
112.5000;0.1001;4.4347;
112.8000;0.1091;4.4615;
113.1000;0.1074;4.4542;
113.4000;0.1107;4.4664;
113.7000;0.1034;4.4469;
114.0000;0.1058;4.4591;
114.3000;0.1066;4.4566;
114.6000;0.1066;4.4639;
114.9000;0.1099;4.4664;
115.2000;0.1083;4.4664;
115.5000;0.1091;4.4615;
115.8000;0.1058;4.4566;
116.1000;0.1066;4.4518;
116.4000;0.1034;4.4420;
116.7000;0.1074;4.4518;
117.0000;0.1066;4.4542;
117.3000;0.1058;4.4591;
117.6000;0.1083;4.4591;
117.9000;0.1115;4.4615;
118.2000;0.1058;4.4518;
118.5000;0.1066;4.4566;
118.8000;0.1026;4.4469;
119.1000;0.1050;4.4566;
119.4000;0.1026;4.4591;
119.7000;0.1083;4.4810;
120.0000;0.1066;4.4688;
120.3000;0.1091;4.4688;
120.6000;0.1042;4.4542;
120.9000;0.1050;4.4469;
121.2000;0.1066;4.4566;
121.5000;0.1083;4.4615;
121.8000;0.1091;4.4688;
122.1000;0.1050;4.4639;
122.4000;0.1066;4.4639;
122.7000;0.1050;4.4566;
123.0000;0.1058;4.4664;
123.3000;0.1001;4.4542;
123.6000;0.1034;4.4639;
123.9000;0.1107;4.4883;
124.2000;0.1066;4.4785;
124.5000;0.1026;4.4615;
124.8000;0.1001;4.4566;
125.1000;0.1066;4.4639;
125.4000;0.1140;4.4883;
125.7000;0.1018;4.4518;
126.0000;0.1066;4.4566;
126.3000;0.1058;4.4566;
126.6000;0.1115;4.4785;
126.9000;0.1042;4.4639;
127.2000;0.1066;4.4615;
127.5000;0.1034;4.4542;
127.8000;0.1148;4.4931;
128.1000;0.1018;4.4493;
128.4000;0.1058;4.4639;
128.7000;0.1083;4.4664;
129.0000;0.1066;4.4518;
129.3000;0.1066;4.4469;
129.6000;0.1042;4.4396;
129.9000;0.1091;4.4542;
130.2000;0.1083;4.4664;
130.5000;0.1058;4.4615;
130.8000;0.1066;4.4737;
131.1000;0.1058;4.4664;
131.4000;0.1099;4.4810;
131.7000;0.1026;4.4639;
132.0000;0.1050;4.4591;
132.3000;0.1066;4.4615;
132.6000;0.1074;4.4664;
132.9000;0.1058;4.4591;
133.2000;0.1042;4.4518;
133.5000;0.1058;4.4518;
133.8000;0.1083;4.4420;
134.1000;0.1058;4.4323;
134.4000;0.1083;4.4420;
134.7000;0.1050;4.4396;
135.0000;0.1083;4.4518;
135.3000;0.1042;4.4347;
135.6000;0.1091;4.4420;
135.9000;0.1066;4.4372;
136.2000;0.1083;4.4518;
136.5000;0.1131;4.4688;
136.8000;0.1058;4.4664;
137.1000;0.1074;4.4639;
137.4000;0.1164;4.4834;
137.7000;0.1091;4.4664;
138.0000;0.1074;4.4591;
138.3000;0.1074;4.4542;
138.6000;0.1074;4.4615;
138.9000;0.1058;4.4566;
139.2000;0.1034;4.4493;
139.5000;0.1074;4.4591;
139.8000;0.1131;4.4615;
140.1000;0.1066;4.4518;
140.4000;0.1213;4.5004;
140.7000;0.1058;4.4566;
141.0000;0.1091;4.4688;
141.3000;0.1042;4.4542;
141.6000;0.1091;4.4664;
141.9000;0.1074;4.4664;
142.2000;0.1074;4.4615;
142.5000;0.1018;4.4493;
142.8000;0.1205;4.4931;
143.1000;0.1058;4.4591;
143.4000;0.1042;4.4566;
143.7000;0.1140;4.4907;
144.0000;0.1058;4.4591;
144.3000;0.1058;4.4542;
144.6000;0.1066;4.4493;
144.9000;0.1066;4.4542;
145.2000;0.1050;4.4615;
145.5000;0.1083;4.4712;
145.8000;0.1115;4.4785;
146.1000;0.1042;4.4518;
146.4000;0.1026;4.4493;
146.7000;0.1074;4.4615;
147.0000;0.1050;4.4518;
147.3000;0.1074;4.4493;
147.6000;0.1099;4.4566;
147.9000;0.1050;4.4615;
148.2000;0.1034;4.4615;
148.5000;0.1074;4.4688;
148.8000;0.1042;4.4712;
149.1000;0.1074;4.4785;
149.4000;0.1099;4.4810;
149.7000;0.1058;4.4761;
150.0000;0.1009;4.4639;
150.3000;0.1074;4.4810;
150.6000;0.1074;4.4810;
150.9000;0.1034;4.4688;
151.2000;0.1148;4.4980;
151.5000;0.1066;4.4737;
151.8000;0.1050;4.4688;
152.1000;0.1099;4.4785;
152.4000;0.1083;4.4834;
152.7000;0.1091;4.4931;
153.0000;0.1066;4.4931;
153.3000;0.1058;4.4883;
153.6000;0.1009;4.4761;
153.9000;0.1050;4.4907;
154.2000;0.1058;4.4931;
154.5000;0.1083;4.5004;
154.8000;0.1058;4.4785;
155.1000;0.1034;4.4688;
155.4000;0.1058;4.4615;
155.7000;0.1066;4.4615;
156.0000;0.1066;4.4639;
156.3000;0.1050;4.4615;
156.6000;0.1042;4.4493;
156.9000;0.1066;4.4493;
157.2000;0.1066;4.4372;
157.5000;0.0969;4.4031;
157.8000;0.1074;4.4274;
158.1000;0.0977;4.4055;
158.4000;0.1066;4.4347;
158.7000;0.0977;4.4104;
159.0000;0.1074;4.4347;
159.3000;0.1050;4.4226;
159.6000;0.1050;4.4299;
159.9000;0.1066;4.4396;
160.2000;0.1042;4.4323;
160.5000;0.1058;4.4420;
160.8000;0.1042;4.4420;
161.1000;0.1050;4.4518;
161.4000;0.1042;4.4493;
161.7000;0.1034;4.4469;
162.0000;0.1058;4.4542;
162.3000;0.1066;4.4591;
162.6000;0.1074;4.4712;
162.9000;0.1074;4.4761;
163.2000;0.1083;4.4737;
163.5000;0.1091;4.4639;
163.8000;0.1058;4.4493;
164.1000;0.1115;4.4688;
164.4000;0.1066;4.4615;
164.7000;0.1074;4.4664;
165.0000;0.1066;4.4737;
165.3000;0.1083;4.4761;
165.6000;0.1066;4.4712;
165.9000;0.1107;4.4834;
166.2000;0.1083;4.4712;
166.5000;0.1050;4.4688;
166.8000;0.1001;4.4542;
167.1000;0.1140;4.5004;
167.4000;0.1050;4.4688;
167.7000;0.1050;4.4664;
168.0000;0.1140;4.4858;
168.3000;0.1083;4.4761;
168.6000;0.1099;4.4785;
168.9000;0.0985;4.4372;
169.2000;0.0977;4.4299;
169.5000;0.1058;4.4615;
169.8000;0.1140;4.4810;
170.1000;0.1009;4.4518;
170.4000;0.1066;4.4737;
170.7000;0.1083;4.4834;
171.0000;0.1026;4.4688;
171.3000;0.1074;4.4785;
171.6000;0.1066;4.4712;
171.9000;0.0985;4.4347;
172.2000;0.1009;4.4420;
172.5000;0.1074;4.4639;
172.8000;0.0993;4.4469;
173.1000;0.1066;4.4615;
173.4000;0.1034;4.4542;
173.7000;0.1058;4.4542;
174.0000;0.1058;4.4445;
174.3000;0.1074;4.4566;
174.6000;0.1050;4.4566;
174.9000;0.1066;4.4469;
175.2000;0.1050;4.4518;
175.5000;0.1074;4.4518;
175.8000;0.1042;4.4469;
176.1000;0.1042;4.4493;
176.4000;0.1074;4.4566;
176.7000;0.1058;4.4542;
177.0000;0.1066;4.4591;
177.3000;0.1034;4.4493;
177.6000;0.1066;4.4518;
177.9000;0.1050;4.4396;
178.2000;0.1074;4.4420;
178.5000;0.1115;4.4542;
178.8000;0.1083;4.4469;
179.1000;0.1050;4.4420;
179.4000;0.1042;4.4420;
179.7000;0.1058;4.4445;
180.0000;0.1091;4.4518;
180.3000;0.0993;4.4250;
180.6000;0.0944;4.4153;
180.9000;0.1091;4.4542;
181.2000;0.1066;4.4469;
181.5000;0.1034;4.4396;
181.8000;0.1066;4.4420;
182.1000;0.1058;4.4396;
182.4000;0.1123;4.4688;
182.7000;0.1066;4.4591;
183.0000;0.1050;4.4420;
183.3000;0.1066;4.4518;
183.6000;0.1050;4.4420;
183.9000;0.1099;4.4420;
184.2000;0.0912;4.3909;
184.5000;0.1058;4.4347;
184.8000;0.1066;4.4420;
185.1000;0.1074;4.4469;
185.4000;0.1066;4.4347;
185.7000;0.1001;4.4153;
186.0000;0.1074;4.4396;
186.3000;0.1058;4.4420;
186.6000;0.1026;4.4274;
186.9000;0.1050;4.4420;
187.2000;0.1034;4.4347;
187.5000;0.1074;4.4347;
187.8000;0.1058;4.4372;
188.1000;0.1018;4.4201;
188.4000;0.1066;4.4347;
188.7000;0.1042;4.4323;
189.0000;0.1058;4.4372;
189.3000;0.1058;4.4420;
189.6000;0.1074;4.4566;
189.9000;0.1050;4.4469;
190.2000;0.1066;4.4542;
190.5000;0.1066;4.4591;
190.8000;0.1058;4.4591;
191.1000;0.1050;4.4591;
191.4000;0.1058;4.4591;
191.7000;0.1058;4.4566;
192.0000;0.1066;4.4688;
192.3000;0.1058;4.4712;
192.6000;0.1091;4.4810;
192.9000;0.1091;4.4810;
193.2000;0.1058;4.4688;
193.5000;0.1083;4.4664;
193.8000;0.0912;4.4226;
194.1000;0.1026;4.4591;
194.4000;0.1172;4.5004;
194.7000;0.1034;4.4688;
195.0000;0.1058;4.4834;
195.3000;0.1213;4.5199;
195.6000;0.1115;4.4810;
195.9000;0.1083;4.4664;
196.2000;0.1115;4.4688;
196.5000;0.1001;4.4396;
196.8000;0.1156;4.4834;
197.1000;0.1058;4.4664;
197.4000;0.1034;4.4591;
197.7000;0.1074;4.4664;
198.0000;0.1074;4.4615;
198.3000;0.1066;4.4688;
198.6000;0.1066;4.4810;
198.9000;0.1074;4.4737;
199.2000;0.1066;4.4712;
199.5000;0.1058;4.4761;
199.8000;0.1050;4.4737;
200.1000;0.1099;4.4834;
200.4000;0.1058;4.4639;
200.7000;0.1107;4.4737;
201.0000;0.0985;4.4445;
201.3000;0.1083;4.4688;
201.6000;0.1099;4.4761;
201.9000;0.1091;4.4834;
202.2000;0.1050;4.4639;
202.5000;0.1058;4.4591;
202.8000;0.1091;4.4639;
203.1000;0.1083;4.4639;
203.4000;0.1074;4.4761;
203.7000;0.1066;4.4761;
204.0000;0.1009;4.4688;
204.3000;0.1123;4.4980;
204.6000;0.1018;4.4688;
204.9000;0.1042;4.4785;
205.2000;0.0944;4.4542;
205.5000;0.1066;4.4956;
205.8000;0.1066;4.4883;
206.1000;0.1074;4.4858;
206.4000;0.1083;4.4883;
206.7000;0.1050;4.4785;
207.0000;0.1042;4.4834;
207.3000;0.1091;4.4858;
207.6000;0.1123;4.4907;
207.9000;0.1074;4.4761;
208.2000;0.1066;4.4712;
208.5000;0.1050;4.4639;
208.8000;0.1091;4.4785;
209.1000;0.1066;4.4688;
209.4000;0.1074;4.4639;
209.7000;0.1066;4.4615;
210.0000;0.1083;4.4664;
210.3000;0.1066;4.4664;
210.6000;0.1091;4.4688;
210.9000;0.1042;4.4591;
211.2000;0.1107;4.4737;
211.5000;0.1115;4.4785;
211.8000;0.1091;4.4591;
212.1000;0.1074;4.4542;
212.4000;0.1058;4.4518;
212.7000;0.1099;4.4712;
213.0000;0.1115;4.4810;
213.3000;0.1131;4.4810;
213.6000;0.0936;4.4153;
213.9000;0.1074;4.4566;
214.2000;0.1066;4.4639;
214.5000;0.1042;4.4566;
214.8000;0.1042;4.4566;
215.1000;0.1058;4.4615;
215.4000;0.1058;4.4566;
215.7000;0.1074;4.4615;
216.0000;0.1074;4.4639;
216.3000;0.1083;4.4615;
216.6000;0.1099;4.4639;
216.9000;0.1058;4.4493;
217.2000;0.1091;4.4542;
217.5000;0.1034;4.4420;
217.8000;0.1058;4.4469;
218.1000;0.1042;4.4420;
218.4000;0.1034;4.4420;
218.7000;0.1009;4.4372;
219.0000;0.1066;4.4566;
219.3000;0.1018;4.4396;
219.6000;0.1074;4.4493;
219.9000;0.1034;4.4420;
220.2000;0.1018;4.4493;
220.5000;0.1066;4.4591;
220.8000;0.1180;4.4907;
221.1000;0.1058;4.4639;
221.4000;0.1066;4.4761;
221.7000;0.1050;4.4712;
222.0000;0.1066;4.4712;
222.3000;0.1066;4.4664;
222.6000;0.1042;4.4566;
222.9000;0.1066;4.4615;
223.2000;0.1131;4.4810;
223.5000;0.1058;4.4542;
223.8000;0.1083;4.4615;
224.1000;0.1050;4.4615;
224.4000;0.1074;4.4615;
224.7000;0.1066;4.4639;
225.0000;0.1083;4.4591;
225.3000;0.1074;4.4566;
225.6000;0.1050;4.4566;
225.9000;0.1018;4.4445;
226.2000;0.1066;4.4542;
226.5000;0.1066;4.4591;
226.8000;0.1066;4.4591;
227.1000;0.1066;4.4591;
227.4000;0.1091;4.4566;
227.7000;0.1123;4.4615;
228.0000;0.1074;4.4493;
228.3000;0.1050;4.4347;
228.6000;0.0904;4.3909;
228.9000;0.1066;4.4323;
229.2000;0.1066;4.4299;
229.5000;0.1050;4.4299;
229.8000;0.1083;4.4347;
230.1000;0.1074;4.4396;
230.4000;0.1074;4.4469;
230.7000;0.1099;4.4445;
231.0000;0.1074;4.4396;
231.3000;0.1050;4.4347;
231.6000;0.1074;4.4420;
231.9000;0.1074;4.4469;
232.2000;0.1066;4.4542;
232.5000;0.1066;4.4591;
232.8000;0.1034;4.4615;
233.1000;0.1058;4.4566;
233.4000;0.1042;4.4591;
233.7000;0.1058;4.4615;
234.0000;0.1058;4.4615;
234.3000;0.1058;4.4566;
234.6000;0.1058;4.4591;
234.9000;0.1050;4.4688;
235.2000;0.1099;4.4785;
235.5000;0.1034;4.4688;
235.8000;0.1066;4.4761;
236.1000;0.1050;4.4664;
236.4000;0.1050;4.4737;
236.7000;0.1091;4.4810;
237.0000;0.1074;4.4810;
237.3000;0.1083;4.4785;
237.6000;0.1034;4.4591;
237.9000;0.1066;4.4688;
238.2000;0.1058;4.4664;
238.5000;0.1058;4.4615;
238.8000;0.1091;4.4712;
239.1000;0.1058;4.4688;
239.4000;0.1058;4.4712;
239.7000;0.1074;4.4688;
240.0000;0.1058;4.4639;
240.3000;0.1050;4.4493;
240.6000;0.1050;4.4518;
240.9000;0.1066;4.4639;
241.2000;0.1058;4.4615;
241.5000;0.1042;4.4591;
241.8000;0.1083;4.4688;
242.1000;0.1066;4.4664;
242.4000;0.1131;4.4785;
242.7000;0.1058;4.4688;
243.0000;0.1074;4.4785;
243.3000;0.1066;4.4785;
243.6000;0.0944;4.4469;
243.9000;0.1074;4.4737;
244.2000;0.1058;4.4785;
244.5000;0.1066;4.4785;
244.8000;0.1034;4.4712;
245.1000;0.1074;4.4761;
245.4000;0.1001;4.4591;
245.7000;0.1042;4.4688;
246.0000;0.1074;4.4785;
246.3000;0.1091;4.4834;
246.6000;0.1042;4.4688;
246.9000;0.1066;4.4737;
247.2000;0.1099;4.4712;
247.5000;0.1083;4.4737;
247.8000;0.1058;4.4639;
248.1000;0.1066;4.4615;
248.4000;0.1066;4.4591;
248.7000;0.1026;4.4493;
249.0000;0.1058;4.4542;
249.3000;0.1066;4.4493;
249.6000;0.1074;4.4493;
249.9000;0.1058;4.4445;
250.2000;0.0961;4.4153;
250.5000;0.1058;4.4396;
250.8000;0.1050;4.4420;
251.1000;0.1074;4.4445;
251.4000;0.1034;4.4347;
251.7000;0.1001;4.4250;
252.0000;0.1074;4.4420;
252.3000;0.1066;4.4445;
252.6000;0.1091;4.4493;
252.9000;0.1066;4.4445;
253.2000;0.1058;4.4566;
253.5000;0.0993;4.4493;
253.8000;0.1066;4.4664;
254.1000;0.1042;4.4591;
254.4000;0.1083;4.4712;
254.7000;0.1066;4.4688;
255.0000;0.1066;4.4737;
255.3000;0.1050;4.4639;
255.6000;0.1001;4.4591;
255.9000;0.1050;4.4785;
256.2000;0.1042;4.4810;
256.5000;0.1066;4.4810;
256.8000;0.1074;4.4834;
257.1000;0.1050;4.4737;
257.4000;0.1042;4.4712;
257.7000;0.1058;4.4761;
258.0000;0.0993;4.4639;
258.3000;0.1066;4.4688;
258.6000;0.1083;4.4785;
258.9000;0.1066;4.4810;
259.2000;0.1083;4.4834;
259.5000;0.1058;4.4761;
259.8000;0.1091;4.4931;
260.1000;0.1074;4.4907;
260.4000;0.1066;4.4834;
260.7000;0.1042;4.4712;
261.0000;0.1066;4.4761;
261.3000;0.1074;4.4712;
261.6000;0.1074;4.4688;
261.9000;0.1042;4.4591;
262.2000;0.1042;4.4566;
262.5000;0.1058;4.4566;
262.8000;0.1107;4.4615;
263.1000;0.1074;4.4566;
263.4000;0.1074;4.4688;
263.7000;0.1074;4.4785;
264.0000;0.1001;4.4591;
264.3000;0.1058;4.4688;
264.6000;0.1115;4.4810;
264.9000;0.1066;4.4664;
265.2000;0.1074;4.4639;
265.5000;0.1066;4.4591;
265.8000;0.1066;4.4664;
266.1000;0.1066;4.4712;
266.4000;0.1164;4.4980;
266.7000;0.1107;4.4785;
267.0000;0.1058;4.4712;
267.3000;0.1107;4.4761;
267.6000;0.1083;4.4737;
267.9000;0.1074;4.4737;
268.2000;0.1074;4.4761;
268.5000;0.1058;4.4591;
268.8000;0.1042;4.4566;
269.1000;0.1058;4.4615;
269.4000;0.1066;4.4664;
269.7000;0.1042;4.4664;
270.0000;0.1083;4.4834;
270.3000;0.1066;4.4834;
270.6000;0.1074;4.4761;
270.9000;0.1066;4.4737;
271.2000;0.1091;4.4810;
271.5000;0.1058;4.4737;
271.8000;0.1058;4.4785;
272.1000;0.1066;4.4810;
272.4000;0.1107;4.4956;
272.7000;0.1180;4.4931;
273.0000;0.1066;4.4639;
273.3000;0.1074;4.4810;
273.6000;0.1083;4.4834;
273.9000;0.1066;4.4834;
274.2000;0.1074;4.4785;
274.5000;0.0895;4.4396;
274.8000;0.1058;4.4785;
275.1000;0.1083;4.4810;
275.4000;0.1034;4.4664;
275.7000;0.1058;4.4712;
276.0000;0.1058;4.4761;
276.3000;0.1083;4.4858;
276.6000;0.1058;4.4810;
276.9000;0.1058;4.4785;
277.2000;0.1107;4.4858;
277.5000;0.0985;4.4566;
277.8000;0.1083;4.4858;
278.1000;0.1050;4.4712;
278.4000;0.1058;4.4688;
278.7000;0.1107;4.4712;
279.0000;0.0985;4.4420;
279.3000;0.1042;4.4591;
279.6000;0.1042;4.4810;
279.9000;0.1034;4.4785;
280.2000;0.1058;4.4785;
280.5000;0.1083;4.4883;
280.8000;0.1074;4.4737;
281.1000;0.1083;4.4712;
281.4000;0.1066;4.4664;
281.7000;0.1042;4.4615;
282.0000;0.1066;4.4664;
282.3000;0.1074;4.4737;
282.6000;0.1042;4.4639;
282.9000;0.1099;4.4834;
283.2000;0.1074;4.4761;
283.5000;0.1091;4.4834;
283.8000;0.1131;4.4956;
284.1000;0.1001;4.4493;
284.4000;0.1066;4.4712;
284.7000;0.1066;4.4737;
285.0000;0.1001;4.4542;
285.3000;0.1026;4.4664;
285.6000;0.1009;4.4615;
285.9000;0.1026;4.4712;
286.2000;0.1066;4.4834;
286.5000;0.1050;4.4883;
286.8000;0.0993;4.4761;
287.1000;0.1140;4.5126;
287.4000;0.0985;4.4712;
287.7000;0.1066;4.4907;
288.0000;0.1066;4.4834;
288.3000;0.1066;4.4810;
288.6000;0.1050;4.4785;
288.9000;0.1009;4.4591;
289.2000;0.0985;4.4542;
289.5000;0.1042;4.4737;
289.8000;0.1034;4.4712;
290.1000;0.1058;4.4810;
290.4000;0.1099;4.4956;
290.7000;0.1107;4.4980;
291.0000;0.1074;4.4858;
291.3000;0.1042;4.4785;
291.6000;0.1050;4.4810;
291.9000;0.1074;4.4810;
292.2000;0.1050;4.4785;
292.5000;0.1091;4.4810;
292.8000;0.1042;4.4664;
293.1000;0.1058;4.4737;
293.4000;0.1042;4.4664;
293.7000;0.1058;4.4688;
294.0000;0.1074;4.4785;
294.3000;0.1034;4.4810;
294.6000;0.0961;4.4566;
294.9000;0.1026;4.4737;
295.2000;0.1074;4.4931;
295.5000;0.1066;4.4834;
295.8000;0.1066;4.4907;
296.1000;0.1026;4.4785;
296.4000;0.1091;4.5004;
296.7000;0.1083;4.4931;
297.0000;0.1066;4.4834;
297.3000;0.1066;4.4761;
297.6000;0.1050;4.4712;
297.9000;0.1066;4.4737;
298.2000;0.1050;4.4761;
298.5000;0.0985;4.4542;
298.8000;0.1066;4.4785;
299.1000;0.1018;4.4615;
299.4000;0.1083;4.4810;
299.7000;0.1058;4.4737;
300.0000;0.1058;4.4737;
300.3000;0.1066;4.4712;
300.6000;0.1042;4.4615;
300.9000;0.1042;4.4688;
301.2000;0.1042;4.4737;
301.5000;0.1099;4.4907;
301.8000;0.1074;4.4883;
302.1000;0.1074;4.4858;
302.4000;0.1050;4.4810;
302.7000;0.1058;4.4712;
303.0000;0.1050;4.4591;
303.3000;0.1042;4.4664;
303.6000;0.1066;4.4761;
303.9000;0.1083;4.4858;
304.2000;0.1091;4.4858;
304.5000;0.1050;4.4785;
304.8000;0.1058;4.4688;
305.1000;0.1058;4.4737;
305.4000;0.1034;4.4785;
305.7000;0.1099;4.4883;
306.0000;0.1042;4.4639;
306.3000;0.1066;4.4737;
306.6000;0.1066;4.4810;
306.9000;0.1083;4.4883;
307.2000;0.1042;4.4737;
307.5000;0.1050;4.4737;
307.8000;0.1074;4.4761;
308.1000;0.1058;4.4712;
308.4000;0.1050;4.4664;
308.7000;0.1074;4.4785;
309.0000;0.1058;4.4785;
309.3000;0.1034;4.4712;
309.6000;0.1001;4.4615;
309.9000;0.1050;4.4858;
310.2000;0.1042;4.4883;
310.5000;0.1066;4.4956;
310.8000;0.1148;4.5077;
311.1000;0.1083;4.4931;
311.4000;0.1172;4.5126;
311.7000;0.1050;4.4785;
312.0000;0.1050;4.4737;
312.3000;0.0961;4.4420;
312.6000;0.0969;4.4445;
312.9000;0.0969;4.4396;
313.2000;0.1050;4.4688;
313.5000;0.1083;4.4858;
313.8000;0.1058;4.4712;
314.1000;0.1066;4.4737;
314.4000;0.0863;4.4079;
314.7000;0.1074;4.4688;
315.0000;0.1074;4.4712;
315.3000;0.1074;4.4712;
315.6000;0.1099;4.4810;
315.9000;0.1042;4.4761;
316.2000;0.1058;4.4883;
316.5000;0.1018;4.4810;
316.8000;0.1083;4.4907;
317.1000;0.1042;4.4785;
317.4000;0.1058;4.4810;
317.7000;0.1050;4.4761;
318.0000;0.1091;4.4858;
318.3000;0.1115;4.4858;
318.6000;0.1058;4.4737;
318.9000;0.1066;4.4664;
319.2000;0.1066;4.4615;
319.5000;0.1050;4.4542;
319.8000;0.1066;4.4639;
320.1000;0.1042;4.4542;
320.4000;0.1034;4.4566;
320.7000;0.1115;4.4858;
321.0000;0.1066;4.4737;
321.3000;0.1074;4.4834;
321.6000;0.1083;4.4931;
321.9000;0.1042;4.4810;
322.2000;0.1074;4.4883;
322.5000;0.1066;4.4834;
322.8000;0.1083;4.4858;
323.1000;0.1091;4.4883;
323.4000;0.1066;4.4712;
323.7000;0.1058;4.4664;
324.0000;0.1074;4.4737;
324.3000;0.1042;4.4591;
324.6000;0.1115;4.4834;
324.9000;0.1066;4.4639;
325.2000;0.1042;4.4639;
325.5000;0.1042;4.4664;
325.8000;0.1074;4.4712;
326.1000;0.1034;4.4639;
326.4000;0.1042;4.4664;
326.7000;0.1083;4.4810;
327.0000;0.1066;4.4834;
327.3000;0.1058;4.4907;
327.6000;0.0977;4.4664;
327.9000;0.1050;4.4883;
328.2000;0.1042;4.4883;
328.5000;0.1074;4.4907;
328.8000;0.1058;4.4761;
329.1000;0.1074;4.4761;
329.4000;0.1066;4.4810;
329.7000;0.1180;4.5053;
330.0000;0.1074;4.4664;
330.3000;0.1083;4.4737;
330.6000;0.1058;4.4664;
330.9000;0.1066;4.4664;
331.2000;0.0969;4.4420;
331.5000;0.1050;4.4688;
331.8000;0.1058;4.4737;
332.1000;0.1066;4.4737;
332.4000;0.1066;4.4737;
332.7000;0.1074;4.4737;
333.0000;0.1066;4.4810;
333.3000;0.1058;4.4712;
333.6000;0.1172;4.4931;
333.9000;0.1180;4.4883;
334.2000;0.1058;4.4639;
334.5000;0.0993;4.4469;
334.8000;0.1107;4.4712;
335.1000;0.1058;4.4591;
335.4000;0.1107;4.4664;
335.7000;0.1123;4.4785;
336.0000;0.1083;4.4615;
336.3000;0.1123;4.4737;
336.6000;0.1148;4.4785;
336.9000;0.1058;4.4445;
337.2000;0.1115;4.4591;
337.5000;0.0993;4.4396;
337.8000;0.1058;4.4566;
338.1000;0.1058;4.4591;
338.4000;0.1074;4.4615;
338.7000;0.1050;4.4566;
339.0000;0.1058;4.4566;
339.3000;0.1058;4.4591;
339.6000;0.1058;4.4615;
339.9000;0.1091;4.4664;
340.2000;0.1042;4.4542;
340.5000;0.1042;4.4615;
340.8000;0.1083;4.4737;
341.1000;0.1066;4.4737;
341.4000;0.1058;4.4737;
341.7000;0.1066;4.4785;
342.0000;0.1058;4.4834;
342.3000;0.1058;4.4858;
342.6000;0.1123;4.5053;
342.9000;0.1050;4.4858;
343.2000;0.1042;4.4785;
343.5000;0.1058;4.4834;
343.8000;0.1066;4.4834;
344.1000;0.1050;4.4810;
344.4000;0.1034;4.4737;
344.7000;0.0977;4.4566;
345.0000;0.1091;4.4737;
345.3000;0.1042;4.4615;
345.6000;0.1091;4.4785;
345.9000;0.1042;4.4664;
346.2000;0.1050;4.4639;
346.5000;0.1042;4.4591;
346.8000;0.1042;4.4591;
347.1000;0.1058;4.4664;
347.4000;0.1066;4.4737;
347.7000;0.1066;4.4737;
348.0000;0.1050;4.4761;
348.3000;0.1066;4.4737;
348.6000;0.1074;4.4761;
348.9000;0.1074;4.4737;
349.2000;0.1083;4.4834;
349.5000;0.1131;4.4956;
349.8000;0.1066;4.4810;
350.1000;0.1213;4.5223;
350.4000;0.1074;4.4785;
350.7000;0.1074;4.4761;
351.0000;0.1058;4.4712;
351.3000;0.1058;4.4688;
351.6000;0.1001;4.4493;
351.9000;0.1066;4.4664;
352.2000;0.1074;4.4566;
352.5000;0.1050;4.4566;
352.8000;0.1058;4.4566;
353.1000;0.1099;4.4737;
353.4000;0.1066;4.4639;
353.7000;0.1066;4.4639;
354.0000;0.1042;4.4542;
354.3000;0.1034;4.4591;
354.6000;0.1058;4.4566;
354.9000;0.1058;4.4542;
355.2000;0.1050;4.4591;
355.5000;0.1018;4.4566;
355.8000;0.1107;4.4737;
356.1000;0.0936;4.4323;
356.4000;0.1042;4.4712;
356.7000;0.1083;4.4761;
357.0000;0.1058;4.4688;
357.3000;0.1074;4.4761;
357.6000;0.1091;4.4907;
357.9000;0.1066;4.4810;
358.2000;0.1042;4.4737;
358.5000;0.0993;4.4615;
358.8000;0.1058;4.4785;
359.1000;0.1050;4.4664;
359.4000;0.1050;4.4688;
359.7000;0.1058;4.4639;
360.0000;0.1066;4.4761;
360.3000;0.1058;4.4761;
360.6000;0.0952;4.4396;
360.9000;0.1050;4.4639;
361.2000;0.1042;4.4615;
361.5000;0.1058;4.4591;
361.8000;0.1140;4.4858;
362.1000;0.1050;4.4712;
362.4000;0.1058;4.4810;
362.7000;0.1099;4.4858;
363.0000;0.1066;4.4688;
363.3000;0.1050;4.4639;
363.6000;0.1058;4.4615;
363.9000;0.1050;4.4639;
364.2000;0.1066;4.4615;
364.5000;0.1074;4.4639;
364.8000;0.1050;4.4542;
365.1000;0.1058;4.4664;
365.4000;0.1050;4.4688;
365.7000;0.1083;4.4761;
366.0000;0.1050;4.4639;
366.3000;0.1074;4.4688;
366.6000;0.1083;4.4785;
366.9000;0.1058;4.4591;
367.2000;0.1034;4.4566;
367.5000;0.0928;4.4250;
367.8000;0.1074;4.4591;
368.1000;0.1058;4.4615;
368.4000;0.1099;4.4639;
368.7000;0.1050;4.4542;
369.0000;0.1058;4.4591;
369.3000;0.1066;4.4615;
369.6000;0.1074;4.4664;
369.9000;0.1050;4.4639;
370.2000;0.1091;4.4737;
370.5000;0.1156;4.4810;
370.8000;0.1083;4.4591;
371.1000;0.1042;4.4493;
371.4000;0.1083;4.4591;
371.7000;0.1058;4.4518;
372.0000;0.1091;4.4615;
372.3000;0.1050;4.4639;
372.6000;0.1074;4.4737;
372.9000;0.1050;4.4664;
373.2000;0.1042;4.4688;
373.5000;0.1050;4.4737;
373.8000;0.1034;4.4810;
374.1000;0.1074;4.4980;
374.4000;0.1066;4.4931;
374.7000;0.1058;4.4883;
375.0000;0.1083;4.4931;
375.3000;0.1066;4.4980;
375.6000;0.0936;4.4566;
375.9000;0.1058;4.4883;
376.2000;0.1074;4.4907;
376.5000;0.1099;4.4956;
376.8000;0.1074;4.4883;
377.1000;0.1083;4.4907;
377.4000;0.1091;4.4907;
377.7000;0.1074;4.4956;
378.0000;0.1074;4.4956;
378.3000;0.1074;4.4907;
378.6000;0.1066;4.4858;
378.9000;0.1050;4.4810;
379.2000;0.1050;4.4761;
379.5000;0.1164;4.5077;
379.8000;0.1083;4.4883;
380.1000;0.1058;4.4810;
380.4000;0.1091;4.4761;
380.7000;0.1034;4.4664;
381.0000;0.1050;4.4591;
381.3000;0.1058;4.4591;
381.6000;0.1074;4.4639;
381.9000;0.1058;4.4518;
382.2000;0.1099;4.4664;
382.5000;0.1050;4.4518;
382.8000;0.1058;4.4445;
383.1000;0.1083;4.4469;
383.4000;0.1115;4.4615;
383.7000;0.1066;4.4591;
384.0000;0.1066;4.4761;
384.3000;0.1066;4.4785;
384.6000;0.1066;4.4737;
384.9000;0.1066;4.4761;
385.2000;0.1083;4.4810;
385.5000;0.1050;4.4737;
385.8000;0.1066;4.4712;
386.1000;0.1058;4.4834;
386.4000;0.1058;4.4737;
386.7000;0.1099;4.4785;
387.0000;0.1034;4.4712;
387.3000;0.1058;4.4834;
387.6000;0.1058;4.4858;
387.9000;0.1034;4.4858;
388.2000;0.1074;4.4907;
388.5000;0.1066;4.4907;
388.8000;0.1058;4.5004;
389.1000;0.1091;4.5175;
389.4000;0.1066;4.5029;
389.7000;0.1074;4.4883;
390.0000;0.1058;4.4834;
390.3000;0.1026;4.4761;
390.6000;0.0993;4.4615;
390.9000;0.1066;4.4907;
391.2000;0.1042;4.4834;
391.5000;0.1058;4.4858;
391.8000;0.1042;4.4810;
392.1000;0.1066;4.4810;
392.4000;0.1066;4.4883;
392.7000;0.1099;4.4883;
393.0000;0.1099;4.4931;
393.3000;0.1050;4.4858;
393.6000;0.1074;4.4810;
393.9000;0.1066;4.4737;
394.2000;0.1050;4.4712;
394.5000;0.1107;4.4810;
394.8000;0.1066;4.4785;
395.1000;0.1026;4.4688;
395.4000;0.1074;4.4834;
395.7000;0.1034;4.4761;
396.0000;0.1058;4.4810;
396.3000;0.1050;4.4737;
396.6000;0.0993;4.4615;
396.9000;0.1083;4.4810;
397.2000;0.1066;4.4712;
397.5000;0.1066;4.4761;
397.8000;0.1058;4.4688;
398.1000;0.1018;4.4639;
398.4000;0.1050;4.4737;
398.7000;0.1058;4.4737;
399.0000;0.1034;4.4688;
399.3000;0.1058;4.4664;
399.6000;0.1107;4.4712;
399.9000;0.1026;4.4396;
400.2000;0.1091;4.4566;
400.5000;0.1058;4.4591;
400.8000;0.1058;4.4591;
401.1000;0.1018;4.4493;
401.4000;0.1107;4.4761;
401.7000;0.1074;4.4664;
402.0000;0.1115;4.4737;
402.3000;0.1172;4.4931;
402.6000;0.1074;4.4737;
402.9000;0.1058;4.4615;
403.2000;0.0993;4.4493;
403.5000;0.1123;4.4810;
403.8000;0.0985;4.4615;
404.1000;0.1018;4.4639;
404.4000;0.1018;4.4688;
404.7000;0.1148;4.5029;
405.0000;0.1066;4.4834;
405.3000;0.1083;4.4810;
405.6000;0.1099;4.4883;
405.9000;0.0977;4.4445;
406.2000;0.0977;4.4518;
406.5000;0.1083;4.4834;
406.8000;0.1156;4.5053;
407.1000;0.1034;4.4688;
407.4000;0.1066;4.4834;
407.7000;0.1156;4.5053;
408.0000;0.1066;4.4907;
408.3000;0.1026;4.4712;
408.6000;0.1091;4.4834;
408.9000;0.1066;4.4810;
409.2000;0.1009;4.4712;
409.5000;0.1058;4.4858;
409.8000;0.1074;4.4956;
410.1000;0.1018;4.4858;
410.4000;0.1083;4.4931;
410.7000;0.1074;4.4883;
411.0000;0.1099;4.4980;
411.3000;0.1066;4.4883;
411.6000;0.1058;4.4883;
411.9000;0.1074;4.4883;
412.2000;0.1058;4.4810;
412.5000;0.1140;4.5126;
412.8000;0.1074;4.4907;
413.1000;0.1074;4.4883;
413.4000;0.1066;4.4883;
413.7000;0.1026;4.4761;
414.0000;0.1050;4.4883;
414.3000;0.1058;4.4907;
414.6000;0.1107;4.5077;
414.9000;0.1058;4.4956;
415.2000;0.1058;4.4931;
415.5000;0.1188;4.5272;
415.8000;0.1058;4.4980;
416.1000;0.1083;4.4956;
416.4000;0.1083;4.4883;
416.7000;0.1066;4.4785;
417.0000;0.1083;4.4858;
417.3000;0.1083;4.4761;
417.6000;0.1099;4.4761;
417.9000;0.1066;4.4712;
418.2000;0.1066;4.4761;
418.5000;0.1083;4.4858;
418.8000;0.1058;4.4834;
419.1000;0.1058;4.4858;
419.4000;0.1042;4.4834;
419.7000;0.1131;4.5004;
420.0000;0.1083;4.4858;
420.3000;0.1074;4.4834;
420.6000;0.1066;4.4737;
420.9000;0.1066;4.4712;
421.2000;0.1001;4.4542;
421.5000;0.1058;4.4591;
421.8000;0.1066;4.4639;
422.1000;0.1074;4.4785;
422.4000;0.1066;4.4761;
422.7000;0.1058;4.4737;
423.0000;0.1099;4.4883;
423.3000;0.1107;4.4858;
423.6000;0.1188;4.5004;
423.9000;0.1066;4.4688;
424.2000;0.1050;4.4664;
424.5000;0.1066;4.4712;
424.8000;0.1074;4.4761;
425.1000;0.1172;4.5102;
425.4000;0.1091;4.4834;
425.7000;0.0969;4.4493;
426.0000;0.1009;4.4566;
426.3000;0.1074;4.4858;
426.6000;0.1083;4.4834;
426.9000;0.1042;4.4737;
427.2000;0.1115;4.4931;
427.5000;0.1066;4.4810;
427.8000;0.1107;4.4883;
428.1000;0.1180;4.5004;
428.4000;0.1074;4.4664;
428.7000;0.1148;4.4834;
429.0000;0.1074;4.4639;
429.3000;0.1099;4.4664;
429.6000;0.1026;4.4591;
429.9000;0.1066;4.4737;
430.2000;0.1115;4.4931;
430.5000;0.1058;4.4834;
430.8000;0.1001;4.4712;
431.1000;0.1083;4.4907;
431.4000;0.1083;4.4931;
431.7000;0.1115;4.5004;
432.0000;0.1058;4.4761;
432.3000;0.1099;4.4931;
432.6000;0.1058;4.4907;
432.9000;0.1058;4.4956;
433.2000;0.1107;4.5029;
433.5000;0.1156;4.5248;
433.8000;0.1058;4.5077;
434.1000;0.1050;4.5053;
434.4000;0.1042;4.4907;
434.7000;0.1115;4.5102;
435.0000;0.1083;4.5053;
435.3000;0.1042;4.4931;
435.6000;0.0993;4.4883;
435.9000;0.1066;4.4931;
436.2000;0.1050;4.4907;
436.5000;0.1123;4.5102;
436.8000;0.1074;4.4907;
437.1000;0.1058;4.4834;
437.4000;0.1050;4.4785;
437.7000;0.1066;4.4737;
438.0000;0.1066;4.4664;
438.3000;0.1091;4.4737;
438.6000;0.1066;4.4664;
438.9000;0.1050;4.4688;
439.2000;0.1058;4.4664;
439.5000;0.1074;4.4664;
439.8000;0.1050;4.4639;
440.1000;0.1050;4.4737;
440.4000;0.1066;4.4761;
440.7000;0.1042;4.4664;
441.0000;0.1034;4.4542;
441.3000;0.1050;4.4518;
441.6000;0.1205;4.4883;
441.9000;0.1058;4.4566;
442.2000;0.1042;4.4493;
442.5000;0.1018;4.4493;
442.8000;0.1164;4.4956;
443.1000;0.1074;4.4761;
443.4000;0.1066;4.4785;
443.7000;0.1058;4.4761;
444.0000;0.1050;4.4737;
444.3000;0.1042;4.4688;
444.6000;0.1083;4.4858;
444.9000;0.1074;4.4834;
445.2000;0.1050;4.4712;
445.5000;0.1083;4.4761;
445.8000;0.1058;4.4664;
446.1000;0.1066;4.4664;
446.4000;0.1074;4.4688;
446.7000;0.1074;4.4688;
447.0000;0.1074;4.4737;
447.3000;0.1148;4.4883;
447.6000;0.1074;4.4712;
447.9000;0.1083;4.4810;
448.2000;0.1099;4.4834;
448.5000;0.1058;4.4737;
448.8000;0.1050;4.4688;
449.1000;0.1050;4.4688;
449.4000;0.1042;4.4591;
449.7000;0.1009;4.4566;
450.0000;0.1066;4.4761;
450.3000;0.1066;4.4761;
450.6000;0.1001;4.4566;
450.9000;0.1099;4.4834;
451.2000;0.1107;4.4785;
451.5000;0.1066;4.4737;
451.8000;0.1066;4.4712;
452.1000;0.1066;4.4737;
452.4000;0.1058;4.4688;
452.7000;0.1050;4.4664;
453.0000;0.1074;4.4712;
453.3000;0.1058;4.4639;
453.6000;0.1050;4.4542;
453.9000;0.1066;4.4639;
454.2000;0.1034;4.4542;
454.5000;0.0944;4.4493;
454.8000;0.0993;4.4566;
455.1000;0.1050;4.4712;
455.4000;0.1058;4.4737;
455.7000;0.1050;4.4639;
456.0000;0.1066;4.4615;
456.3000;0.1083;4.4688;
456.6000;0.1066;4.4688;
456.9000;0.1050;4.4737;
457.2000;0.1115;4.4834;
457.5000;0.1123;4.4858;
457.8000;0.1066;4.4664;
458.1000;0.0969;4.4445;
458.4000;0.1058;4.4688;
458.7000;0.1058;4.4712;
459.0000;0.1091;4.4737;
459.3000;0.1058;4.4688;
459.6000;0.1058;4.4712;
459.9000;0.1050;4.4712;
460.2000;0.1058;4.4737;
460.5000;0.1034;4.4761;
460.8000;0.1042;4.4737;
461.1000;0.1058;4.4712;
461.4000;0.1058;4.4737;
461.7000;0.1066;4.4761;
462.0000;0.0944;4.4445;
462.3000;0.1066;4.4858;
462.6000;0.1034;4.4834;
462.9000;0.1050;4.4883;
463.2000;0.1066;4.4883;
463.5000;0.1083;4.4858;
463.8000;0.0977;4.4615;
464.1000;0.1066;4.4883;
464.4000;0.1066;4.4810;
464.7000;0.1058;4.4834;
465.0000;0.1001;4.4712;
465.3000;0.1058;4.4810;
465.6000;0.1034;4.4810;
465.9000;0.1058;4.4785;
466.2000;0.1026;4.4785;
466.5000;0.1050;4.4834;
466.8000;0.1050;4.4858;
467.1000;0.1074;4.4907;
467.4000;0.1034;4.4761;
467.7000;0.1074;4.4931;
468.0000;0.1091;4.4907;
468.3000;0.1099;4.4956;
468.6000;0.1140;4.5126;
468.9000;0.1034;4.4737;
469.2000;0.1058;4.4810;
469.5000;0.1034;4.4810;
469.8000;0.1026;4.4737;
470.1000;0.1042;4.4810;
470.4000;0.1074;4.4907;
470.7000;0.1074;4.4810;
471.0000;0.1042;4.4664;
471.3000;0.1131;4.4907;
471.6000;0.1042;4.4664;
471.9000;0.1042;4.4737;
472.2000;0.1058;4.4761;
472.5000;0.1034;4.4712;
472.8000;0.1042;4.4834;
473.1000;0.1066;4.4980;
473.4000;0.1058;4.4858;
473.7000;0.1091;4.4883;
474.0000;0.1058;4.4785;
474.3000;0.1042;4.4785;
474.6000;0.1066;4.4834;
474.9000;0.1074;4.4810;
475.2000;0.1042;4.4761;
475.5000;0.1058;4.4785;
475.8000;0.1066;4.4858;
476.1000;0.1058;4.4810;
476.4000;0.1083;4.4834;
476.7000;0.1058;4.4737;
477.0000;0.1058;4.4712;
477.3000;0.1058;4.4737;
477.6000;0.1066;4.4737;
477.9000;0.1066;4.4737;
478.2000;0.1083;4.4737;
478.5000;0.1066;4.4664;
478.8000;0.1066;4.4639;
479.1000;0.1074;4.4639;
479.4000;0.1091;4.4737;
479.7000;0.1099;4.4712;
480.0000;0.1001;4.4615;
480.3000;0.1083;4.4907;
480.6000;0.1083;4.4883;
480.9000;0.1083;4.4907;
481.2000;0.1066;4.4858;
481.5000;0.1083;4.4834;
481.8000;0.1083;4.4834;
482.1000;0.1058;4.4858;
482.4000;0.1058;4.4883;
482.7000;0.1083;4.5004;
483.0000;0.1058;4.4858;
483.3000;0.1034;4.4785;
483.6000;0.1050;4.4834;
483.9000;0.1058;4.4834;
484.2000;0.1042;4.4810;
484.5000;0.1058;4.4810;
484.8000;0.1058;4.4858;
485.1000;0.1058;4.4858;
485.4000;0.1042;4.4761;
485.7000;0.1042;4.4810;
486.0000;0.1123;4.4980;
486.3000;0.1058;4.4712;
486.6000;0.1050;4.4639;
486.9000;0.1091;4.4785;
487.2000;0.1058;4.4688;
487.5000;0.1018;4.4566;
487.8000;0.1058;4.4639;
488.1000;0.1099;4.4761;
488.4000;0.1058;4.4737;
488.7000;0.1034;4.4688;
489.0000;0.1066;4.4858;
489.3000;0.1058;4.4883;
489.6000;0.1058;4.4858;
489.9000;0.1083;4.4907;
490.2000;0.1042;4.4834;
490.5000;0.1050;4.4931;
490.8000;0.1050;4.4956;
491.1000;0.1058;4.4931;
491.4000;0.1026;4.4834;
491.7000;0.1058;4.4956;
492.0000;0.1001;4.4810;
492.3000;0.1091;4.4980;
492.6000;0.1074;4.4883;
492.9000;0.1074;4.4907;
493.2000;0.1074;4.4810;
493.5000;0.1066;4.4810;
493.8000;0.1074;4.4834;
494.1000;0.1083;4.4810;
494.4000;0.1058;4.4785;
494.7000;0.1066;4.4907;
495.0000;0.1050;4.4858;
495.3000;0.1074;4.4980;
495.6000;0.1058;4.4883;
495.9000;0.1058;4.4883;
496.2000;0.1066;4.4883;
496.5000;0.1066;4.4810;
496.8000;0.1058;4.4761;
497.1000;0.1074;4.4834;
497.4000;0.1091;4.4956;
497.7000;0.1083;4.4858;
498.0000;0.1074;4.4785;
498.3000;0.1066;4.4761;
498.6000;0.1034;4.4737;
498.9000;0.1050;4.4761;
499.2000;0.1034;4.4761;
499.5000;0.0969;4.4591;
499.8000;0.1009;4.4688;
500.1000;0.1018;4.4639;
500.4000;0.1083;4.4785;
500.7000;0.0961;4.4420;
501.0000;0.1074;4.4737;
501.3000;0.1018;4.4518;
501.6000;0.1058;4.4566;
501.9000;0.1074;4.4591;
502.2000;0.1066;4.4664;
502.5000;0.1042;4.4615;
502.8000;0.1074;4.4615;
503.1000;0.1050;4.4615;
503.4000;0.1050;4.4591;
503.7000;0.1050;4.4664;
504.0000;0.1066;4.4688;
504.3000;0.1034;4.4566;
504.6000;0.1058;4.4542;
504.9000;0.1042;4.4518;
505.2000;0.1066;4.4615;
505.5000;0.1066;4.4664;
505.8000;0.1050;4.4688;
506.1000;0.1058;4.4639;
506.4000;0.1058;4.4591;
506.7000;0.1050;4.4542;
507.0000;0.1123;4.4737;
507.3000;0.1058;4.4688;
507.6000;0.1140;4.4907;
507.9000;0.1058;4.4688;
508.2000;0.1066;4.4810;
508.5000;0.1050;4.4737;
508.8000;0.1140;4.4980;
509.1000;0.1058;4.4785;
509.4000;0.1066;4.4907;
509.7000;0.1058;4.4858;
510.0000;0.1066;4.4858;
510.3000;0.1018;4.4639;
510.6000;0.1050;4.4785;
510.9000;0.1083;4.4810;
511.2000;0.1083;4.4785;
511.5000;0.1066;4.4785;
511.8000;0.1074;4.4883;
512.1000;0.1066;4.4810;
512.4000;0.1083;4.4834;
512.7000;0.1042;4.4785;
513.0000;0.1058;4.4785;
513.3000;0.1091;4.4956;
513.6000;0.1042;4.4931;
513.9000;0.1066;4.4956;
514.2000;0.1050;4.4907;
514.5000;0.1091;4.4980;
514.8000;0.1074;4.4858;
515.1000;0.1074;4.4810;
515.4000;0.0977;4.4615;
515.7000;0.1180;4.5175;
516.0000;0.1083;4.4858;
516.3000;0.1074;4.4834;
516.6000;0.1042;4.4737;
516.9000;0.1066;4.4810;
517.2000;0.0985;4.4639;
517.5000;0.1042;4.4712;
517.8000;0.1083;4.4785;
518.1000;0.1050;4.4664;
518.4000;0.1083;4.4737;
518.7000;0.1091;4.4810;
519.0000;0.1066;4.4785;
519.3000;0.0985;4.4639;
519.6000;0.1034;4.4858;
519.9000;0.1083;4.4883;
520.2000;0.1042;4.4761;
520.5000;0.1042;4.4712;
520.8000;0.1034;4.4737;
521.1000;0.1058;4.4834;
521.4000;0.1066;4.4907;
521.7000;0.1058;4.4834;
522.0000;0.1107;4.5029;
522.3000;0.0985;4.4688;
522.6000;0.1042;4.4858;
522.9000;0.1018;4.4810;
523.2000;0.0993;4.4737;
523.5000;0.1042;4.4883;
523.8000;0.1066;4.4980;
524.1000;0.1058;4.4980;
524.4000;0.1131;4.5102;
524.7000;0.1058;4.4883;
525.0000;0.1074;4.4931;
525.3000;0.1050;4.4883;
525.6000;0.1050;4.4956;
525.9000;0.1066;4.5029;
526.2000;0.1042;4.4907;
526.5000;0.1066;4.4931;
526.8000;0.1058;4.4907;
527.1000;0.1115;4.5126;
527.4000;0.1066;4.5004;
527.7000;0.1034;4.4980;
528.0000;0.1066;4.4956;
528.3000;0.1050;4.5004;
528.6000;0.1034;4.4883;
528.9000;0.1066;4.4907;
529.2000;0.1050;4.5004;
529.5000;0.1058;4.5126;
529.8000;0.1050;4.5102;
530.1000;0.1050;4.5077;
530.4000;0.1058;4.5077;
530.7000;0.1074;4.5053;
531.0000;0.1042;4.4858;
531.3000;0.1058;4.4907;
531.6000;0.1066;4.4907;
531.9000;0.1099;4.5029;
532.2000;0.1074;4.4956;
532.5000;0.1034;4.4834;
532.8000;0.0961;4.4615;
533.1000;0.1034;4.4834;
533.4000;0.1034;4.4834;
533.7000;0.1131;4.5077;
534.0000;0.1066;4.4858;
534.3000;0.1058;4.4931;
534.6000;0.1050;4.4883;
534.9000;0.1050;4.5004;
535.2000;0.1058;4.4980;
535.5000;0.1034;4.4956;
535.8000;0.1050;4.5004;
536.1000;0.1026;4.4931;
536.4000;0.1058;4.4931;
536.7000;0.0993;4.4810;
537.0000;0.1066;4.5004;
537.3000;0.1066;4.5004;
537.6000;0.1066;4.4980;
537.9000;0.1066;4.4931;
538.2000;0.1058;4.4907;
538.5000;0.1026;4.4883;
538.8000;0.1131;4.5126;
539.1000;0.1058;4.4907;
539.4000;0.1074;4.4810;
539.7000;0.1058;4.4834;
540.0000;0.1050;4.4907;
540.3000;0.1058;4.5053;
540.6000;0.1001;4.4907;
540.9000;0.1058;4.5102;
541.2000;0.1050;4.5150;
541.5000;0.1034;4.5077;
541.8000;0.1058;4.5126;
542.1000;0.1050;4.5102;
542.4000;0.1066;4.5175;
542.7000;0.1034;4.5126;
543.0000;0.1083;4.5150;
543.3000;0.1050;4.5004;
543.6000;0.1050;4.5004;
543.9000;0.1042;4.4956;
544.2000;0.1172;4.5272;
544.5000;0.1018;4.4761;
544.8000;0.1058;4.4907;
545.1000;0.1066;4.4907;
545.4000;0.1018;4.4834;
545.7000;0.1058;4.4980;
546.0000;0.1050;4.4883;
546.3000;0.1050;4.4980;
546.6000;0.1091;4.5077;
546.9000;0.1026;4.4980;
547.2000;0.1140;4.5223;
547.5000;0.1050;4.4907;
547.8000;0.1083;4.5029;
548.1000;0.1050;4.4980;
548.4000;0.1050;4.4931;
548.7000;0.1042;4.5004;
549.0000;0.1091;4.5150;
549.3000;0.1034;4.5029;
549.6000;0.1058;4.5029;
549.9000;0.1050;4.5053;
550.2000;0.1074;4.4980;
550.5000;0.1074;4.5004;
550.8000;0.1091;4.5102;
551.1000;0.1058;4.4980;
551.4000;0.1050;4.4956;
551.7000;0.1050;4.4931;
552.0000;0.1042;4.4931;
552.3000;0.1050;4.4956;
552.6000;0.1050;4.5029;
552.9000;0.1066;4.5102;
553.2000;0.1074;4.5126;
553.5000;0.1083;4.5102;
553.8000;0.1034;4.4956;
554.1000;0.1074;4.5029;
554.4000;0.1050;4.4907;
554.7000;0.1042;4.4883;
555.0000;0.1042;4.4956;
555.3000;0.1042;4.4931;
555.6000;0.1034;4.4858;
555.9000;0.1058;4.5029;
556.2000;0.1115;4.5223;
556.5000;0.1074;4.5199;
556.8000;0.1083;4.5223;
557.1000;0.1074;4.5077;
557.4000;0.1034;4.5077;
557.7000;0.1058;4.5053;
558.0000;0.1083;4.5175;
558.3000;0.1083;4.5126;
558.6000;0.1042;4.5053;
558.9000;0.1074;4.5150;
559.2000;0.1050;4.5004;
559.5000;0.1074;4.4956;
559.8000;0.1050;4.4980;
560.1000;0.1083;4.5199;
560.4000;0.1050;4.5053;
560.7000;0.0952;4.4712;
561.0000;0.1066;4.5004;
561.3000;0.1099;4.5029;
561.6000;0.1058;4.5053;
561.9000;0.1066;4.5102;
562.2000;0.1050;4.5029;
562.5000;0.1050;4.5053;
562.8000;0.1050;4.4956;
563.1000;0.1066;4.5004;
563.4000;0.1050;4.5004;
563.7000;0.1066;4.4956;
564.0000;0.1050;4.4931;
564.3000;0.1050;4.5004;
564.6000;0.1074;4.4980;
564.9000;0.1058;4.4883;
565.2000;0.1058;4.4907;
565.5000;0.1066;4.5053;
565.8000;0.1018;4.4956;
566.1000;0.1066;4.5053;
566.4000;0.1083;4.5077;
566.7000;0.1091;4.4980;
567.0000;0.1066;4.4834;
567.3000;0.1009;4.4712;
567.6000;0.1050;4.4858;
567.9000;0.1050;4.4858;
568.2000;0.1050;4.4956;
568.5000;0.1066;4.5029;
568.8000;0.1042;4.5029;
569.1000;0.1058;4.5053;
569.4000;0.1058;4.4980;
569.7000;0.1066;4.5004;
570.0000;0.1034;4.4931;
570.3000;0.1074;4.4980;
570.6000;0.1083;4.4980;
570.9000;0.1050;4.4883;
571.2000;0.1074;4.4907;
571.5000;0.1050;4.4858;
571.8000;0.1074;4.4883;
572.1000;0.1066;4.4907;
572.4000;0.1058;4.4907;
572.7000;0.1066;4.4980;
573.0000;0.1074;4.4931;
573.3000;0.1099;4.4980;
573.6000;0.0961;4.4615;
573.9000;0.1034;4.4980;
574.2000;0.1123;4.5248;
574.5000;0.0952;4.4810;
574.8000;0.1034;4.5004;
575.1000;0.1042;4.5077;
575.4000;0.1066;4.5102;
575.7000;0.1058;4.5053;
576.0000;0.1083;4.5126;
576.3000;0.1066;4.5077;
576.6000;0.0977;4.4785;
576.9000;0.1058;4.5102;
577.2000;0.1074;4.5199;
577.5000;0.1091;4.5175;
577.8000;0.1058;4.5126;
578.1000;0.1042;4.5077;
578.4000;0.1074;4.5223;
578.7000;0.1099;4.5223;
579.0000;0.1197;4.5345;
579.3000;0.1034;4.4883;
579.6000;0.1050;4.4980;
579.9000;0.1074;4.4980;
580.2000;0.1042;4.4883;
580.5000;0.1050;4.4834;
580.8000;0.1026;4.4810;
581.1000;0.1050;4.4907;
581.4000;0.1050;4.4858;
581.7000;0.1058;4.4834;
582.0000;0.1058;4.4834;
582.3000;0.1009;4.4688;
582.6000;0.1074;4.4810;
582.9000;0.1018;4.4712;
583.2000;0.1042;4.4785;
583.5000;0.1074;4.4834;
583.8000;0.1074;4.4834;
584.1000;0.1050;4.4858;
584.4000;0.1034;4.4858;
584.7000;0.1058;4.4956;
585.0000;0.1066;4.4956;
585.3000;0.1107;4.5004;
585.6000;0.1042;4.4834;
585.9000;0.1074;4.4883;
586.2000;0.1050;4.4858;
586.5000;0.1009;4.4785;
586.8000;0.1083;4.4931;
587.1000;0.1074;4.4858;
587.4000;0.1050;4.4883;
587.7000;0.1058;4.4858;
588.0000;0.1042;4.4785;
588.3000;0.1115;4.4931;
588.6000;0.1066;4.4737;
588.9000;0.1058;4.4688;
589.2000;0.1074;4.4761;
589.5000;0.1066;4.4639;
589.8000;0.1074;4.4737;
590.1000;0.1066;4.4688;
590.4000;0.1066;4.4688;
590.7000;0.1066;4.4834;
591.0000;0.1091;4.4956;
591.3000;0.1066;4.4883;
591.6000;0.1074;4.4907;
591.9000;0.1074;4.4907;
592.2000;0.1074;4.4883;
592.5000;0.1083;4.4931;
592.8000;0.1058;4.4931;
593.1000;0.1050;4.4858;
593.4000;0.1050;4.4737;
593.7000;0.0952;4.4493;
594.0000;0.1074;4.4858;
594.3000;0.1042;4.4688;
594.6000;0.0969;4.4591;
594.9000;0.1058;4.4907;
595.2000;0.1066;4.4931;
595.5000;0.1083;4.4956;
595.8000;0.1042;4.4810;
596.1000;0.1058;4.4858;
596.4000;0.1058;4.4883;
596.7000;0.1050;4.4834;
597.0000;0.1058;4.4858;
597.3000;0.0977;4.4639;
597.6000;0.1058;4.4858;
597.9000;0.1066;4.4858;
598.2000;0.1001;4.4664;
598.5000;0.0977;4.4761;
598.8000;0.1042;4.4907;
599.1000;0.1026;4.4810;
599.4000;0.1026;4.4639;
599.7000;0.0993;4.4469;
600.0000;0.1050;4.4566;
600.3000;0.1050;4.4591;
600.6000;0.1066;4.4445;
600.9000;0.1058;4.4299;
601.2000;0.1050;4.4201;
601.5000;0.0944;4.3885;
601.8000;0.1026;4.4006;
602.1000;0.1026;4.4079;
602.4000;0.1042;4.4128;
602.7000;0.1034;4.4055;
603.0000;0.1018;4.3909;
603.3000;0.1026;4.3860;
603.6000;0.1042;4.3909;
603.9000;0.1026;4.3885;
604.2000;0.1009;4.3836;
604.5000;0.1018;4.3933;
604.8000;0.0993;4.3763;
605.1000;0.0985;4.3641;
605.4000;0.1001;4.3617;
605.7000;0.0928;4.3374;
606.0000;0.0969;4.3520;
606.3000;0.1001;4.3544;
606.6000;0.0977;4.3568;
606.9000;0.0969;4.3568;
607.2000;0.0985;4.3568;
607.5000;0.0993;4.3593;
607.8000;0.0969;4.3544;
608.1000;0.0977;4.3593;
608.4000;0.0993;4.3641;
608.7000;0.0944;4.3568;
609.0000;0.0944;4.3544;
609.3000;0.0879;4.3349;
609.6000;0.0944;4.3495;
609.9000;0.0952;4.3495;
610.2000;0.0977;4.3520;
610.5000;0.0961;4.3471;
610.8000;0.0952;4.3422;
611.1000;0.0944;4.3471;
611.4000;0.0977;4.3593;
611.7000;0.0952;4.3471;
612.0000;0.0952;4.3447;
612.3000;0.0952;4.3398;
612.6000;0.0944;4.3301;
612.9000;0.0969;4.3495;
613.2000;0.0944;4.3349;
613.5000;0.0863;4.3009;
613.8000;0.1091;4.3787;
614.1000;0.0961;4.3422;
614.4000;0.0993;4.3447;
614.7000;0.0806;4.2960;
615.0000;0.0904;4.3203;
615.3000;0.0977;4.3495;
615.6000;0.0904;4.3349;
615.9000;0.0904;4.3398;
616.2000;0.0879;4.3301;
616.5000;0.0936;4.3349;
616.8000;0.0790;4.2984;
617.1000;0.0936;4.3325;
617.4000;0.0961;4.3398;
617.7000;0.0985;4.3422;
618.0000;0.0928;4.3398;
618.3000;0.0936;4.3422;
618.6000;0.0904;4.3276;
618.9000;0.0920;4.3252;
619.2000;0.0822;4.3009;
619.5000;0.0928;4.3301;
619.8000;0.0887;4.3228;
620.1000;0.0944;4.3447;
620.4000;0.0912;4.3325;
620.7000;0.0912;4.3374;
621.0000;0.0920;4.3349;
621.3000;0.0904;4.3301;
621.6000;0.0887;4.3228;
621.9000;0.0920;4.3325;
622.2000;0.0928;4.3325;
622.5000;0.0961;4.3447;
622.8000;0.0928;4.3422;
623.1000;0.0928;4.3447;
623.4000;0.0920;4.3471;
623.7000;0.0985;4.3690;
624.0000;0.0895;4.3495;
624.3000;0.0887;4.3447;
624.6000;0.0920;4.3520;
624.9000;0.0928;4.3495;
625.2000;0.0928;4.3641;
625.5000;0.1001;4.3885;
625.8000;0.0920;4.3690;
626.1000;0.0912;4.3568;
626.4000;0.0887;4.3568;
626.7000;0.0920;4.3641;
627.0000;0.0912;4.3666;
627.3000;0.0879;4.3495;
627.6000;0.0920;4.3520;
627.9000;0.0920;4.3447;
628.2000;0.0936;4.3447;
628.5000;0.0904;4.3349;
628.8000;0.0912;4.3398;
629.1000;0.0985;4.3641;
629.4000;0.0904;4.3398;
629.7000;0.0887;4.3349;
630.0000;0.0895;4.3422;
630.3000;0.0912;4.3374;
630.6000;0.0822;4.2984;
630.9000;0.0904;4.3203;
631.2000;0.0936;4.3349;
631.5000;0.0895;4.3179;
631.8000;0.0847;4.2936;
632.1000;0.0912;4.3252;
632.4000;0.0887;4.3228;
632.7000;0.0879;4.3252;
633.0000;0.0920;4.3325;
633.3000;0.0904;4.3398;
633.6000;0.0879;4.3301;
633.9000;0.0920;4.3374;
634.2000;0.0879;4.3374;
634.5000;0.0879;4.3325;
634.8000;0.0895;4.3398;
635.1000;0.0895;4.3398;
635.4000;0.0928;4.3447;
635.7000;0.0904;4.3276;
636.0000;0.0952;4.3471;
636.3000;0.0928;4.3520;
636.6000;0.0879;4.3325;
636.9000;0.0928;4.3471;
637.2000;0.0904;4.3398;
637.5000;0.0879;4.3374;
637.8000;0.0904;4.3374;
638.1000;0.0912;4.3374;
638.4000;0.0969;4.3544;
638.7000;0.0830;4.3228;
639.0000;0.0773;4.3130;
639.3000;0.0871;4.3422;
639.6000;0.0912;4.3471;
639.9000;0.0773;4.3106;
640.2000;0.0920;4.3520;
640.5000;0.0847;4.3276;
640.8000;0.0961;4.3690;
641.1000;0.0871;4.3398;
641.4000;0.0855;4.3276;
641.7000;0.0904;4.3398;
642.0000;0.0847;4.3276;
642.3000;0.0887;4.3447;
642.6000;0.0879;4.3374;
642.9000;0.0879;4.3374;
643.2000;0.0863;4.3325;
643.5000;0.0904;4.3398;
643.8000;0.0904;4.3325;
644.1000;0.0855;4.3130;
644.4000;0.0838;4.3033;
644.7000;0.0863;4.3057;
645.0000;0.0895;4.3203;
645.3000;0.0871;4.3130;
645.6000;0.0879;4.3155;
645.9000;0.0912;4.3252;
646.2000;0.0895;4.3301;
646.5000;0.0863;4.3252;
646.8000;0.0895;4.3276;
647.1000;0.0895;4.3276;
647.4000;0.0879;4.3276;
647.7000;0.0863;4.3276;
648.0000;0.0879;4.3325;
648.3000;0.0912;4.3398;
648.6000;0.0863;4.3252;
648.9000;0.0904;4.3349;
649.2000;0.0904;4.3374;
649.5000;0.0912;4.3471;
649.8000;0.0887;4.3398;
650.1000;0.0863;4.3301;
650.4000;0.0912;4.3398;
650.7000;0.0863;4.3155;
651.0000;0.0863;4.3130;
651.3000;0.0887;4.3082;
651.6000;0.0863;4.3130;
651.9000;0.0879;4.3203;
652.2000;0.0887;4.3301;
652.5000;0.0912;4.3325;
652.8000;0.0863;4.3130;
653.1000;0.0887;4.3203;
653.4000;0.0912;4.3252;
653.7000;0.0863;4.3155;
654.0000;0.0879;4.3301;
654.3000;0.0871;4.3301;
654.6000;0.0895;4.3301;
654.9000;0.0904;4.3349;
655.2000;0.0895;4.3301;
655.5000;0.0863;4.3179;
655.8000;0.0895;4.3301;
656.1000;0.0912;4.3325;
656.4000;0.0912;4.3422;
656.7000;0.0822;4.3106;
657.0000;0.0887;4.3301;
657.3000;0.0887;4.3374;
657.6000;0.0912;4.3447;
657.9000;0.0887;4.3398;
658.2000;0.0863;4.3349;
658.5000;0.0895;4.3374;
658.8000;0.0887;4.3276;
659.1000;0.0887;4.3203;
659.4000;0.0855;4.3106;
659.7000;0.0912;4.3301;
660.0000;0.0887;4.3179;
660.3000;0.0912;4.3301;
660.6000;0.0871;4.3301;
660.9000;0.0871;4.3325;
661.2000;0.0847;4.3179;
661.5000;0.0904;4.3276;
661.8000;0.0887;4.3155;
662.1000;0.0838;4.2911;
662.4000;0.0863;4.3082;
662.7000;0.0879;4.3179;
663.0000;0.0855;4.3155;
663.3000;0.0855;4.3228;
663.6000;0.0895;4.3374;
663.9000;0.0895;4.3422;
664.2000;0.0961;4.3568;
664.5000;0.0871;4.3471;
664.8000;0.0887;4.3495;
665.1000;0.0879;4.3520;
665.4000;0.0895;4.3471;
665.7000;0.0879;4.3374;
666.0000;0.0904;4.3422;
666.3000;0.0904;4.3422;
666.6000;0.0904;4.3495;
666.9000;0.0879;4.3422;
667.2000;0.0912;4.3495;
667.5000;0.0904;4.3349;
667.8000;0.0879;4.3374;
668.1000;0.0855;4.3252;
668.4000;0.0863;4.3252;
668.7000;0.0904;4.3276;
669.0000;0.0879;4.3301;
669.3000;0.0871;4.3374;
669.6000;0.0895;4.3447;
669.9000;0.0863;4.3374;
670.2000;0.0920;4.3495;
670.5000;0.0847;4.3374;
670.8000;0.0847;4.3325;
671.1000;0.0887;4.3447;
671.4000;0.0887;4.3374;
671.7000;0.0806;4.3130;
672.0000;0.0847;4.3374;
672.3000;0.0879;4.3374;
672.6000;0.0879;4.3398;
672.9000;0.0895;4.3471;
673.2000;0.0838;4.3349;
673.5000;0.0912;4.3593;
673.8000;0.0895;4.3568;
674.1000;0.0847;4.3422;
674.4000;0.0912;4.3617;
674.7000;0.0863;4.3471;
675.0000;0.0855;4.3495;
675.3000;0.0879;4.3520;
675.6000;0.0871;4.3398;
675.9000;0.0904;4.3471;
676.2000;0.0871;4.3349;
676.5000;0.0806;4.3130;
676.8000;0.0814;4.3082;
677.1000;0.0879;4.3374;
677.4000;0.0879;4.3276;
677.7000;0.0895;4.3301;
678.0000;0.0904;4.3374;
678.3000;0.0781;4.3057;
678.6000;0.0798;4.3155;
678.9000;0.0879;4.3301;
679.2000;0.0887;4.3374;
679.5000;0.0863;4.3276;
679.8000;0.0904;4.3301;
680.1000;0.0847;4.3082;
680.4000;0.0871;4.3130;
680.7000;0.0863;4.3130;
681.0000;0.0920;4.3228;
681.3000;0.0928;4.3252;
681.6000;0.0895;4.3203;
681.9000;0.0879;4.3130;
682.2000;0.0879;4.3130;
682.5000;0.0895;4.3252;
682.8000;0.0887;4.3349;
683.1000;0.0855;4.3301;
683.4000;0.0871;4.3349;
683.7000;0.0887;4.3447;
684.0000;0.0904;4.3520;
684.3000;0.0879;4.3471;
684.6000;0.0895;4.3422;
684.9000;0.0879;4.3422;
685.2000;0.0863;4.3471;
685.5000;0.0879;4.3422;
685.8000;0.0871;4.3495;
686.1000;0.0863;4.3520;
686.4000;0.0879;4.3544;
686.7000;0.0887;4.3520;
687.0000;0.0887;4.3544;
687.3000;0.0847;4.3374;
687.6000;0.0879;4.3447;
687.9000;0.0855;4.3398;
688.2000;0.0879;4.3398;
688.5000;0.0863;4.3301;
688.8000;0.0920;4.3495;
689.1000;0.0871;4.3422;
689.4000;0.0830;4.3130;
689.7000;0.0863;4.3301;
690.0000;0.0871;4.3349;
690.3000;0.0887;4.3422;
690.6000;0.0847;4.3374;
690.9000;0.0887;4.3495;
691.2000;0.0887;4.3568;
691.5000;0.0895;4.3641;
691.8000;0.0871;4.3593;
692.1000;0.0863;4.3471;
692.4000;0.0887;4.3520;
692.7000;0.0863;4.3471;
693.0000;0.0879;4.3471;
693.3000;0.0838;4.3349;
693.6000;0.0871;4.3422;
693.9000;0.0879;4.3471;
694.2000;0.0871;4.3471;
694.5000;0.0830;4.3325;
694.8000;0.0863;4.3495;
695.1000;0.0887;4.3593;
695.4000;0.0879;4.3544;
695.7000;0.0838;4.3495;
696.0000;0.0806;4.3422;
696.3000;0.0871;4.3495;
696.6000;0.0863;4.3422;
696.9000;0.0863;4.3495;
697.2000;0.0871;4.3471;
697.5000;0.0895;4.3544;
697.8000;0.0887;4.3495;
698.1000;0.0855;4.3422;
698.4000;0.0838;4.3520;
698.7000;0.0863;4.3593;
699.0000;0.0863;4.3641;
699.3000;0.0814;4.3471;
699.6000;0.0855;4.3568;
699.9000;0.0871;4.3568;
700.2000;0.0847;4.3471;
700.5000;0.0871;4.3495;
700.8000;0.0879;4.3568;
701.1000;0.0871;4.3544;
701.4000;0.0855;4.3641;
701.7000;0.0879;4.3690;
702.0000;0.0879;4.3666;
702.3000;0.0822;4.3471;
702.6000;0.0822;4.3520;
702.9000;0.0847;4.3544;
703.2000;0.0961;4.3836;
703.5000;0.0871;4.3714;
703.8000;0.0871;4.3641;
704.1000;0.0806;4.3447;
704.4000;0.0855;4.3617;
704.7000;0.0879;4.3763;
705.0000;0.0871;4.3787;
705.3000;0.0863;4.3739;
705.6000;0.0871;4.3787;
705.9000;0.0838;4.3714;
706.2000;0.0871;4.3666;
706.5000;0.0879;4.3641;
706.8000;0.0904;4.3714;
707.1000;0.0733;4.3252;
707.4000;0.0855;4.3593;
707.7000;0.0863;4.3593;
708.0000;0.0855;4.3520;
708.3000;0.0757;4.3203;
708.6000;0.0838;4.3471;
708.9000;0.0871;4.3568;
709.2000;0.0871;4.3568;
709.5000;0.0847;4.3471;
709.8000;0.0871;4.3422;
710.1000;0.0887;4.3495;
710.4000;0.0912;4.3593;
710.7000;0.0879;4.3398;
711.0000;0.0863;4.3374;
711.3000;0.0895;4.3398;
711.6000;0.0912;4.3447;
711.9000;0.0895;4.3471;
712.2000;0.0863;4.3520;
712.5000;0.0838;4.3471;
712.8000;0.0879;4.3544;
713.1000;0.0887;4.3641;
713.4000;0.0871;4.3617;
713.7000;0.0871;4.3544;
714.0000;0.0887;4.3568;
714.3000;0.0871;4.3544;
714.6000;0.0879;4.3568;
714.9000;0.0847;4.3495;
715.2000;0.0879;4.3666;
715.5000;0.0887;4.3714;
715.8000;0.0887;4.3763;
716.1000;0.0871;4.3714;
716.4000;0.0871;4.3690;
716.7000;0.0798;4.3422;
717.0000;0.0936;4.3836;
717.3000;0.0895;4.3617;
717.6000;0.0855;4.3641;
717.9000;0.0863;4.3739;
718.2000;0.0928;4.3739;
718.5000;0.0887;4.3666;
718.8000;0.0863;4.3593;
719.1000;0.0863;4.3544;
719.4000;0.0887;4.3568;
719.7000;0.0871;4.3544;
720.0000;0.0879;4.3617;
720.3000;0.0855;4.3544;
720.6000;0.0871;4.3520;
720.9000;0.0887;4.3544;
721.2000;0.0863;4.3544;
721.5000;0.0887;4.3544;
721.8000;0.0879;4.3495;
722.1000;0.0863;4.3495;
722.4000;0.0806;4.3422;
722.7000;0.0879;4.3544;
723.0000;0.0879;4.3593;
723.3000;0.0871;4.3568;
723.6000;0.0871;4.3520;
723.9000;0.0871;4.3495;
724.2000;0.0871;4.3471;
724.5000;0.0871;4.3447;
724.8000;0.0944;4.3641;
725.1000;0.0749;4.3009;
725.4000;0.0855;4.3374;
725.7000;0.0863;4.3447;
726.0000;0.0879;4.3398;
726.3000;0.0871;4.3398;
726.6000;0.0895;4.3422;
726.9000;0.0879;4.3349;
727.2000;0.0838;4.3301;
727.5000;0.0847;4.3398;
727.8000;0.0871;4.3495;
728.1000;0.0863;4.3325;
728.4000;0.0879;4.3398;
728.7000;0.0895;4.3471;
729.0000;0.0863;4.3422;
729.3000;0.0920;4.3568;
729.6000;0.0847;4.3398;
729.9000;0.0871;4.3422;
730.2000;0.0863;4.3447;
730.5000;0.0822;4.3325;
730.8000;0.0863;4.3520;
731.1000;0.0928;4.3714;
731.4000;0.0879;4.3666;
731.7000;0.0879;4.3690;
732.0000;0.0871;4.3568;
732.3000;0.0879;4.3520;
732.6000;0.0781;4.3301;
732.9000;0.0863;4.3568;
733.2000;0.0863;4.3568;
733.5000;0.0871;4.3471;
733.8000;0.0879;4.3447;
734.1000;0.0879;4.3495;
734.4000;0.0936;4.3666;
734.7000;0.0871;4.3568;
735.0000;0.0855;4.3495;
735.3000;0.0879;4.3641;
735.6000;0.0871;4.3666;
735.9000;0.0887;4.3641;
736.2000;0.0879;4.3641;
736.5000;0.0895;4.3714;
736.8000;0.0863;4.3714;
737.1000;0.0863;4.3714;
737.4000;0.0847;4.3690;
737.7000;0.0863;4.3641;
738.0000;0.0863;4.3568;
738.3000;0.0863;4.3495;
738.6000;0.0887;4.3495;
738.9000;0.0887;4.3544;
739.2000;0.0863;4.3593;
739.5000;0.0871;4.3568;
739.8000;0.0887;4.3617;
740.1000;0.0855;4.3593;
740.4000;0.0863;4.3568;
740.7000;0.0871;4.3544;
741.0000;0.0887;4.3666;
741.3000;0.0871;4.3568;
741.6000;0.0912;4.3787;
741.9000;0.0863;4.3617;
742.2000;0.1001;4.4055;
742.5000;0.0879;4.3690;
742.8000;0.0863;4.3641;
743.1000;0.0904;4.3787;
743.4000;0.0863;4.3617;
743.7000;0.0847;4.3568;
744.0000;0.0863;4.3617;
744.3000;0.0871;4.3520;
744.6000;0.0863;4.3617;
744.9000;0.0879;4.3690;
745.2000;0.0879;4.3641;
745.5000;0.0871;4.3641;
745.8000;0.0904;4.3666;
746.1000;0.0879;4.3568;
746.4000;0.0847;4.3398;
746.7000;0.0855;4.3447;
747.0000;0.0863;4.3422;
747.3000;0.0838;4.3398;
747.6000;0.0936;4.3763;
747.9000;0.0871;4.3568;
748.2000;0.0838;4.3568;
748.5000;0.0863;4.3690;
748.8000;0.0904;4.3836;
749.1000;0.0863;4.3714;
749.4000;0.0838;4.3666;
749.7000;0.0847;4.3714;
750.0000;0.0871;4.3787;
750.3000;0.0847;4.3714;
750.6000;0.0855;4.3714;
750.9000;0.0879;4.3666;
751.2000;0.0928;4.3812;
751.5000;0.0871;4.3690;
751.8000;0.0871;4.3690;
752.1000;0.0936;4.3812;
752.4000;0.0863;4.3593;
752.7000;0.0855;4.3544;
753.0000;0.0871;4.3593;
753.3000;0.0822;4.3398;
753.6000;0.0838;4.3422;
753.9000;0.0855;4.3520;
754.2000;0.0887;4.3520;
754.5000;0.0847;4.3495;
754.8000;0.0879;4.3568;
755.1000;0.0920;4.3593;
755.4000;0.0838;4.3447;
755.7000;0.0887;4.3544;
756.0000;0.0871;4.3520;
756.3000;0.0904;4.3714;
756.6000;0.0985;4.3933;
756.9000;0.0863;4.3641;
757.2000;0.0830;4.3544;
757.5000;0.0863;4.3666;
757.8000;0.0855;4.3666;
758.1000;0.0830;4.3617;
758.4000;0.0847;4.3641;
758.7000;0.0847;4.3617;
759.0000;0.0879;4.3593;
759.3000;0.0871;4.3568;
759.6000;0.0822;4.3447;
759.9000;0.0863;4.3568;
760.2000;0.0863;4.3593;
760.5000;0.0879;4.3641;
760.8000;0.0871;4.3568;
761.1000;0.0887;4.3593;
761.4000;0.0863;4.3495;
761.7000;0.0871;4.3495;
762.0000;0.0855;4.3447;
762.3000;0.0871;4.3520;
762.6000;0.0871;4.3495;
762.9000;0.0822;4.3325;
763.2000;0.0847;4.3447;
763.5000;0.0830;4.3447;
763.8000;0.0871;4.3593;
764.1000;0.0838;4.3495;
764.4000;0.0871;4.3544;
764.7000;0.0863;4.3471;
765.0000;0.0879;4.3544;
765.3000;0.0871;4.3641;
765.6000;0.0863;4.3641;
765.9000;0.0855;4.3544;
766.2000;0.0855;4.3471;
766.5000;0.0814;4.3325;
766.8000;0.0847;4.3325;
767.1000;0.0838;4.3325;
767.4000;0.0879;4.3471;
767.7000;0.0879;4.3544;
768.0000;0.0863;4.3544;
768.3000;0.0847;4.3544;
768.6000;0.0879;4.3617;
768.9000;0.0871;4.3520;
769.2000;0.0847;4.3422;
769.5000;0.0855;4.3349;
769.8000;0.0781;4.3276;
770.1000;0.0847;4.3447;
770.4000;0.0969;4.3787;
770.7000;0.0847;4.3544;
771.0000;0.0871;4.3593;
771.3000;0.0855;4.3495;
771.6000;0.0912;4.3617;
771.9000;0.0871;4.3520;
772.2000;0.0855;4.3447;
772.5000;0.0879;4.3544;
772.8000;0.0895;4.3666;
773.1000;0.0871;4.3520;
773.4000;0.0838;4.3398;
773.7000;0.0863;4.3422;
774.0000;0.0871;4.3471;
774.3000;0.0806;4.3252;
774.6000;0.0855;4.3398;
774.9000;0.0855;4.3471;
775.2000;0.0928;4.3666;
775.5000;0.0887;4.3471;
775.8000;0.0871;4.3495;
776.1000;0.0855;4.3471;
776.4000;0.0863;4.3544;
776.7000;0.0863;4.3471;
777.0000;0.0871;4.3471;
777.3000;0.0879;4.3520;
777.6000;0.0871;4.3447;
777.9000;0.0871;4.3495;
778.2000;0.0936;4.3568;
778.5000;0.0733;4.3106;
778.8000;0.0838;4.3398;
779.1000;0.0830;4.3349;
779.4000;0.0863;4.3447;
779.7000;0.0879;4.3349;
780.0000;0.0863;4.3374;
780.3000;0.0847;4.3422;
780.6000;0.0741;4.3179;
780.9000;0.0855;4.3447;
781.2000;0.0871;4.3495;
781.5000;0.0822;4.3349;
781.8000;0.0863;4.3593;
782.1000;0.0871;4.3520;
782.4000;0.0838;4.3422;
782.7000;0.0863;4.3422;
783.0000;0.0871;4.3471;
783.3000;0.0879;4.3544;
783.6000;0.0871;4.3544;
783.9000;0.0871;4.3471;
784.2000;0.0863;4.3447;
784.5000;0.0904;4.3471;
784.8000;0.0855;4.3325;
785.1000;0.0814;4.3276;
785.4000;0.0847;4.3422;
785.7000;0.0863;4.3422;
786.0000;0.0871;4.3422;
786.3000;0.0871;4.3495;
786.6000;0.0920;4.3617;
786.9000;0.0838;4.3374;
787.2000;0.0838;4.3374;
787.5000;0.0863;4.3471;
787.8000;0.0944;4.3617;
788.1000;0.0863;4.3495;
788.4000;0.0838;4.3447;
788.7000;0.0847;4.3398;
789.0000;0.0855;4.3447;
789.3000;0.0855;4.3520;
789.6000;0.0806;4.3422;
789.9000;0.0855;4.3544;
790.2000;0.0879;4.3568;
790.5000;0.0887;4.3544;
790.8000;0.0847;4.3447;
791.1000;0.0838;4.3422;
791.4000;0.0871;4.3568;
791.7000;0.0895;4.3690;
792.0000;0.0847;4.3544;
792.3000;0.0928;4.3763;
792.6000;0.0871;4.3641;
792.9000;0.0847;4.3568;
793.2000;0.0871;4.3544;
793.5000;0.0863;4.3617;
793.8000;0.0863;4.3568;
794.1000;0.0847;4.3471;
794.4000;0.0895;4.3447;
794.7000;0.0863;4.3398;
795.0000;0.0806;4.3252;
795.3000;0.0863;4.3398;
795.6000;0.0847;4.3228;
795.9000;0.0863;4.3228;
796.2000;0.0822;4.3106;
796.5000;0.0879;4.3374;
796.8000;0.0863;4.3349;
797.1000;0.0790;4.3130;
797.4000;0.0806;4.3252;
797.7000;0.0855;4.3349;
798.0000;0.0879;4.3374;
798.3000;0.0863;4.3398;
798.6000;0.0879;4.3325;
798.9000;0.0863;4.3325;
799.2000;0.0863;4.3301;
799.5000;0.0904;4.3471;
799.8000;0.0855;4.3398;
800.1000;0.0871;4.3398;
800.4000;0.0887;4.3471;
800.7000;0.0847;4.3374;
801.0000;0.0871;4.3495;
801.3000;0.0871;4.3520;
801.6000;0.0887;4.3568;
801.9000;0.0887;4.3520;
802.2000;0.0855;4.3544;
802.5000;0.0871;4.3641;
802.8000;0.0847;4.3544;
803.1000;0.0871;4.3617;
803.4000;0.0887;4.3641;
803.7000;0.0879;4.3593;
804.0000;0.0855;4.3666;
804.3000;0.0863;4.3714;
804.6000;0.0863;4.3666;
804.9000;0.0863;4.3641;
805.2000;0.0863;4.3666;
805.5000;0.0977;4.3933;
805.8000;0.0879;4.3641;
806.1000;0.0855;4.3666;
806.4000;0.0822;4.3471;
806.7000;0.0863;4.3568;
807.0000;0.0790;4.3349;
807.3000;0.0822;4.3495;
807.6000;0.0855;4.3544;
807.9000;0.0855;4.3544;
808.2000;0.0838;4.3471;
808.5000;0.0904;4.3568;
808.8000;0.0863;4.3447;
809.1000;0.0830;4.3374;
809.4000;0.0895;4.3593;
809.7000;0.0863;4.3544;
810.0000;0.0863;4.3520;
810.3000;0.0863;4.3447;
810.6000;0.0790;4.3203;
810.9000;0.0871;4.3398;
811.2000;0.0838;4.3374;
811.5000;0.0863;4.3374;
811.8000;0.0863;4.3349;
812.1000;0.0887;4.3495;
812.4000;0.0847;4.3398;
812.7000;0.0781;4.3276;
813.0000;0.0855;4.3471;
813.3000;0.0806;4.3276;
813.6000;0.0855;4.3495;
813.9000;0.0863;4.3495;
814.2000;0.0847;4.3593;
814.5000;0.0847;4.3617;
814.8000;0.0855;4.3520;
815.1000;0.0847;4.3495;
815.4000;0.0879;4.3593;
815.7000;0.0887;4.3666;
816.0000;0.0895;4.3617;
816.3000;0.0895;4.3568;
816.6000;0.0895;4.3520;
816.9000;0.0895;4.3568;
817.2000;0.0895;4.3568;
817.5000;0.0871;4.3544;
817.8000;0.0879;4.3568;
818.1000;0.0863;4.3447;
818.4000;0.0830;4.3374;
818.7000;0.0871;4.3568;
819.0000;0.0830;4.3471;
819.3000;0.0871;4.3593;
819.6000;0.0847;4.3520;
819.9000;0.0822;4.3520;
820.2000;0.0871;4.3714;
820.5000;0.0887;4.3812;
820.8000;0.0830;4.3714;
821.1000;0.0879;4.3739;
821.4000;0.0928;4.3909;
821.7000;0.0895;4.3933;
822.0000;0.0904;4.3958;
822.3000;0.0855;4.3812;
822.6000;0.0855;4.3885;
822.9000;0.0855;4.3860;
823.2000;0.0855;4.3860;
823.5000;0.0855;4.3860;
823.8000;0.0871;4.3739;
824.1000;0.0863;4.3690;
824.4000;0.0904;4.3787;
824.7000;0.0871;4.3690;
825.0000;0.0798;4.3520;
825.3000;0.0838;4.3593;
825.6000;0.0863;4.3666;
825.9000;0.0847;4.3617;
826.2000;0.0855;4.3544;
826.5000;0.0830;4.3374;
826.8000;0.0847;4.3398;
827.1000;0.0887;4.3520;
827.4000;0.0863;4.3422;
827.7000;0.0879;4.3544;
828.0000;0.0863;4.3495;
828.3000;0.0879;4.3520;
828.6000;0.0855;4.3447;
828.9000;0.0871;4.3495;
829.2000;0.0879;4.3471;
829.5000;0.0855;4.3422;
829.8000;0.0847;4.3398;
830.1000;0.0969;4.3836;
830.4000;0.0847;4.3568;
830.7000;0.0847;4.3593;
831.0000;0.0879;4.3666;
831.3000;0.0871;4.3544;
831.6000;0.0928;4.3787;
831.9000;0.0936;4.3812;
832.2000;0.0871;4.3666;
832.5000;0.0879;4.3739;
832.8000;0.0790;4.3593;
833.1000;0.0863;4.3812;
833.4000;0.0847;4.3714;
833.7000;0.0887;4.3787;
834.0000;0.0879;4.3739;
834.3000;0.0863;4.3714;
834.6000;0.0871;4.3641;
834.9000;0.0863;4.3593;
835.2000;0.0847;4.3544;
835.5000;0.0863;4.3520;
835.8000;0.0855;4.3495;
836.1000;0.0855;4.3374;
836.4000;0.0871;4.3471;
836.7000;0.0855;4.3447;
837.0000;0.0822;4.3374;
837.3000;0.0969;4.3739;
837.6000;0.0863;4.3422;
837.9000;0.0822;4.3325;
838.2000;0.0855;4.3349;
838.5000;0.0863;4.3447;
838.8000;0.0855;4.3495;
839.1000;0.0863;4.3544;
839.4000;0.0790;4.3374;
839.7000;0.0790;4.3398;
840.0000;0.0863;4.3520;
840.3000;0.0887;4.3568;
840.6000;0.0879;4.3520;
840.9000;0.0838;4.3471;
841.2000;0.0871;4.3641;
841.5000;0.0904;4.3617;
841.8000;0.0863;4.3568;
842.1000;0.0863;4.3568;
842.4000;0.0952;4.3836;
842.7000;0.0912;4.3763;
843.0000;0.0863;4.3763;
843.3000;0.0830;4.3690;
843.6000;0.0895;4.3812;
843.9000;0.0871;4.3739;
844.2000;0.0822;4.3593;
844.5000;0.0847;4.3690;
844.8000;0.0847;4.3714;
845.1000;0.0904;4.3812;
845.4000;0.0741;4.3447;
845.7000;0.0855;4.3812;
846.0000;0.0863;4.3812;
846.3000;0.0847;4.3714;
846.6000;0.0806;4.3641;
846.9000;0.0863;4.3714;
847.2000;0.0912;4.3812;
847.5000;0.0879;4.3739;
847.8000;0.0830;4.3714;
848.1000;0.0912;4.3958;
848.4000;0.0863;4.3787;
848.7000;0.0863;4.3763;
849.0000;0.0855;4.3739;
849.3000;0.0904;4.3836;
849.6000;0.0863;4.3641;
849.9000;0.0855;4.3617;
850.2000;0.0855;4.3787;
850.5000;0.0830;4.3690;
850.8000;0.0871;4.3714;
851.1000;0.0847;4.3617;
851.4000;0.0855;4.3617;
851.7000;0.0879;4.3641;
852.0000;0.0879;4.3568;
852.3000;0.0871;4.3520;
852.6000;0.0895;4.3617;
852.9000;0.0895;4.3714;
853.2000;0.0871;4.3714;
853.5000;0.0871;4.3617;
853.8000;0.0863;4.3593;
854.1000;0.0863;4.3520;
854.4000;0.0863;4.3544;
854.7000;0.0855;4.3520;
855.0000;0.0977;4.3714;
855.3000;0.0838;4.3398;
855.6000;0.0871;4.3520;
855.9000;0.0863;4.3544;
856.2000;0.0879;4.3495;
856.5000;0.0871;4.3398;
856.8000;0.0871;4.3471;
857.1000;0.0855;4.3593;
857.4000;0.0863;4.3666;
857.7000;0.0871;4.3690;
858.0000;0.0887;4.3714;
858.3000;0.0855;4.3714;
858.6000;0.0847;4.3593;
858.9000;0.0855;4.3666;
859.2000;0.0855;4.3617;
859.5000;0.0781;4.3325;
859.8000;0.0871;4.3617;
860.1000;0.0847;4.3544;
860.4000;0.0904;4.3714;
860.7000;0.0887;4.3739;
861.0000;0.0863;4.3617;
861.3000;0.0863;4.3568;
861.6000;0.0912;4.3787;
861.9000;0.0773;4.3447;
862.2000;0.0993;4.3933;
862.5000;0.0863;4.3666;
862.8000;0.0822;4.3666;
863.1000;0.0855;4.3690;
863.4000;0.0855;4.3641;
863.7000;0.0904;4.3860;
864.0000;0.0863;4.3787;
864.3000;0.0855;4.3836;
864.6000;0.0781;4.3593;
864.9000;0.0847;4.3714;
865.2000;0.0830;4.3714;
865.5000;0.0904;4.3860;
865.8000;0.0847;4.3666;
866.1000;0.0863;4.3787;
866.4000;0.0863;4.3787;
866.7000;0.0879;4.3885;
867.0000;0.0863;4.3860;
867.3000;0.0912;4.4031;
867.6000;0.0879;4.3933;
867.9000;0.0904;4.4031;
868.2000;0.0920;4.4079;
868.5000;0.0855;4.3982;
868.8000;0.0700;4.3422;
869.1000;0.0855;4.3763;
869.4000;0.0806;4.3641;
869.7000;0.0847;4.3860;
870.0000;0.0863;4.3933;
870.3000;0.0871;4.3812;
870.6000;0.0879;4.3860;
870.9000;0.0904;4.3958;
871.2000;0.0879;4.3909;
871.5000;0.0879;4.3909;
871.8000;0.0936;4.4079;
872.1000;0.0879;4.3885;
872.4000;0.0871;4.3836;
872.7000;0.0855;4.3836;
873.0000;0.0863;4.3860;
873.3000;0.0855;4.3763;
873.6000;0.0920;4.3982;
873.9000;0.0838;4.3690;
874.2000;0.0871;4.3690;
874.5000;0.0863;4.3714;
874.8000;0.0741;4.3447;
875.1000;0.0871;4.3787;
875.4000;0.0847;4.3787;
875.7000;0.0855;4.3812;
876.0000;0.0838;4.3836;
876.3000;0.0838;4.3860;
876.6000;0.0887;4.3958;
876.9000;0.0887;4.3933;
877.2000;0.0863;4.3860;
877.5000;0.0879;4.3836;
877.8000;0.0871;4.3787;
878.1000;0.0814;4.3641;
878.4000;0.0871;4.3714;
878.7000;0.0871;4.3739;
879.0000;0.0773;4.3471;
879.3000;0.0855;4.3666;
879.6000;0.0871;4.3641;
879.9000;0.0855;4.3568;
880.2000;0.0855;4.3617;
880.5000;0.0936;4.3836;
880.8000;0.0936;4.3933;
881.1000;0.0879;4.3739;
881.4000;0.0838;4.3617;
881.7000;0.0822;4.3617;
882.0000;0.0871;4.3690;
882.3000;0.0879;4.3763;
882.6000;0.0773;4.3544;
882.9000;0.0781;4.3641;
883.2000;0.0822;4.3714;
883.5000;0.0847;4.3763;
883.8000;0.0863;4.3739;
884.1000;0.0838;4.3739;
884.4000;0.0871;4.3836;
884.7000;0.0887;4.3885;
885.0000;0.0855;4.3836;
885.3000;0.0863;4.3836;
885.6000;0.0904;4.3885;
885.9000;0.0863;4.3860;
886.2000;0.0871;4.3763;
886.5000;0.0855;4.3666;
886.8000;0.0838;4.3617;
887.1000;0.0847;4.3666;
887.4000;0.0904;4.3812;
887.7000;0.0887;4.3714;
888.0000;0.0887;4.3641;
888.3000;0.0847;4.3568;
888.6000;0.0904;4.3836;
888.9000;0.0838;4.3690;
889.2000;0.0847;4.3763;
889.5000;0.0871;4.3860;
889.8000;0.0863;4.3812;
890.1000;0.0871;4.3763;
890.4000;0.0863;4.3739;
890.7000;0.0847;4.3714;
891.0000;0.0879;4.3787;
891.3000;0.0863;4.3690;
891.6000;0.0863;4.3666;
891.9000;0.0871;4.3666;
892.2000;0.0798;4.3495;
892.5000;0.0863;4.3690;
892.8000;0.0895;4.3690;
893.1000;0.0855;4.3593;
893.4000;0.0879;4.3666;
893.7000;0.0855;4.3666;
894.0000;0.0863;4.3568;
894.3000;0.0855;4.3617;
894.6000;0.0863;4.3690;
894.9000;0.0822;4.3544;
895.2000;0.0855;4.3617;
895.5000;0.0855;4.3739;
895.8000;0.0871;4.3763;
896.1000;0.1001;4.4104;
896.4000;0.0855;4.3739;
896.7000;0.0879;4.3860;
897.0000;0.0863;4.3812;
897.3000;0.0879;4.3812;
897.6000;0.0863;4.3763;
897.9000;0.0871;4.3787;
898.2000;0.0830;4.3690;
898.5000;0.0855;4.3739;
898.8000;0.0887;4.3812;
899.1000;0.0847;4.3690;
899.4000;0.0814;4.3495;
899.7000;0.0863;4.3690;
900.0000;0.0912;4.3909;
900.3000;0.0863;4.3714;
900.6000;0.0879;4.3836;
900.9000;0.0847;4.3739;
901.2000;0.0871;4.3739;
901.5000;0.0912;4.3885;
901.8000;0.0879;4.3885;
902.1000;0.0838;4.3739;
902.4000;0.0871;4.3739;
902.7000;0.0895;4.3812;
903.0000;0.0830;4.3787;
903.3000;0.0879;4.3812;
903.6000;0.0895;4.3836;
903.9000;0.0863;4.3714;
904.2000;0.0863;4.3714;
904.5000;0.0961;4.4031;
904.8000;0.0961;4.4104;
905.1000;0.0879;4.3860;
905.4000;0.0847;4.3763;
905.7000;0.0822;4.3714;
906.0000;0.0855;4.3763;
906.3000;0.0871;4.3812;
906.6000;0.0847;4.3787;
906.9000;0.0855;4.3787;
907.2000;0.0855;4.3787;
907.5000;0.0912;4.3812;
907.8000;0.0847;4.3593;
908.1000;0.0920;4.3909;
908.4000;0.0838;4.3714;
908.7000;0.0830;4.3739;
909.0000;0.0847;4.3812;
909.3000;0.0838;4.3763;
909.6000;0.0838;4.3739;
909.9000;0.0879;4.3739;
910.2000;0.0855;4.3641;
910.5000;0.0855;4.3617;
910.8000;0.0814;4.3544;
911.1000;0.0871;4.3690;
911.4000;0.0855;4.3690;
911.7000;0.0838;4.3617;
912.0000;0.0847;4.3593;
912.3000;0.0863;4.3641;
912.6000;0.0879;4.3617;
912.9000;0.0863;4.3666;
913.2000;0.0904;4.3860;
913.5000;0.0855;4.3739;
913.8000;0.0847;4.3763;
914.1000;0.0855;4.3812;
914.4000;0.0863;4.3787;
914.7000;0.0847;4.3836;
915.0000;0.0863;4.3860;
915.3000;0.0887;4.3933;
915.6000;0.0855;4.3836;
915.9000;0.0838;4.3836;
916.2000;0.0871;4.3885;
916.5000;0.0871;4.3836;
916.8000;0.0822;4.3641;
917.1000;0.0855;4.3714;
917.4000;0.0863;4.3690;
917.7000;0.0855;4.3739;
918.0000;0.0847;4.3690;
918.3000;0.0830;4.3641;
918.6000;0.0871;4.3763;
918.9000;0.0855;4.3666;
919.2000;0.0847;4.3787;
919.5000;0.0855;4.3787;
919.8000;0.0887;4.3860;
920.1000;0.0847;4.3812;
920.4000;0.0969;4.4153;
920.7000;0.0814;4.3714;
921.0000;0.0863;4.3812;
921.3000;0.0887;4.3885;
921.6000;0.0855;4.3885;
921.9000;0.0863;4.3836;
922.2000;0.0847;4.3836;
922.5000;0.0847;4.3885;
922.8000;0.0887;4.3836;
923.1000;0.0838;4.3690;
923.4000;0.0847;4.3739;
923.7000;0.0871;4.3763;
924.0000;0.0871;4.3690;
924.3000;0.0847;4.3714;
924.6000;0.0855;4.3714;
924.9000;0.0830;4.3617;
925.2000;0.0847;4.3714;
925.5000;0.0847;4.3690;
925.8000;0.0855;4.3763;
926.1000;0.0838;4.3763;
926.4000;0.0879;4.3812;
926.7000;0.0773;4.3520;
927.0000;0.0855;4.3763;
927.3000;0.0830;4.3666;
927.6000;0.0863;4.3666;
927.9000;0.0814;4.3544;
928.2000;0.0822;4.3544;
928.5000;0.0855;4.3690;
928.8000;0.0993;4.4006;
929.1000;0.0928;4.3812;
929.4000;0.0855;4.3690;
929.7000;0.0863;4.3641;
930.0000;0.0838;4.3593;
930.3000;0.0863;4.3641;
930.6000;0.0830;4.3520;
930.9000;0.0871;4.3617;
931.2000;0.0863;4.3617;
931.5000;0.0895;4.3666;
931.8000;0.0863;4.3568;
932.1000;0.0855;4.3495;
932.4000;0.0724;4.3179;
932.7000;0.0855;4.3593;
933.0000;0.0928;4.3836;
933.3000;0.0863;4.3544;
933.6000;0.0814;4.3422;
933.9000;0.0830;4.3495;
934.2000;0.0822;4.3544;
934.5000;0.0847;4.3666;
934.8000;0.0863;4.3739;
935.1000;0.0822;4.3593;
935.4000;0.0871;4.3666;
935.7000;0.0879;4.3714;
936.0000;0.0847;4.3763;
936.3000;0.0773;4.3544;
936.6000;0.0855;4.3763;
936.9000;0.0887;4.3812;
937.2000;0.0798;4.3714;
937.5000;0.0887;4.3982;
937.8000;0.0781;4.3641;
938.1000;0.0798;4.3666;
938.4000;0.0847;4.3812;
938.7000;0.0855;4.3812;
939.0000;0.0871;4.3860;
939.3000;0.0855;4.3739;
939.6000;0.0855;4.3836;
939.9000;0.0847;4.3860;
940.2000;0.0863;4.3885;
940.5000;0.0863;4.3812;
940.8000;0.0936;4.3982;
941.1000;0.0847;4.3787;
941.4000;0.0887;4.3909;
941.7000;0.0733;4.3422;
942.0000;0.0871;4.3714;
942.3000;0.0765;4.3374;
942.6000;0.0969;4.3933;
942.9000;0.0920;4.3812;
943.2000;0.0855;4.3714;
943.5000;0.0863;4.3714;
943.8000;0.0855;4.3690;
944.1000;0.0863;4.3763;
944.4000;0.0928;4.3958;
944.7000;0.0863;4.3787;
945.0000;0.0773;4.3544;
945.3000;0.0830;4.3739;
945.6000;0.0847;4.3787;
945.9000;0.0838;4.3714;
946.2000;0.0855;4.3739;
946.5000;0.0871;4.3714;
946.8000;0.0855;4.3714;
947.1000;0.0863;4.3787;
947.4000;0.0863;4.3787;
947.7000;0.0887;4.3812;
948.0000;0.0708;4.3398;
948.3000;0.0871;4.3909;
948.6000;0.0838;4.3812;
948.9000;0.0798;4.3666;
949.2000;0.0822;4.3666;
949.5000;0.0863;4.3836;
949.8000;0.0790;4.3617;
950.1000;0.0855;4.3787;
950.4000;0.0871;4.3812;
950.7000;0.0871;4.3812;
951.0000;0.0855;4.3763;
951.3000;0.0871;4.3812;
951.6000;0.0806;4.3690;
951.9000;0.0863;4.3860;
952.2000;0.0863;4.3860;
952.5000;0.0855;4.3812;
952.8000;0.0822;4.3641;
953.1000;0.0904;4.3860;
953.4000;0.0887;4.3763;
953.7000;0.0847;4.3714;
954.0000;0.0847;4.3666;
954.3000;0.0887;4.3617;
954.6000;0.0855;4.3593;
954.9000;0.0822;4.3447;
955.2000;0.0773;4.3325;
955.5000;0.0855;4.3520;
955.8000;0.0863;4.3520;
956.1000;0.0863;4.3447;
956.4000;0.0847;4.3398;
956.7000;0.0895;4.3593;
957.0000;0.0871;4.3593;
957.3000;0.0830;4.3641;
957.6000;0.0838;4.3739;
957.9000;0.0879;4.3860;
958.2000;0.0847;4.3739;
958.5000;0.0863;4.3763;
958.8000;0.0741;4.3422;
959.1000;0.0863;4.3690;
959.4000;0.0773;4.3374;
959.7000;0.0855;4.3568;
960.0000;0.0855;4.3520;
960.3000;0.0912;4.3666;
960.6000;0.0855;4.3568;
960.9000;0.0765;4.3349;
961.2000;0.0855;4.3593;
961.5000;0.0920;4.3763;
961.8000;0.0847;4.3568;
962.1000;0.0993;4.4006;
962.4000;0.0879;4.3641;
962.7000;0.0855;4.3520;
963.0000;0.0847;4.3593;
963.3000;0.0920;4.3860;
963.6000;0.0838;4.3617;
963.9000;0.0838;4.3568;
964.2000;0.0904;4.3739;
964.5000;0.0855;4.3714;
964.8000;0.0887;4.3739;
965.1000;0.0830;4.3617;
965.4000;0.0871;4.3641;
965.7000;0.0871;4.3593;
966.0000;0.0830;4.3495;
966.3000;0.0863;4.3617;
966.6000;0.0855;4.3593;
966.9000;0.0863;4.3544;
967.2000;0.0863;4.3544;
967.5000;0.0855;4.3422;
967.8000;0.0871;4.3471;
968.1000;0.0790;4.3130;
968.4000;0.0879;4.3520;
968.7000;0.0847;4.3495;
969.0000;0.0814;4.3471;
969.3000;0.0863;4.3568;
969.6000;0.0822;4.3495;
969.9000;0.0847;4.3568;
970.2000;0.0855;4.3666;
970.5000;0.0879;4.3787;
970.8000;0.0855;4.3690;
971.1000;0.0863;4.3666;
971.4000;0.0863;4.3666;
971.7000;0.0871;4.3690;
972.0000;0.0879;4.3690;
972.3000;0.0887;4.3714;
972.6000;0.0814;4.3568;
972.9000;0.0847;4.3666;
973.2000;0.0863;4.3593;
973.5000;0.0822;4.3495;
973.8000;0.0871;4.3690;
974.1000;0.0822;4.3568;
974.4000;0.0855;4.3666;
974.7000;0.0871;4.3690;
975.0000;0.0847;4.3544;
975.3000;0.0830;4.3520;
975.6000;0.0871;4.3666;
975.9000;0.0879;4.3714;
976.2000;0.0863;4.3666;
976.5000;0.0879;4.3763;
976.8000;0.0847;4.3641;
977.1000;0.0871;4.3617;
977.4000;0.0863;4.3593;
977.7000;0.0871;4.3568;
978.0000;0.0847;4.3593;
978.3000;0.0724;4.3325;
978.6000;0.0830;4.3520;
978.9000;0.0830;4.3495;
979.2000;0.0904;4.3593;
979.5000;0.0863;4.3495;
979.8000;0.0920;4.3593;
980.1000;0.0855;4.3544;
980.4000;0.0879;4.3568;
980.7000;0.0920;4.3666;
981.0000;0.0863;4.3495;
981.3000;0.0855;4.3471;
981.6000;0.0838;4.3471;
981.9000;0.0838;4.3447;
982.2000;0.0863;4.3471;
982.5000;0.0863;4.3471;
982.8000;0.0928;4.3666;
983.1000;0.0814;4.3422;
983.4000;0.0871;4.3690;
983.7000;0.0806;4.3495;
984.0000;0.0904;4.3885;
984.3000;0.0830;4.3593;
984.6000;0.0847;4.3593;
984.9000;0.0838;4.3495;
985.2000;0.0863;4.3520;
985.5000;0.0863;4.3544;
985.8000;0.0863;4.3520;
986.1000;0.0855;4.3544;
986.4000;0.0855;4.3520;
986.7000;0.0863;4.3495;
987.0000;0.0871;4.3520;
987.3000;0.0847;4.3495;
987.6000;0.0863;4.3520;
987.9000;0.0879;4.3447;
988.2000;0.0847;4.3349;
988.5000;0.0847;4.3325;
988.8000;0.0855;4.3398;
989.1000;0.0855;4.3422;
989.4000;0.0822;4.3447;
989.7000;0.0871;4.3593;
990.0000;0.0855;4.3471;
990.3000;0.0863;4.3593;
990.6000;0.0944;4.3860;
990.9000;0.0855;4.3690;
991.2000;0.0847;4.3617;
991.5000;0.0912;4.3714;
991.8000;0.0879;4.3739;
992.1000;0.0822;4.3593;
992.4000;0.0871;4.3739;
992.7000;0.0855;4.3617;
993.0000;0.0871;4.3544;
993.3000;0.0847;4.3398;
993.6000;0.0814;4.3301;
993.9000;0.0855;4.3471;
994.2000;0.0847;4.3471;
994.5000;0.0855;4.3447;
994.8000;0.0838;4.3471;
995.1000;0.0838;4.3398;
995.4000;0.0879;4.3520;
995.7000;0.0847;4.3447;
996.0000;0.0814;4.3349;
996.3000;0.0895;4.3617;
996.6000;0.0895;4.3617;
996.9000;0.0871;4.3641;
997.2000;0.0838;4.3641;
997.5000;0.0863;4.3714;
997.8000;0.0822;4.3593;
998.1000;0.0830;4.3690;
998.4000;0.0830;4.3739;
998.7000;0.0871;4.3763;
999.0000;0.0798;4.3544;
999.3000;0.0798;4.3568;
999.6000;0.0855;4.3763;
999.9000;0.0855;4.3787;
1000.2000;0.0838;4.3836;
1000.5000;0.0863;4.3885;
1000.8000;0.0895;4.3982;
1001.1000;0.0855;4.3836;
1001.4000;0.0871;4.3812;
1001.7000;0.0887;4.3958;
1002.0000;0.0863;4.3933;
1002.3000;0.0855;4.3885;
1002.6000;0.0855;4.3885;
1002.9000;0.0879;4.3885;
1003.2000;0.0952;4.4031;
1003.5000;0.0871;4.3836;
1003.8000;0.0838;4.3812;
1004.1000;0.0863;4.3812;
1004.4000;0.0749;4.3544;
1004.7000;0.0822;4.3812;
1005.0000;0.0855;4.3909;
1005.3000;0.0830;4.3714;
1005.6000;0.0879;4.3739;
1005.9000;0.0863;4.3641;
1006.2000;0.0879;4.3617;
1006.5000;0.0863;4.3641;
1006.8000;0.0871;4.3641;
1007.1000;0.0863;4.3666;
1007.4000;0.0879;4.3739;
1007.7000;0.0855;4.3714;
1008.0000;0.0781;4.3495;
1008.3000;0.0863;4.3593;
1008.6000;0.0838;4.3568;
1008.9000;0.0847;4.3520;
1009.2000;0.0863;4.3520;
1009.5000;0.0855;4.3520;
1009.8000;0.0871;4.3666;
1010.1000;0.0871;4.3641;
1010.4000;0.0847;4.3666;
1010.7000;0.0855;4.3666;
1011.0000;0.0928;4.3909;
1011.3000;0.0879;4.3787;
1011.6000;0.0879;4.3763;
1011.9000;0.0863;4.3714;
1012.2000;0.0887;4.3739;
1012.5000;0.0863;4.3617;
1012.8000;0.0879;4.3690;
1013.1000;0.0855;4.3714;
1013.4000;0.0847;4.3690;
1013.7000;0.0838;4.3690;
1014.0000;0.0765;4.3447;
1014.3000;0.0879;4.3739;
1014.6000;0.0863;4.3763;
1014.9000;0.0863;4.3714;
1015.2000;0.0863;4.3641;
1015.5000;0.0806;4.3471;
1015.8000;0.0822;4.3520;
1016.1000;0.0879;4.3568;
1016.4000;0.0871;4.3690;
1016.7000;0.0887;4.3690;
1017.0000;0.0944;4.3958;
1017.3000;0.0879;4.3666;
1017.6000;0.0871;4.3641;
1017.9000;0.0855;4.3617;
1018.2000;0.0830;4.3568;
1018.5000;0.0781;4.3325;
1018.8000;0.0977;4.3763;
1019.1000;0.0855;4.3374;
1019.4000;0.0838;4.3325;
1019.7000;0.0830;4.3447;
1020.0000;0.0944;4.3836;
1020.3000;0.0863;4.3495;
1020.6000;0.0847;4.3447;
1020.9000;0.0985;4.3739;
1021.2000;0.0863;4.3471;
1021.5000;0.0887;4.3520;
1021.8000;0.0781;4.3301;
1022.1000;0.0863;4.3544;
1022.4000;0.0863;4.3544;
1022.7000;0.0855;4.3520;
1023.0000;0.0733;4.3155;
1023.3000;0.0855;4.3520;
1023.6000;0.0838;4.3520;
1023.9000;0.0822;4.3520;
1024.2000;0.0863;4.3690;
1024.5000;0.0871;4.3812;
1024.8000;0.0871;4.3836;
1025.1000;0.0863;4.3763;
1025.4000;0.0863;4.3787;
1025.7000;0.0879;4.3739;
1026.0000;0.0847;4.3568;
1026.3000;0.0879;4.3690;
1026.6000;0.0879;4.3714;
1026.9000;0.0879;4.3617;
1027.2000;0.0871;4.3617;
1027.5000;0.0887;4.3641;
1027.8000;0.0847;4.3593;
1028.1000;0.0847;4.3568;
1028.4000;0.0838;4.3544;
1028.7000;0.0871;4.3617;
1029.0000;0.0936;4.3836;
1029.3000;0.0871;4.3568;
1029.6000;0.0855;4.3666;
1029.9000;0.0863;4.3690;
1030.2000;0.0887;4.3714;
1030.5000;0.0977;4.3860;
1030.8000;0.0871;4.3495;
1031.1000;0.0871;4.3471;
1031.4000;0.0855;4.3520;
1031.7000;0.0871;4.3544;
1032.0000;0.0855;4.3568;
1032.3000;0.0871;4.3544;
1032.6000;0.0879;4.3568;
1032.9000;0.0936;4.3690;
1033.2000;0.0879;4.3593;
1033.5000;0.0806;4.3374;
1033.8000;0.0863;4.3495;
1034.1000;0.0871;4.3520;
1034.4000;0.0887;4.3520;
1034.7000;0.0895;4.3471;
1035.0000;0.0871;4.3495;
1035.3000;0.0871;4.3471;
1035.6000;0.0871;4.3495;
1035.9000;0.0928;4.3617;
1036.2000;0.0855;4.3471;
1036.5000;0.0879;4.3690;
1036.8000;0.0944;4.3860;
1037.1000;0.0855;4.3544;
1037.4000;0.0798;4.3398;
1037.7000;0.0838;4.3617;
1038.0000;0.0879;4.3739;
1038.3000;0.0838;4.3617;
1038.6000;0.0871;4.3739;
1038.9000;0.0871;4.3763;
1039.2000;0.0855;4.3787;
1039.5000;0.0887;4.3860;
1039.8000;0.0863;4.3739;
1040.1000;0.0838;4.3617;
1040.4000;0.0863;4.3641;
1040.7000;0.0879;4.3641;
1041.0000;0.0847;4.3666;
1041.3000;0.0855;4.3641;
1041.6000;0.0790;4.3422;
1041.9000;0.0781;4.3374;
1042.2000;0.0847;4.3495;
1042.5000;0.0879;4.3617;
1042.8000;0.0838;4.3617;
1043.1000;0.0847;4.3593;
1043.4000;0.0855;4.3544;
1043.7000;0.0855;4.3495;
1044.0000;0.0855;4.3495;
1044.3000;0.0871;4.3593;
1044.6000;0.0961;4.3836;
1044.9000;0.0904;4.3666;
1045.2000;0.0871;4.3593;
1045.5000;0.0879;4.3641;
1045.8000;0.0806;4.3422;
1046.1000;0.0855;4.3593;
1046.4000;0.0806;4.3471;
1046.7000;0.0871;4.3666;
1047.0000;0.0847;4.3641;
1047.3000;0.0798;4.3471;
1047.6000;0.0871;4.3690;
1047.9000;0.0879;4.3714;
1048.2000;0.1009;4.4006;
1048.5000;0.0871;4.3617;
1048.8000;0.0855;4.3568;
1049.1000;0.0814;4.3422;
1049.4000;0.0871;4.3544;
1049.7000;0.0863;4.3520;
1050.0000;0.0863;4.3495;
1050.3000;0.0904;4.3495;
1050.6000;0.0855;4.3398;
1050.9000;0.0912;4.3593;
1051.2000;0.0879;4.3617;
1051.5000;0.0863;4.3617;
1051.8000;0.0863;4.3641;
1052.1000;0.0871;4.3666;
1052.4000;0.0757;4.3301;
1052.7000;0.0838;4.3520;
1053.0000;0.0863;4.3544;
1053.3000;0.0863;4.3447;
1053.6000;0.0871;4.3398;
1053.9000;0.0863;4.3301;
1054.2000;0.0871;4.3325;
1054.5000;0.0879;4.3325;
1054.8000;0.0863;4.3374;
1055.1000;0.0863;4.3471;
1055.4000;0.0855;4.3471;
1055.7000;0.0871;4.3520;
1056.0000;0.0855;4.3495;
1056.3000;0.0863;4.3495;
1056.6000;0.0847;4.3471;
1056.9000;0.0912;4.3714;
1057.2000;0.0895;4.3690;
1057.5000;0.0838;4.3617;
1057.8000;0.0871;4.3739;
1058.1000;0.0855;4.3641;
1058.4000;0.0838;4.3617;
1058.7000;0.0855;4.3641;
1059.0000;0.0887;4.3617;
1059.3000;0.0863;4.3593;
1059.6000;0.0879;4.3544;
1059.9000;0.0871;4.3520;
1060.2000;0.0879;4.3544;
1060.5000;0.0838;4.3471;
1060.8000;0.0855;4.3641;
1061.1000;0.0871;4.3617;
1061.4000;0.0871;4.3641;
1061.7000;0.0863;4.3568;
1062.0000;0.0863;4.3617;
1062.3000;0.0863;4.3617;
1062.6000;0.0847;4.3666;
1062.9000;0.0830;4.3544;
1063.2000;0.0863;4.3593;
1063.5000;0.0871;4.3666;
1063.8000;0.0822;4.3520;
1064.1000;0.0863;4.3568;
1064.4000;0.0863;4.3593;
1064.7000;0.0863;4.3544;
1065.0000;0.0863;4.3422;
1065.3000;0.0863;4.3447;
1065.6000;0.0863;4.3495;
1065.9000;0.0879;4.3520;
1066.2000;0.0879;4.3495;
1066.5000;0.0871;4.3447;
1066.8000;0.0724;4.3057;
1067.1000;0.0855;4.3471;
1067.4000;0.0855;4.3495;
1067.7000;0.0944;4.3812;
1068.0000;0.0871;4.3593;
1068.3000;0.0830;4.3471;
1068.6000;0.0855;4.3471;
1068.9000;0.0936;4.3739;
1069.2000;0.0920;4.3666;
1069.5000;0.0879;4.3544;
1069.8000;0.0855;4.3593;
1070.1000;0.0863;4.3593;
1070.4000;0.0847;4.3593;
1070.7000;0.0855;4.3617;
1071.0000;0.0847;4.3593;
1071.3000;0.0904;4.3641;
1071.6000;0.0879;4.3544;
1071.9000;0.0838;4.3447;
1072.2000;0.0871;4.3593;
1072.5000;0.0822;4.3520;
1072.8000;0.0855;4.3666;
1073.1000;0.0863;4.3617;
1073.4000;0.0863;4.3666;
1073.7000;0.0863;4.3666;
1074.0000;0.0912;4.3812;
1074.3000;0.0855;4.3739;
1074.6000;0.0838;4.3666;
1074.9000;0.0822;4.3593;
1075.2000;0.0855;4.3690;
1075.5000;0.0887;4.3787;
1075.8000;0.0863;4.3641;
1076.1000;0.0871;4.3763;
1076.4000;0.0879;4.3690;
1076.7000;0.0871;4.3568;
1077.0000;0.0871;4.3544;
1077.3000;0.0847;4.3471;
1077.6000;0.0863;4.3641;
1077.9000;0.0855;4.3666;
1078.2000;0.0855;4.3617;
1078.5000;0.0863;4.3617;
1078.8000;0.0871;4.3666;
1079.1000;0.0855;4.3568;
1079.4000;0.0863;4.3593;
1079.7000;0.0855;4.3617;
1080.0000;0.0863;4.3617;
1080.3000;0.0863;4.3617;
1080.6000;0.0822;4.3544;
1080.9000;0.0871;4.3690;
1081.2000;0.0855;4.3617;
1081.5000;0.0879;4.3739;
1081.8000;0.0920;4.3885;
1082.1000;0.0863;4.3739;
1082.4000;0.0790;4.3447;
1082.7000;0.0724;4.3301;
1083.0000;0.0847;4.3544;
1083.3000;0.0863;4.3520;
1083.6000;0.0822;4.3471;
1083.9000;0.0871;4.3568;
1084.2000;0.0830;4.3471;
1084.5000;0.0871;4.3666;
1084.8000;0.0879;4.3641;
1085.1000;0.0895;4.3593;
1085.4000;0.0863;4.3398;
1085.7000;0.0879;4.3593;
1086.0000;0.0855;4.3520;
1086.3000;0.0847;4.3544;
1086.6000;0.0871;4.3520;
1086.9000;0.0838;4.3520;
1087.2000;0.0887;4.3690;
1087.5000;0.0822;4.3544;
1087.8000;0.0879;4.3666;
1088.1000;0.0863;4.3593;
1088.4000;0.0855;4.3617;
1088.7000;0.0814;4.3544;
1089.0000;0.0887;4.3787;
1089.3000;0.0855;4.3739;
1089.6000;0.0871;4.3812;
1089.9000;0.0871;4.3690;
1090.2000;0.1018;4.4153;
1090.5000;0.0952;4.3909;
1090.8000;0.0887;4.3690;
1091.1000;0.0944;4.3763;
1091.4000;0.0879;4.3593;
1091.7000;0.0765;4.3252;
1092.0000;0.0741;4.3228;
1092.3000;0.0871;4.3568;
1092.6000;0.0863;4.3520;
1092.9000;0.0855;4.3520;
1093.2000;0.0895;4.3617;
1093.5000;0.0855;4.3520;
1093.8000;0.0847;4.3495;
1094.1000;0.0822;4.3520;
1094.4000;0.0895;4.3787;
1094.7000;0.0879;4.3690;
1095.0000;0.0863;4.3568;
1095.3000;0.0895;4.3690;
1095.6000;0.0838;4.3617;
1095.9000;0.0830;4.3641;
1096.2000;0.0838;4.3593;
1096.5000;0.0855;4.3690;
1096.8000;0.0838;4.3666;
1097.1000;0.0863;4.3739;
1097.4000;0.0822;4.3641;
1097.7000;0.0838;4.3641;
1098.0000;0.0863;4.3641;
1098.3000;0.0830;4.3544;
1098.6000;0.0855;4.3593;
1098.9000;0.0847;4.3544;
1099.2000;0.0855;4.3617;
1099.5000;0.0879;4.3714;
1099.8000;0.0855;4.3690;
1100.1000;0.0838;4.3641;
1100.4000;0.0863;4.3763;
1100.7000;0.0838;4.3739;
1101.0000;0.0863;4.3763;
1101.3000;0.0895;4.3787;
1101.6000;0.0855;4.3641;
1101.9000;0.0912;4.3885;
1102.2000;0.0871;4.3763;
1102.5000;0.0838;4.3787;
1102.8000;0.0830;4.3763;
1103.1000;0.0863;4.3836;
1103.4000;0.0855;4.3885;
1103.7000;0.0855;4.3787;
1104.0000;0.0847;4.3763;
1104.3000;0.0838;4.3690;
1104.6000;0.0855;4.3739;
1104.9000;0.0847;4.3714;
1105.2000;0.0871;4.3690;
1105.5000;0.0871;4.3714;
1105.8000;0.0830;4.3641;
1106.1000;0.0847;4.3714;
1106.4000;0.0863;4.3690;
1106.7000;0.0847;4.3617;
1107.0000;0.0855;4.3520;
1107.3000;0.0912;4.3714;
1107.6000;0.0838;4.3471;
1107.9000;0.0863;4.3471;
1108.2000;0.0904;4.3666;
1108.5000;0.0847;4.3617;
1108.8000;0.0855;4.3568;
1109.1000;0.0855;4.3593;
1109.4000;0.0863;4.3617;
1109.7000;0.0822;4.3495;
1110.0000;0.0806;4.3374;
1110.3000;0.0855;4.3568;
1110.6000;0.0855;4.3495;
1110.9000;0.0879;4.3471;
1111.2000;0.0847;4.3422;
1111.5000;0.0879;4.3593;
1111.8000;0.0871;4.3593;
1112.1000;0.0838;4.3544;
1112.4000;0.0847;4.3617;
1112.7000;0.0847;4.3520;
1113.0000;0.0855;4.3568;
1113.3000;0.0855;4.3641;
1113.6000;0.0830;4.3617;
1113.9000;0.0871;4.3690;
1114.2000;0.0936;4.3836;
1114.5000;0.0863;4.3617;
1114.8000;0.0855;4.3593;
1115.1000;0.0912;4.3787;
1115.4000;0.0887;4.3641;
1115.7000;0.0847;4.3471;
1116.0000;0.0936;4.3714;
1116.3000;0.0847;4.3422;
1116.6000;0.0871;4.3568;
1116.9000;0.0863;4.3593;
1117.2000;0.0814;4.3520;
1117.5000;0.0879;4.3690;
1117.8000;0.0855;4.3593;
1118.1000;0.0879;4.3690;
1118.4000;0.0855;4.3666;
1118.7000;0.0855;4.3666;
1119.0000;0.0814;4.3617;
1119.3000;0.0904;4.3860;
1119.6000;0.0822;4.3568;
1119.9000;0.0814;4.3520;
1120.2000;0.0863;4.3568;
1120.5000;0.0871;4.3690;
1120.8000;0.0863;4.3593;
1121.1000;0.0855;4.3544;
1121.4000;0.0871;4.3568;
1121.7000;0.0912;4.3666;
1122.0000;0.0895;4.3593;
1122.3000;0.0920;4.3666;
1122.6000;0.0847;4.3398;
1122.9000;0.0855;4.3398;
1123.2000;0.0838;4.3398;
1123.5000;0.0879;4.3544;
1123.8000;0.0838;4.3471;
1124.1000;0.0838;4.3471;
1124.4000;0.0863;4.3520;
1124.7000;0.0855;4.3495;
1125.0000;0.0863;4.3544;
1125.3000;0.0847;4.3593;
1125.6000;0.0887;4.3714;
1125.9000;0.0838;4.3714;
1126.2000;0.0847;4.3690;
1126.5000;0.0847;4.3714;
1126.8000;0.0871;4.3812;
1127.1000;0.0863;4.3812;
1127.4000;0.0822;4.3666;
1127.7000;0.0749;4.3422;
1128.0000;0.0855;4.3666;
1128.3000;0.0855;4.3617;
1128.6000;0.0912;4.3787;
1128.9000;0.0863;4.3714;
1129.2000;0.0847;4.3666;
1129.5000;0.0887;4.3763;
1129.8000;0.0895;4.3885;
1130.1000;0.0863;4.3714;
1130.4000;0.0838;4.3666;
1130.7000;0.0863;4.3787;
1131.0000;0.0863;4.3739;
1131.3000;0.0855;4.3666;
1131.6000;0.0871;4.3690;
1131.9000;0.0863;4.3641;
1132.2000;0.0855;4.3544;
1132.5000;0.0879;4.3593;
1132.8000;0.0847;4.3520;
1133.1000;0.0863;4.3617;
1133.4000;0.0863;4.3544;
1133.7000;0.0847;4.3520;
1134.0000;0.0863;4.3447;
1134.3000;0.0871;4.3520;
1134.6000;0.0904;4.3593;
1134.9000;0.0871;4.3593;
1135.2000;0.0879;4.3568;
1135.5000;0.0863;4.3471;
1135.8000;0.0838;4.3447;
1136.1000;0.0871;4.3495;
1136.4000;0.0855;4.3447;
1136.7000;0.0855;4.3471;
1137.0000;0.0879;4.3495;
1137.3000;0.0855;4.3447;
1137.6000;0.0855;4.3447;
1137.9000;0.0814;4.3301;
1138.2000;0.0871;4.3374;
1138.5000;0.0879;4.3422;
1138.8000;0.0863;4.3374;
1139.1000;0.0806;4.3349;
1139.4000;0.0863;4.3568;
1139.7000;0.0863;4.3495;
1140.0000;0.0863;4.3495;
1140.3000;0.0822;4.3495;
1140.6000;0.0838;4.3568;
1140.9000;0.0871;4.3666;
1141.2000;0.0798;4.3544;
1141.5000;0.0952;4.3909;
1141.8000;0.0855;4.3544;
1142.1000;0.0871;4.3568;
1142.4000;0.0814;4.3495;
1142.7000;0.0847;4.3641;
1143.0000;0.0863;4.3690;
1143.3000;0.0863;4.3690;
1143.6000;0.0855;4.3641;
1143.9000;0.0830;4.3568;
1144.2000;0.0855;4.3641;
1144.5000;0.0798;4.3568;
1144.8000;0.0887;4.3812;
1145.1000;0.0879;4.3812;
1145.4000;0.0781;4.3520;
1145.7000;0.0838;4.3544;
1146.0000;0.0879;4.3617;
1146.3000;0.0847;4.3568;
1146.6000;0.0847;4.3471;
1146.9000;0.0847;4.3471;
1147.2000;0.0871;4.3690;
1147.5000;0.0847;4.3520;
1147.8000;0.0863;4.3641;
1148.1000;0.0863;4.3641;
1148.4000;0.0855;4.3666;
1148.7000;0.0855;4.3690;
1149.0000;0.0887;4.3763;
1149.3000;0.0871;4.3714;
1149.6000;0.0830;4.3666;
1149.9000;0.0879;4.3666;
1150.2000;0.0879;4.3690;
1150.5000;0.0822;4.3520;
1150.8000;0.0806;4.3593;
1151.1000;0.0838;4.3641;
1151.4000;0.0871;4.3714;
1151.7000;0.0814;4.3617;
1152.0000;0.0928;4.3909;
1152.3000;0.0855;4.3812;
1152.6000;0.0733;4.3398;
1152.9000;0.0871;4.3714;
1153.2000;0.0977;4.3933;
1153.5000;0.0855;4.3641;
1153.8000;0.0830;4.3568;
1154.1000;0.0716;4.3276;
1154.4000;0.0895;4.3787;
1154.7000;0.0863;4.3641;
1155.0000;0.0855;4.3690;
1155.3000;0.0855;4.3666;
1155.6000;0.0855;4.3666;
1155.9000;0.0830;4.3690;
1156.2000;0.0863;4.3885;
1156.5000;0.0871;4.3885;
1156.8000;0.0855;4.3860;
1157.1000;0.0855;4.3836;
1157.4000;0.0863;4.3836;
1157.7000;0.0838;4.3714;
1158.0000;0.0757;4.3495;
1158.3000;0.0863;4.3763;
1158.6000;0.0847;4.3739;
1158.9000;0.0944;4.3860;
1159.2000;0.0879;4.3739;
1159.5000;0.0879;4.3763;
1159.8000;0.0822;4.3666;
1160.1000;0.0871;4.3763;
1160.4000;0.0822;4.3593;
1160.7000;0.0757;4.3422;
1161.0000;0.0904;4.3787;
1161.3000;0.0928;4.3885;
1161.6000;0.0863;4.3714;
1161.9000;0.0871;4.3544;
1162.2000;0.0855;4.3593;
1162.5000;0.0838;4.3617;
1162.8000;0.0871;4.3714;
1163.1000;0.0798;4.3544;
1163.4000;0.0863;4.3666;
1163.7000;0.0838;4.3593;
1164.0000;0.0871;4.3690;
1164.3000;0.0790;4.3544;
1164.6000;0.0863;4.3763;
1164.9000;0.0871;4.3787;
1165.2000;0.0887;4.3836;
1165.5000;0.0879;4.3714;
1165.8000;0.0847;4.3641;
1166.1000;0.0855;4.3690;
1166.4000;0.0912;4.3836;
1166.7000;0.0855;4.3690;
1167.0000;0.0855;4.3690;
1167.3000;0.0790;4.3593;
1167.6000;0.0895;4.3885;
1167.9000;0.0838;4.3739;
1168.2000;0.0855;4.3860;
1168.5000;0.0863;4.3885;
1168.8000;0.0847;4.3836;
1169.1000;0.0847;4.3860;
1169.4000;0.0847;4.3860;
1169.7000;0.0871;4.3836;
1170.0000;0.0936;4.4031;
1170.3000;0.0830;4.3641;
1170.6000;0.0863;4.3763;
1170.9000;0.0887;4.3714;
1171.2000;0.0887;4.3739;
1171.5000;0.0887;4.3617;
1171.8000;0.0847;4.3520;
1172.1000;0.0871;4.3617;
1172.4000;0.0887;4.3641;
1172.7000;0.0830;4.3641;
1173.0000;0.0863;4.3787;
1173.3000;0.0847;4.3763;
1173.6000;0.0871;4.3860;
1173.9000;0.0985;4.4153;
1174.2000;0.0863;4.3836;
1174.5000;0.0863;4.3763;
1174.8000;0.0944;4.4079;
1175.1000;0.0887;4.3909;
1175.4000;0.0749;4.3471;
1175.7000;0.0806;4.3544;
1176.0000;0.0879;4.3763;
1176.3000;0.0887;4.3812;
1176.6000;0.0855;4.3763;
1176.9000;0.0830;4.3666;
1177.2000;0.0847;4.3666;
1177.5000;0.0855;4.3787;
1177.8000;0.0847;4.3690;
1178.1000;0.0863;4.3714;
1178.4000;0.0814;4.3593;
1178.7000;0.0847;4.3641;
1179.0000;0.0887;4.3714;
1179.3000;0.0863;4.3739;
1179.6000;0.0863;4.3787;
1179.9000;0.0879;4.3812;
1180.2000;0.0879;4.3860;
1180.5000;0.0822;4.3763;
1180.8000;0.0863;4.3885;
1181.1000;0.0928;4.4031;
1181.4000;0.0879;4.3860;
1181.7000;0.0847;4.3812;
1182.0000;0.0863;4.3763;
1182.3000;0.0863;4.3690;
1182.6000;0.0912;4.3836;
1182.9000;0.0838;4.3641;
1183.2000;0.0879;4.3763;
1183.5000;0.0863;4.3739;
1183.8000;0.0863;4.3714;
1184.1000;0.0879;4.3739;
1184.4000;0.0863;4.3739;
1184.7000;0.0838;4.3739;
1185.0000;0.0847;4.3666;
1185.3000;0.0847;4.3666;
1185.6000;0.0895;4.3739;
1185.9000;0.0912;4.3763;
1186.2000;0.0822;4.3617;
1186.5000;0.0863;4.3714;
1186.8000;0.0838;4.3544;
1187.1000;0.0879;4.3690;
1187.4000;0.0879;4.3787;
1187.7000;0.0855;4.3836;
1188.0000;0.0855;4.3933;
1188.3000;0.0904;4.4055;
1188.6000;0.0847;4.3933;
1188.9000;0.0830;4.3885;
1189.2000;0.0838;4.3885;
1189.5000;0.0855;4.3933;
1189.8000;0.0887;4.3909;
1190.1000;0.0855;4.3812;
1190.4000;0.0781;4.3593;
1190.7000;0.0871;4.3909;
1191.0000;0.0863;4.3885;
1191.3000;0.0838;4.3763;
1191.6000;0.0838;4.3714;
1191.9000;0.0847;4.3666;
1192.2000;0.0879;4.3641;
1192.5000;0.0904;4.3763;
1192.8000;0.0847;4.3666;
1193.1000;0.0863;4.3690;
1193.4000;0.0847;4.3593;
1193.7000;0.0855;4.3641;
1194.0000;0.0847;4.3641;
1194.3000;0.0863;4.3739;
1194.6000;0.0855;4.3714;
1194.9000;0.0847;4.3739;
1195.2000;0.0855;4.3690;
1195.5000;0.0863;4.3690;
1195.8000;0.0871;4.3666;
1196.1000;0.0863;4.3641;
1196.4000;0.0855;4.3617;
1196.7000;0.0838;4.3617;
1197.0000;0.0830;4.3666;
1197.3000;0.0863;4.3787;
1197.6000;0.0879;4.3836;
1197.9000;0.0920;4.3982;
1198.2000;0.0847;4.3787;
1198.5000;0.0838;4.3714;
1198.8000;0.0838;4.3714;
1199.1000;0.0920;4.3909;
1199.4000;0.0847;4.3739;
1199.7000;0.0855;4.3763;
1200.0000;0.0838;4.3812;
1200.3000;0.0961;4.4031;
1200.6000;0.0855;4.3690;
1200.9000;0.0871;4.3690;
1201.2000;0.0855;4.3593;
1201.5000;0.0920;4.3714;
1201.8000;0.0863;4.3544;
1202.1000;0.0830;4.3471;
1202.4000;0.0847;4.3520;
1202.7000;0.0790;4.3349;
1203.0000;0.0814;4.3374;
1203.3000;0.0863;4.3447;
1203.6000;0.0838;4.3520;
1203.9000;0.0863;4.3617;
1204.2000;0.0830;4.3544;
1204.5000;0.0814;4.3568;
1204.8000;0.0757;4.3422;
1205.1000;0.0895;4.3714;
1205.4000;0.0871;4.3641;
1205.7000;0.0871;4.3568;
1206.0000;0.0773;4.3349;
1206.3000;0.0838;4.3568;
1206.6000;0.0928;4.3763;
1206.9000;0.0871;4.3641;
1207.2000;0.0863;4.3690;
1207.5000;0.0961;4.4031;
1207.8000;0.0847;4.3690;
1208.1000;0.0847;4.3739;
1208.4000;0.0822;4.3690;
1208.7000;0.0928;4.3958;
1209.0000;0.0855;4.3690;
1209.3000;0.0895;4.3885;
1209.6000;0.0871;4.3836;
1209.9000;0.0879;4.3812;
1210.2000;0.0985;4.4153;
1210.5000;0.0847;4.3690;
1210.8000;0.0871;4.3739;
1211.1000;0.0847;4.3617;
1211.4000;0.0936;4.3885;
1211.7000;0.0887;4.3690;
1212.0000;0.0855;4.3666;
1212.3000;0.0887;4.3714;
1212.6000;0.0871;4.3641;
1212.9000;0.0838;4.3617;
1213.2000;0.0863;4.3690;
1213.5000;0.0863;4.3714;
1213.8000;0.0871;4.3812;
1214.1000;0.0863;4.3812;
1214.4000;0.0863;4.3787;
1214.7000;0.0871;4.3836;
1215.0000;0.0855;4.3617;
1215.3000;0.0871;4.3568;
1215.6000;0.0871;4.3593;
1215.9000;0.0847;4.3495;
1216.2000;0.0879;4.3593;
1216.5000;0.0855;4.3544;
1216.8000;0.0863;4.3593;
1217.1000;0.0838;4.3568;
1217.4000;0.0765;4.3495;
1217.7000;0.0912;4.3787;
1218.0000;0.0806;4.3593;
1218.3000;0.0838;4.3714;
1218.6000;0.0871;4.3787;
1218.9000;0.0871;4.3812;
1219.2000;0.0855;4.3787;
1219.5000;0.0863;4.3885;
1219.8000;0.0871;4.3909;
1220.1000;0.0838;4.3714;
1220.4000;0.0863;4.3690;
1220.7000;0.0838;4.3568;
1221.0000;0.0863;4.3617;
1221.3000;0.0887;4.3690;
1221.6000;0.0847;4.3495;
1221.9000;0.0871;4.3617;
1222.2000;0.0863;4.3593;
1222.5000;0.0871;4.3666;
1222.8000;0.0879;4.3641;
1223.1000;0.0920;4.3690;
1223.4000;0.0863;4.3544;
1223.7000;0.0863;4.3641;
1224.0000;0.0847;4.3593;
1224.3000;0.0847;4.3593;
1224.6000;0.0798;4.3398;
1224.9000;0.0871;4.3666;
1225.2000;0.0887;4.3593;
1225.5000;0.0879;4.3641;
1225.8000;0.0871;4.3617;
1226.1000;0.0847;4.3544;
1226.4000;0.0887;4.3690;
1226.7000;0.0830;4.3544;
1227.0000;0.0838;4.3568;
1227.3000;0.0871;4.3714;
1227.6000;0.0887;4.3739;
1227.9000;0.0912;4.3836;
1228.2000;0.0928;4.3909;
1228.5000;0.0838;4.3617;
1228.8000;0.0855;4.3666;
1229.1000;0.0806;4.3495;
1229.4000;0.0847;4.3690;
1229.7000;0.0847;4.3812;
1230.0000;0.0838;4.3860;
1230.3000;0.0871;4.3860;
1230.6000;0.0895;4.3860;
1230.9000;0.0993;4.4153;
1231.2000;0.0781;4.3544;
1231.5000;0.0936;4.3909;
1231.8000;0.0863;4.3617;
1232.1000;0.0863;4.3568;
1232.4000;0.0871;4.3495;
1232.7000;0.0871;4.3447;
1233.0000;0.0684;4.2911;
1233.3000;0.0814;4.3301;
1233.6000;0.0838;4.3301;
1233.9000;0.0863;4.3349;
1234.2000;0.0847;4.3325;
1234.5000;0.0847;4.3374;
1234.8000;0.0863;4.3471;
1235.1000;0.0798;4.3252;
1235.4000;0.0855;4.3398;
1235.7000;0.0847;4.3374;
1236.0000;0.0871;4.3520;
1236.3000;0.0912;4.3714;
1236.6000;0.0887;4.3568;
1236.9000;0.0830;4.3495;
1237.2000;0.0863;4.3593;
1237.5000;0.0855;4.3544;
1237.8000;0.0863;4.3641;
1238.1000;0.0830;4.3520;
1238.4000;0.0847;4.3690;
1238.7000;0.0887;4.3739;
1239.0000;0.0855;4.3666;
1239.3000;0.0814;4.3593;
1239.6000;0.0855;4.3739;
1239.9000;0.0895;4.3836;
1240.2000;0.0855;4.3666;
1240.5000;0.0863;4.3787;
1240.8000;0.0871;4.3739;
1241.1000;0.0855;4.3714;
1241.4000;0.0887;4.3860;
1241.7000;0.0887;4.3982;
1242.0000;0.0781;4.3690;
1242.3000;0.0879;4.3885;
1242.6000;0.0863;4.3885;
1242.9000;0.0855;4.3885;
1243.2000;0.0863;4.3909;
1243.5000;0.0838;4.3763;
1243.8000;0.0871;4.3812;
1244.1000;0.0863;4.3787;
1244.4000;0.0814;4.3593;
1244.7000;0.0847;4.3763;
1245.0000;0.0863;4.3763;
1245.3000;0.0879;4.3860;
1245.6000;0.0871;4.3812;
1245.9000;0.0855;4.3787;
1246.2000;0.0847;4.3836;
1246.5000;0.0920;4.4079;
1246.8000;0.0977;4.4128;
1247.1000;0.0871;4.3885;
1247.4000;0.0912;4.3836;
1247.7000;0.0879;4.3641;
1248.0000;0.0838;4.3520;
1248.3000;0.0879;4.3690;
1248.6000;0.0871;4.3666;
1248.9000;0.0855;4.3641;
1249.2000;0.0863;4.3593;
1249.5000;0.0879;4.3593;
1249.8000;0.0920;4.3787;
1250.1000;0.0830;4.3666;
1250.4000;0.0838;4.3617;
1250.7000;0.0855;4.3617;
1251.0000;0.0847;4.3593;
1251.3000;0.0904;4.3763;
1251.6000;0.0830;4.3593;
1251.9000;0.0847;4.3593;
1252.2000;0.0863;4.3763;
1252.5000;0.0871;4.3812;
1252.8000;0.0847;4.3787;
1253.1000;0.0855;4.3641;
1253.4000;0.0814;4.3495;
1253.7000;0.0806;4.3495;
1254.0000;0.0912;4.3787;
1254.3000;0.0855;4.3593;
1254.6000;0.0847;4.3593;
1254.9000;0.0863;4.3666;
1255.2000;0.0879;4.3690;
1255.5000;0.0895;4.3739;
1255.8000;0.0879;4.3787;
1256.1000;0.0830;4.3617;
1256.4000;0.0855;4.3690;
1256.7000;0.0863;4.3666;
1257.0000;0.0871;4.3617;
1257.3000;0.0928;4.3836;
1257.6000;0.0863;4.3690;
1257.9000;0.0871;4.3739;
1258.2000;0.0912;4.3787;
1258.5000;0.0855;4.3641;
1258.8000;0.0847;4.3666;
1259.1000;0.0838;4.3714;
1259.4000;0.0838;4.3617;
1259.7000;0.0847;4.3690;
1260.0000;0.0887;4.3763;
1260.3000;0.0814;4.3568;
1260.6000;0.0871;4.3690;
1260.9000;0.0814;4.3544;
1261.2000;0.0863;4.3641;
1261.5000;0.0847;4.3593;
1261.8000;0.0830;4.3568;
1262.1000;0.0838;4.3568;
1262.4000;0.0855;4.3617;
1262.7000;0.0969;4.4031;
1263.0000;0.0830;4.3739;
1263.3000;0.0838;4.3617;
1263.6000;0.0863;4.3568;
1263.9000;0.0871;4.3568;
1264.2000;0.0830;4.3641;
1264.5000;0.0871;4.3836;
1264.8000;0.0830;4.3714;
1265.1000;0.0814;4.3666;
1265.4000;0.0838;4.3666;
1265.7000;0.0838;4.3617;
1266.0000;0.0847;4.3641;
1266.3000;0.0830;4.3641;
1266.6000;0.0928;4.3885;
1266.9000;0.0871;4.3739;
1267.2000;0.0855;4.3690;
1267.5000;0.0863;4.3690;
1267.8000;0.0871;4.3666;
1268.1000;0.0830;4.3641;
1268.4000;0.0855;4.3739;
1268.7000;0.0920;4.3860;
1269.0000;0.0855;4.3666;
1269.3000;0.0847;4.3666;
1269.6000;0.0879;4.3739;
1269.9000;0.0879;4.3739;
1270.2000;0.0887;4.3787;
1270.5000;0.0855;4.3787;
1270.8000;0.0871;4.3763;
1271.1000;0.0724;4.3276;
1271.4000;0.0863;4.3666;
1271.7000;0.0863;4.3593;
1272.0000;0.0863;4.3568;
1272.3000;0.0838;4.3398;
1272.6000;0.0871;4.3471;
1272.9000;0.0879;4.3495;
1273.2000;0.0806;4.3374;
1273.5000;0.0863;4.3520;
1273.8000;0.0838;4.3520;
1274.1000;0.0838;4.3520;
1274.4000;0.0855;4.3495;
1274.7000;0.0871;4.3471;
1275.0000;0.0863;4.3520;
1275.3000;0.0879;4.3641;
1275.6000;0.0871;4.3641;
1275.9000;0.0847;4.3568;
1276.2000;0.0871;4.3690;
1276.5000;0.0871;4.3763;
1276.8000;0.0895;4.3836;
1277.1000;0.0879;4.3885;
1277.4000;0.0871;4.3909;
1277.7000;0.0798;4.3690;
1278.0000;0.0871;4.3812;
1278.3000;0.0838;4.3763;
1278.6000;0.0863;4.3787;
1278.9000;0.0855;4.3763;
1279.2000;0.0879;4.3812;
1279.5000;0.0895;4.3812;
1279.8000;0.0887;4.3885;
1280.1000;0.0863;4.3812;
1280.4000;0.0879;4.3860;
1280.7000;0.0871;4.3763;
1281.0000;0.0855;4.3787;
1281.3000;0.0863;4.3763;
1281.6000;0.0855;4.3739;
1281.9000;0.0863;4.3714;
1282.2000;0.0871;4.3714;
1282.5000;0.0847;4.3666;
1282.8000;0.0855;4.3617;
1283.1000;0.0830;4.3593;
1283.4000;0.0920;4.3860;
1283.7000;0.0855;4.3714;
1284.0000;0.0863;4.3739;
1284.3000;0.0863;4.3836;
1284.6000;0.0855;4.3885;
1284.9000;0.0822;4.3787;
1285.2000;0.0847;4.3787;
1285.5000;0.0887;4.3933;
1285.8000;0.0871;4.3836;
1286.1000;0.0855;4.3690;
1286.4000;0.0847;4.3641;
1286.7000;0.0871;4.3690;
1287.0000;0.0822;4.3617;
1287.3000;0.0863;4.3812;
1287.6000;0.0847;4.3739;
1287.9000;0.0871;4.3836;
1288.2000;0.0855;4.3836;
1288.5000;0.0871;4.3909;
1288.8000;0.0830;4.3812;
1289.1000;0.0879;4.3885;
1289.4000;0.0944;4.4055;
1289.7000;0.0838;4.3787;
1290.0000;0.0838;4.3812;
1290.3000;0.0847;4.3885;
1290.6000;0.0838;4.3860;
1290.9000;0.0871;4.3933;
1291.2000;0.0781;4.3690;
1291.5000;0.0855;4.3787;
1291.8000;0.0871;4.3836;
1292.1000;0.0847;4.3739;
1292.4000;0.0847;4.3812;
1292.7000;0.0920;4.4031;
1293.0000;0.0838;4.3812;
1293.3000;0.0830;4.3763;
1293.6000;0.0830;4.3836;
1293.9000;0.0847;4.3812;
1294.2000;0.0847;4.3836;
1294.5000;0.0838;4.3860;
1294.8000;0.0879;4.3909;
1295.1000;0.0863;4.3860;
1295.4000;0.0838;4.3836;
1295.7000;0.0887;4.3958;
1296.0000;0.0830;4.3860;
1296.3000;0.0838;4.3787;
1296.6000;0.0847;4.3787;
1296.9000;0.0838;4.3812;
1297.2000;0.0863;4.3836;
1297.5000;0.0961;4.4055;
1297.8000;0.0855;4.3787;
1298.1000;0.0855;4.3763;
1298.4000;0.0847;4.3763;
1298.7000;0.0741;4.3495;
1299.0000;0.0871;4.3885;
1299.3000;0.0863;4.3885;
1299.6000;0.0838;4.3885;
1299.9000;0.0838;4.3885;
1300.2000;0.0855;4.3836;
1300.5000;0.0749;4.3544;
1300.8000;0.0879;4.3885;
1301.1000;0.0879;4.3836;
1301.4000;0.0887;4.3958;
1301.7000;0.0806;4.3739;
1302.0000;0.0798;4.3641;
1302.3000;0.0879;4.3933;
1302.6000;0.0887;4.3958;
1302.9000;0.0863;4.3933;
1303.2000;0.0879;4.3933;
1303.5000;0.0822;4.3836;
1303.8000;0.0855;4.3958;
1304.1000;0.0855;4.3909;
1304.4000;0.0969;4.4250;
1304.7000;0.0855;4.3860;
1305.0000;0.0895;4.3909;
1305.3000;0.0863;4.3812;
1305.6000;0.0920;4.3982;
1305.9000;0.0871;4.3836;
1306.2000;0.0855;4.3909;
1306.5000;0.0920;4.4104;
1306.8000;0.0887;4.3909;
1307.1000;0.0822;4.3690;
1307.4000;0.0790;4.3568;
1307.7000;0.0871;4.3666;
1308.0000;0.0863;4.3666;
1308.3000;0.0781;4.3568;
1308.6000;0.0863;4.3812;
1308.9000;0.0708;4.3471;
1309.2000;0.0855;4.3763;
1309.5000;0.0887;4.3787;
1309.8000;0.0863;4.3666;
1310.1000;0.0863;4.3666;
1310.4000;0.0855;4.3641;
1310.7000;0.0847;4.3617;
1311.0000;0.0855;4.3641;
1311.3000;0.0863;4.3544;
1311.6000;0.0847;4.3495;
1311.9000;0.0814;4.3495;
1312.2000;0.0855;4.3787;
1312.5000;0.0871;4.3860;
1312.8000;0.0855;4.3860;
1313.1000;0.0790;4.3787;
1313.4000;0.0871;4.3982;
1313.7000;0.0838;4.3812;
1314.0000;0.0830;4.3812;
1314.3000;0.0838;4.3860;
1314.6000;0.0757;4.3666;
1314.9000;0.0871;4.4031;
1315.2000;0.0855;4.3885;
1315.5000;0.0887;4.4031;
1315.8000;0.0904;4.4031;
1316.1000;0.0887;4.4055;
1316.4000;0.0847;4.3982;
1316.7000;0.0871;4.3982;
1317.0000;0.0765;4.3739;
1317.3000;0.0847;4.3958;
1317.6000;0.0928;4.4201;
1317.9000;0.1034;4.4420;
1318.2000;0.0822;4.3885;
1318.5000;0.0863;4.4006;
1318.8000;0.0855;4.3982;
1319.1000;0.0871;4.4031;
1319.4000;0.0847;4.3958;
1319.7000;0.0830;4.3860;
1320.0000;0.0863;4.3982;
1320.3000;0.0863;4.4031;
1320.6000;0.0847;4.3982;
1320.9000;0.0887;4.4177;
1321.2000;0.0863;4.4006;
1321.5000;0.0887;4.3958;
1321.8000;0.0838;4.3763;
1322.1000;0.0847;4.3885;
1322.4000;0.0863;4.3860;
1322.7000;0.0887;4.3909;
1323.0000;0.0871;4.3812;
1323.3000;0.0863;4.3739;
1323.6000;0.0814;4.3641;
1323.9000;0.0822;4.3641;
1324.2000;0.0838;4.3763;
1324.5000;0.0920;4.3933;
1324.8000;0.0879;4.3836;
1325.1000;0.0847;4.3836;
1325.4000;0.0847;4.3860;
1325.7000;0.0863;4.3885;
1326.0000;0.0798;4.3763;
1326.3000;0.0830;4.3812;
1326.6000;0.0847;4.3860;
1326.9000;0.0887;4.3933;
1327.2000;0.0838;4.3763;
1327.5000;0.0895;4.3787;
1327.8000;0.0871;4.3714;
1328.1000;0.0887;4.3763;
1328.4000;0.0879;4.3836;
1328.7000;0.0887;4.3812;
1329.0000;0.0814;4.3690;
1329.3000;0.0879;4.3812;
1329.6000;0.0847;4.3787;
1329.9000;0.0847;4.3714;
1330.2000;0.0863;4.3812;
1330.5000;0.0847;4.3739;
1330.8000;0.0871;4.3666;
1331.1000;0.0871;4.3787;
1331.4000;0.0928;4.3885;
1331.7000;0.0838;4.3617;
1332.0000;0.0847;4.3617;
1332.3000;0.0863;4.3690;
1332.6000;0.0920;4.3933;
1332.9000;0.0871;4.3836;
1333.2000;0.0855;4.3836;
1333.5000;0.0863;4.3860;
1333.8000;0.0830;4.3836;
1334.1000;0.0887;4.4006;
1334.4000;0.0847;4.3958;
1334.7000;0.0855;4.3958;
1335.0000;0.0871;4.4006;
1335.3000;0.0887;4.3933;
1335.6000;0.0871;4.3860;
1335.9000;0.0838;4.3812;
1336.2000;0.0765;4.3568;
1336.5000;0.0944;4.3933;
1336.8000;0.0838;4.3763;
1337.1000;0.0838;4.3617;
1337.4000;0.0838;4.3690;
1337.7000;0.0855;4.3836;
1338.0000;0.0830;4.3836;
1338.3000;0.1009;4.4323;
1338.6000;0.0887;4.3909;
1338.9000;0.0855;4.3860;
1339.2000;0.0936;4.4104;
1339.5000;0.0757;4.3666;
1339.8000;0.0961;4.4128;
1340.1000;0.0879;4.3860;
1340.4000;0.0928;4.3982;
1340.7000;0.0847;4.3763;
1341.0000;0.0838;4.3787;
1341.3000;0.0871;4.3982;
1341.6000;0.0847;4.3836;
1341.9000;0.0838;4.3812;
1342.2000;0.0847;4.3690;
1342.5000;0.0895;4.3909;
1342.8000;0.0871;4.3836;
1343.1000;0.0847;4.3714;
1343.4000;0.0863;4.3690;
1343.7000;0.0855;4.3690;
1344.0000;0.0887;4.3763;
1344.3000;0.0847;4.3593;
1344.6000;0.0838;4.3544;
1344.9000;0.0847;4.3568;
1345.2000;0.0863;4.3593;
1345.5000;0.0871;4.3617;
1345.8000;0.0863;4.3593;
1346.1000;0.0855;4.3544;
1346.4000;0.0879;4.3593;
1346.7000;0.0847;4.3593;
1347.0000;0.0847;4.3520;
1347.3000;0.0855;4.3593;
1347.6000;0.0879;4.3617;
1347.9000;0.0847;4.3568;
1348.2000;0.0879;4.3666;
1348.5000;0.0855;4.3690;
1348.8000;0.0863;4.3690;
1349.1000;0.0863;4.3787;
1349.4000;0.0887;4.3787;
1349.7000;0.0855;4.3617;
1350.0000;0.1018;4.4006;
1350.3000;0.0838;4.3593;
1350.6000;0.0879;4.3763;
1350.9000;0.0847;4.3666;
1351.2000;0.0887;4.3739;
1351.5000;0.0863;4.3666;
1351.8000;0.0871;4.3714;
1352.1000;0.0871;4.3666;
1352.4000;0.0936;4.3909;
1352.7000;0.0855;4.3714;
1353.0000;0.0863;4.3617;
1353.3000;0.0887;4.3739;
1353.6000;0.0855;4.3641;
1353.9000;0.0863;4.3690;
1354.2000;0.0863;4.3714;
1354.5000;0.0887;4.3860;
1354.8000;0.0830;4.3763;
1355.1000;0.0871;4.3787;
1355.4000;0.0887;4.3933;
1355.7000;0.0847;4.3836;
1356.0000;0.0863;4.3885;
1356.3000;0.0904;4.4031;
1356.6000;0.0895;4.3958;
1356.9000;0.0863;4.3885;
1357.2000;0.0830;4.3763;
1357.5000;0.0790;4.3641;
1357.8000;0.0855;4.3860;
1358.1000;0.0879;4.3909;
1358.4000;0.0879;4.3933;
1358.7000;0.0830;4.3739;
1359.0000;0.0855;4.3763;
1359.3000;0.0830;4.3666;
1359.6000;0.0895;4.3885;
1359.9000;0.0863;4.3812;
1360.2000;0.0944;4.4079;
1360.5000;0.0887;4.3860;
1360.8000;0.0904;4.4006;
1361.1000;0.0773;4.3739;
1361.4000;0.0855;4.3836;
1361.7000;0.0887;4.3909;
1362.0000;0.0928;4.4079;
1362.3000;0.0871;4.3909;
1362.6000;0.0830;4.3860;
1362.9000;0.0855;4.3836;
1363.2000;0.0814;4.3641;
1363.5000;0.0936;4.4006;
1363.8000;0.0790;4.3593;
1364.1000;0.0928;4.3885;
1364.4000;0.0895;4.3787;
1364.7000;0.0871;4.3714;
1365.0000;0.0879;4.3739;
1365.3000;0.0790;4.3617;
1365.6000;0.0749;4.3544;
1365.9000;0.0871;4.3836;
1366.2000;0.0879;4.3885;
1366.5000;0.0863;4.3836;
1366.8000;0.0781;4.3641;
1367.1000;0.0863;4.3933;
1367.4000;0.0871;4.3909;
1367.7000;0.0847;4.3739;
1368.0000;0.0847;4.3812;
1368.3000;0.0855;4.3885;
1368.6000;0.0855;4.3836;
1368.9000;0.0847;4.3885;
1369.2000;0.0847;4.3982;
1369.5000;0.0871;4.4031;
1369.8000;0.0855;4.4006;
1370.1000;0.0879;4.4079;
1370.4000;0.0847;4.3982;
1370.7000;0.0847;4.3836;
1371.0000;0.0920;4.3909;
1371.3000;0.0887;4.3739;
1371.6000;0.0871;4.3763;
1371.9000;0.0741;4.3398;
1372.2000;0.0822;4.3763;
1372.5000;0.0863;4.3836;
1372.8000;0.0855;4.3860;
1373.1000;0.0847;4.3763;
1373.4000;0.0822;4.3763;
1373.7000;0.0863;4.3885;
1374.0000;0.0838;4.3763;
1374.3000;0.0708;4.3422;
1374.6000;0.0871;4.3787;
1374.9000;0.0798;4.3544;
1375.2000;0.0920;4.3860;
1375.5000;0.0887;4.3690;
1375.8000;0.0855;4.3568;
1376.1000;0.0952;4.3836;
1376.4000;0.0969;4.3933;
1376.7000;0.0920;4.3714;
1377.0000;0.0887;4.3641;
1377.3000;0.0855;4.3471;
1377.6000;0.0863;4.3471;
1377.9000;0.0912;4.3641;
1378.2000;0.0879;4.3690;
1378.5000;0.0855;4.3739;
1378.8000;0.0773;4.3495;
1379.1000;0.0822;4.3641;
1379.4000;0.0879;4.3836;
1379.7000;0.0912;4.3958;
1380.0000;0.0855;4.3739;
1380.3000;0.0863;4.3739;
1380.6000;0.0863;4.3739;
1380.9000;0.0871;4.3787;
1381.2000;0.0855;4.3763;
1381.5000;0.0879;4.3860;
1381.8000;0.0895;4.3933;
1382.1000;0.0847;4.3763;
1382.4000;0.0724;4.3398;
1382.7000;0.0822;4.3666;
1383.0000;0.0855;4.3739;
1383.3000;0.0790;4.3593;
1383.6000;0.0879;4.3666;
1383.9000;0.0838;4.3617;
1384.2000;0.0920;4.3933;
1384.5000;0.0855;4.3739;
1384.8000;0.0798;4.3617;
1385.1000;0.0871;4.3812;
1385.4000;0.0814;4.3714;
1385.7000;0.0920;4.4031;
1386.0000;0.0822;4.3763;
1386.3000;0.0895;4.3860;
1386.6000;0.0871;4.3763;
1386.9000;0.0611;4.3130;
1387.2000;0.0969;4.4006;
1387.5000;0.0904;4.3958;
1387.8000;0.0798;4.3641;
1388.1000;0.0830;4.3617;
1388.4000;0.0847;4.3666;
1388.7000;0.0879;4.3641;
1389.0000;0.0863;4.3641;
1389.3000;0.0838;4.3617;
1389.6000;0.0871;4.3714;
1389.9000;0.0879;4.3812;
1390.2000;0.0855;4.3763;
1390.5000;0.0749;4.3447;
1390.8000;0.0806;4.3666;
1391.1000;0.0895;4.3933;
1391.4000;0.0863;4.3860;
1391.7000;0.0855;4.3836;
1392.0000;0.0863;4.3909;
1392.3000;0.0952;4.4201;
1392.6000;0.0871;4.3933;
1392.9000;0.0814;4.3812;
1393.2000;0.0871;4.3909;
1393.5000;0.0847;4.3836;
1393.8000;0.0814;4.3739;
1394.1000;0.0790;4.3714;
1394.4000;0.0733;4.3520;
1394.7000;0.0879;4.3860;
1395.0000;0.0879;4.3739;
1395.3000;0.0757;4.3349;
1395.6000;0.0969;4.3933;
1395.9000;0.0887;4.3690;
1396.2000;0.0871;4.3593;
1396.5000;0.0863;4.3617;
1396.8000;0.0855;4.3520;
1397.1000;0.0847;4.3544;
1397.4000;0.0887;4.3617;
1397.7000;0.0871;4.3544;
1398.0000;0.0838;4.3447;
1398.3000;0.0855;4.3520;
1398.6000;0.0847;4.3568;
1398.9000;0.0838;4.3568;
1399.2000;0.0863;4.3617;
1399.5000;0.0773;4.3374;
1399.8000;0.0871;4.3690;
