time/ms;Fluo/V;P700 deltaI/I x10³;
-199.8000;0.8571;0.6573;
-199.5000;0.8571;0.6599;
-199.2000;0.8563;0.6573;
-198.9000;0.8580;0.6624;
-198.6000;0.8571;0.6573;
-198.3000;0.8563;0.6522;
-198.0000;0.8563;0.6497;
-197.7000;0.8531;0.6369;
-197.4000;0.8563;0.6446;
-197.1000;0.8563;0.6548;
-196.8000;0.8531;0.6599;
-196.5000;0.8555;0.6675;
-196.2000;0.8555;0.6726;
-195.9000;0.8547;0.6675;
-195.6000;0.8531;0.6573;
-195.3000;0.8547;0.6573;
-195.0000;0.8547;0.6573;
-194.7000;0.8555;0.6548;
-194.4000;0.8555;0.6522;
-194.1000;0.8555;0.6522;
-193.8000;0.8571;0.6548;
-193.5000;0.8547;0.6497;
-193.2000;0.8547;0.6395;
-192.9000;0.8547;0.6395;
-192.6000;0.8571;0.6522;
-192.3000;0.8563;0.6548;
-192.0000;0.8547;0.6522;
-191.7000;0.8555;0.6573;
-191.4000;0.8547;0.6420;
-191.1000;0.8563;0.6446;
-190.8000;0.8547;0.6446;
-190.5000;0.8571;0.6599;
-190.2000;0.8539;0.6522;
-189.9000;0.8547;0.6573;
-189.6000;0.8547;0.6624;
-189.3000;0.8547;0.6701;
-189.0000;0.8539;0.6675;
-188.7000;0.8555;0.6548;
-188.4000;0.8555;0.6599;
-188.1000;0.8531;0.6522;
-187.8000;0.8555;0.6624;
-187.5000;0.8563;0.6624;
-187.2000;0.8555;0.6726;
-186.9000;0.8555;0.6752;
-186.6000;0.8547;0.6675;
-186.3000;0.8555;0.6701;
-186.0000;0.8571;0.6701;
-185.7000;0.8555;0.6624;
-185.4000;0.8555;0.6701;
-185.1000;0.8547;0.6726;
-184.8000;0.8588;0.6828;
-184.5000;0.8555;0.6752;
-184.2000;0.8555;0.6828;
-183.9000;0.8531;0.6828;
-183.6000;0.8555;0.6854;
-183.3000;0.8555;0.6803;
-183.0000;0.8571;0.6854;
-182.7000;0.8539;0.6854;
-182.4000;0.8563;0.6955;
-182.1000;0.8555;0.6828;
-181.8000;0.8555;0.6726;
-181.5000;0.8547;0.6497;
-181.2000;0.8563;0.6471;
-180.9000;0.8547;0.6471;
-180.6000;0.8555;0.6573;
-180.3000;0.8555;0.6624;
-180.0000;0.8555;0.6624;
-179.7000;0.8539;0.6650;
-179.4000;0.8563;0.6624;
-179.1000;0.8563;0.6599;
-178.8000;0.8523;0.6522;
-178.5000;0.8555;0.6573;
-178.2000;0.8571;0.6548;
-177.9000;0.8596;0.6599;
-177.6000;0.8555;0.6522;
-177.3000;0.8531;0.6599;
-177.0000;0.8555;0.6675;
-176.7000;0.8571;0.6675;
-176.4000;0.8580;0.6701;
-176.1000;0.8563;0.6675;
-175.8000;0.8531;0.6573;
-175.5000;0.8563;0.6573;
-175.2000;0.8571;0.6675;
-174.9000;0.8555;0.6599;
-174.6000;0.8555;0.6573;
-174.3000;0.8555;0.6573;
-174.0000;0.8547;0.6624;
-173.7000;0.8555;0.6675;
-173.4000;0.8563;0.6624;
-173.1000;0.8555;0.6599;
-172.8000;0.8563;0.6599;
-172.5000;0.8555;0.6650;
-172.2000;0.8588;0.6624;
-171.9000;0.8547;0.6548;
-171.6000;0.8563;0.6573;
-171.3000;0.8547;0.6548;
-171.0000;0.8596;0.6573;
-170.7000;0.8563;0.6548;
-170.4000;0.8555;0.6471;
-170.1000;0.8555;0.6548;
-169.8000;0.8580;0.6573;
-169.5000;0.8555;0.6573;
-169.2000;0.8571;0.6650;
-168.9000;0.8628;0.6879;
-168.6000;0.8531;0.6548;
-168.3000;0.8547;0.6573;
-168.0000;0.8571;0.6548;
-167.7000;0.8580;0.6624;
-167.4000;0.8531;0.6522;
-167.1000;0.8563;0.6599;
-166.8000;0.8563;0.6573;
-166.5000;0.8547;0.6522;
-166.2000;0.8547;0.6522;
-165.9000;0.8555;0.6599;
-165.6000;0.8555;0.6624;
-165.3000;0.8555;0.6573;
-165.0000;0.8547;0.6522;
-164.7000;0.8571;0.6522;
-164.4000;0.8571;0.6471;
-164.1000;0.8539;0.6446;
-163.8000;0.8563;0.6497;
-163.5000;0.8547;0.6395;
-163.2000;0.8563;0.6446;
-162.9000;0.8539;0.6420;
-162.6000;0.8539;0.6548;
-162.3000;0.8563;0.6599;
-162.0000;0.8571;0.6650;
-161.7000;0.8539;0.6675;
-161.4000;0.8555;0.6675;
-161.1000;0.8539;0.6650;
-160.8000;0.8555;0.6650;
-160.5000;0.8571;0.6675;
-160.2000;0.8563;0.6675;
-159.9000;0.8571;0.6650;
-159.6000;0.8563;0.6726;
-159.3000;0.8555;0.6701;
-159.0000;0.8588;0.6854;
-158.7000;0.8547;0.6803;
-158.4000;0.8547;0.6879;
-158.1000;0.8539;0.6828;
-157.8000;0.8555;0.6777;
-157.5000;0.8547;0.6701;
-157.2000;0.8563;0.6548;
-156.9000;0.8580;0.6573;
-156.6000;0.8555;0.6522;
-156.3000;0.8531;0.6395;
-156.0000;0.8539;0.6471;
-155.7000;0.8555;0.6471;
-155.4000;0.8571;0.6599;
-155.1000;0.8514;0.6497;
-154.8000;0.8580;0.6675;
-154.5000;0.8563;0.6752;
-154.2000;0.8637;0.6930;
-153.9000;0.8563;0.6752;
-153.6000;0.8563;0.6726;
-153.3000;0.8563;0.6701;
-153.0000;0.8596;0.6752;
-152.7000;0.8555;0.6650;
-152.4000;0.8563;0.6777;
-152.1000;0.8547;0.6752;
-151.8000;0.8555;0.6777;
-151.5000;0.8571;0.6726;
-151.2000;0.8547;0.6675;
-150.9000;0.8547;0.6726;
-150.6000;0.8555;0.6701;
-150.3000;0.8580;0.6726;
-150.0000;0.8555;0.6777;
-149.7000;0.8555;0.6777;
-149.4000;0.8571;0.6777;
-149.1000;0.8547;0.6726;
-148.8000;0.8547;0.6777;
-148.5000;0.8547;0.6752;
-148.2000;0.8555;0.6726;
-147.9000;0.8596;0.6854;
-147.6000;0.8547;0.6675;
-147.3000;0.8547;0.6624;
-147.0000;0.8580;0.6752;
-146.7000;0.8571;0.6726;
-146.4000;0.8612;0.6828;
-146.1000;0.8531;0.6624;
-145.8000;0.8539;0.6726;
-145.5000;0.8571;0.6777;
-145.2000;0.8580;0.6777;
-144.9000;0.8604;0.6803;
-144.6000;0.8563;0.6701;
-144.3000;0.8555;0.6599;
-144.0000;0.8563;0.6573;
-143.7000;0.8555;0.6624;
-143.4000;0.8571;0.6675;
-143.1000;0.8571;0.6624;
-142.8000;0.8571;0.6599;
-142.5000;0.8571;0.6675;
-142.2000;0.8547;0.6599;
-141.9000;0.8563;0.6624;
-141.6000;0.8580;0.6599;
-141.3000;0.8588;0.6726;
-141.0000;0.8555;0.6701;
-140.7000;0.8563;0.6650;
-140.4000;0.8555;0.6624;
-140.1000;0.8563;0.6650;
-139.8000;0.8555;0.6675;
-139.5000;0.8539;0.6675;
-139.2000;0.8563;0.6726;
-138.9000;0.8555;0.6726;
-138.6000;0.8555;0.6777;
-138.3000;0.8555;0.6777;
-138.0000;0.8555;0.6803;
-137.7000;0.8571;0.6828;
-137.4000;0.8588;0.6854;
-137.1000;0.8596;0.6828;
-136.8000;0.8571;0.6777;
-136.5000;0.8531;0.6675;
-136.2000;0.8563;0.6828;
-135.9000;0.8547;0.6752;
-135.6000;0.8547;0.6726;
-135.3000;0.8571;0.6828;
-135.0000;0.8563;0.6777;
-134.7000;0.8563;0.6726;
-134.4000;0.8531;0.6624;
-134.1000;0.8580;0.6726;
-133.8000;0.8547;0.6650;
-133.5000;0.8571;0.6599;
-133.2000;0.8563;0.6624;
-132.9000;0.8555;0.6624;
-132.6000;0.8571;0.6777;
-132.3000;0.8514;0.6650;
-132.0000;0.8580;0.6930;
-131.7000;0.8580;0.6955;
-131.4000;0.8596;0.6981;
-131.1000;0.8539;0.6905;
-130.8000;0.8571;0.6955;
-130.5000;0.8580;0.6905;
-130.2000;0.8547;0.6777;
-129.9000;0.8506;0.6726;
-129.6000;0.8555;0.6905;
-129.3000;0.8555;0.6981;
-129.0000;0.8580;0.6955;
-128.7000;0.8563;0.6879;
-128.4000;0.8531;0.6803;
-128.1000;0.8555;0.6777;
-127.8000;0.8555;0.6777;
-127.5000;0.8539;0.6726;
-127.2000;0.8571;0.6803;
-126.9000;0.8555;0.6803;
-126.6000;0.8539;0.6675;
-126.3000;0.8645;0.7006;
-126.0000;0.8580;0.6854;
-125.7000;0.8547;0.6879;
-125.4000;0.8523;0.6777;
-125.1000;0.8555;0.6828;
-124.8000;0.8571;0.6828;
-124.5000;0.8580;0.6803;
-124.2000;0.8547;0.6726;
-123.9000;0.8563;0.6854;
-123.6000;0.8547;0.6879;
-123.3000;0.8555;0.6879;
-123.0000;0.8555;0.6905;
-122.7000;0.8547;0.6879;
-122.4000;0.8482;0.6675;
-122.1000;0.8539;0.6879;
-121.8000;0.8547;0.6905;
-121.5000;0.8555;0.6828;
-121.2000;0.8563;0.6905;
-120.9000;0.8555;0.6828;
-120.6000;0.8555;0.6905;
-120.3000;0.8571;0.6879;
-120.0000;0.8539;0.6752;
-119.7000;0.8571;0.6879;
-119.4000;0.8571;0.6803;
-119.1000;0.8563;0.6777;
-118.8000;0.8580;0.6777;
-118.5000;0.8580;0.6803;
-118.2000;0.8555;0.6701;
-117.9000;0.8571;0.6675;
-117.6000;0.8563;0.6675;
-117.3000;0.8563;0.6624;
-117.0000;0.8563;0.6548;
-116.7000;0.8604;0.6624;
-116.4000;0.8563;0.6446;
-116.1000;0.8588;0.6573;
-115.8000;0.8596;0.6522;
-115.5000;0.8563;0.6420;
-115.2000;0.8580;0.6497;
-114.9000;0.8580;0.6522;
-114.6000;0.8580;0.6497;
-114.3000;0.8555;0.6497;
-114.0000;0.8547;0.6599;
-113.7000;0.8555;0.6548;
-113.4000;0.8555;0.6624;
-113.1000;0.8547;0.6573;
-112.8000;0.8555;0.6497;
-112.5000;0.8596;0.6548;
-112.2000;0.8604;0.6573;
-111.9000;0.8571;0.6471;
-111.6000;0.8539;0.6395;
-111.3000;0.8604;0.6548;
-111.0000;0.8555;0.6420;
-110.7000;0.8596;0.6497;
-110.4000;0.8580;0.6497;
-110.1000;0.8580;0.6446;
-109.8000;0.8563;0.6344;
-109.5000;0.8563;0.6395;
-109.2000;0.8563;0.6344;
-108.9000;0.8547;0.6344;
-108.6000;0.8555;0.6420;
-108.3000;0.8563;0.6344;
-108.0000;0.8547;0.6242;
-107.7000;0.8547;0.6217;
-107.4000;0.8588;0.6420;
-107.1000;0.8571;0.6446;
-106.8000;0.8596;0.6548;
-106.5000;0.8580;0.6548;
-106.2000;0.8539;0.6497;
-105.9000;0.8563;0.6548;
-105.6000;0.8563;0.6522;
-105.3000;0.8563;0.6446;
-105.0000;0.8620;0.6624;
-104.7000;0.8580;0.6522;
-104.4000;0.8604;0.6573;
-104.1000;0.8580;0.6497;
-103.8000;0.8571;0.6548;
-103.5000;0.8490;0.6395;
-103.2000;0.8482;0.6319;
-102.9000;0.8563;0.6573;
-102.6000;0.8547;0.6446;
-102.3000;0.8563;0.6497;
-102.0000;0.8555;0.6471;
-101.7000;0.8588;0.6522;
-101.4000;0.8620;0.6650;
-101.1000;0.8571;0.6548;
-100.8000;0.8563;0.6599;
-100.5000;0.8547;0.6548;
-100.2000;0.8563;0.6548;
-99.9000;0.8588;0.6624;
-99.6000;0.8580;0.6599;
-99.3000;0.8580;0.6624;
-99.0000;0.8571;0.6650;
-98.7000;0.8563;0.6650;
-98.4000;0.8555;0.6752;
-98.1000;0.8547;0.6752;
-97.8000;0.8563;0.6828;
-97.5000;0.8539;0.6701;
-97.2000;0.8555;0.6675;
-96.9000;0.8555;0.6675;
-96.6000;0.8547;0.6624;
-96.3000;0.8539;0.6471;
-96.0000;0.8571;0.6548;
-95.7000;0.8547;0.6471;
-95.4000;0.8555;0.6344;
-95.1000;0.8571;0.6420;
-94.8000;0.8539;0.6395;
-94.5000;0.8555;0.6395;
-94.2000;0.8571;0.6471;
-93.9000;0.8563;0.6497;
-93.6000;0.8563;0.6573;
-93.3000;0.8571;0.6599;
-93.0000;0.8555;0.6599;
-92.7000;0.8571;0.6548;
-92.4000;0.8571;0.6522;
-92.1000;0.8563;0.6548;
-91.8000;0.8547;0.6522;
-91.5000;0.8580;0.6522;
-91.2000;0.8547;0.6522;
-90.9000;0.8555;0.6573;
-90.6000;0.8571;0.6522;
-90.3000;0.8571;0.6573;
-90.0000;0.8555;0.6497;
-89.7000;0.8580;0.6548;
-89.4000;0.8563;0.6522;
-89.1000;0.8588;0.6573;
-88.8000;0.8571;0.6548;
-88.5000;0.8563;0.6548;
-88.2000;0.8588;0.6573;
-87.9000;0.8547;0.6522;
-87.6000;0.8539;0.6548;
-87.3000;0.8555;0.6497;
-87.0000;0.8555;0.6624;
-86.7000;0.8547;0.6573;
-86.4000;0.8555;0.6522;
-86.1000;0.8490;0.6344;
-85.8000;0.8604;0.6573;
-85.5000;0.8555;0.6548;
-85.2000;0.8506;0.6395;
-84.9000;0.8580;0.6471;
-84.6000;0.8539;0.6446;
-84.3000;0.8490;0.6293;
-84.0000;0.8531;0.6420;
-83.7000;0.8555;0.6446;
-83.4000;0.8555;0.6446;
-83.1000;0.8555;0.6471;
-82.8000;0.8571;0.6522;
-82.5000;0.8571;0.6446;
-82.2000;0.8563;0.6497;
-81.9000;0.8547;0.6548;
-81.6000;0.8563;0.6548;
-81.3000;0.8555;0.6599;
-81.0000;0.8547;0.6471;
-80.7000;0.8563;0.6344;
-80.4000;0.8563;0.6369;
-80.1000;0.8563;0.6293;
-79.8000;0.8555;0.6268;
-79.5000;0.8555;0.6268;
-79.2000;0.8588;0.6369;
-78.9000;0.8563;0.6293;
-78.6000;0.8563;0.6319;
-78.3000;0.8547;0.6319;
-78.0000;0.8547;0.6369;
-77.7000;0.8563;0.6548;
-77.4000;0.8563;0.6548;
-77.1000;0.8563;0.6548;
-76.8000;0.8563;0.6522;
-76.5000;0.8539;0.6446;
-76.2000;0.8571;0.6573;
-75.9000;0.8571;0.6650;
-75.6000;0.8555;0.6599;
-75.3000;0.8563;0.6573;
-75.0000;0.8563;0.6573;
-74.7000;0.8547;0.6548;
-74.4000;0.8563;0.6650;
-74.1000;0.8539;0.6599;
-73.8000;0.8563;0.6650;
-73.5000;0.8571;0.6599;
-73.2000;0.8563;0.6497;
-72.9000;0.8555;0.6522;
-72.6000;0.8555;0.6573;
-72.3000;0.8571;0.6624;
-72.0000;0.8547;0.6497;
-71.7000;0.8563;0.6624;
-71.4000;0.8563;0.6675;
-71.1000;0.8555;0.6624;
-70.8000;0.8571;0.6624;
-70.5000;0.8555;0.6548;
-70.2000;0.8563;0.6599;
-69.9000;0.8580;0.6599;
-69.6000;0.8563;0.6522;
-69.3000;0.8563;0.6522;
-69.0000;0.8555;0.6420;
-68.7000;0.8580;0.6522;
-68.4000;0.8588;0.6471;
-68.1000;0.8547;0.6395;
-67.8000;0.8563;0.6522;
-67.5000;0.8571;0.6497;
-67.2000;0.8571;0.6548;
-66.9000;0.8555;0.6599;
-66.6000;0.8580;0.6624;
-66.3000;0.8563;0.6624;
-66.0000;0.8580;0.6701;
-65.7000;0.8563;0.6599;
-65.4000;0.8563;0.6548;
-65.1000;0.8612;0.6624;
-64.8000;0.8580;0.6573;
-64.5000;0.8563;0.6573;
-64.2000;0.8531;0.6471;
-63.9000;0.8563;0.6522;
-63.6000;0.8580;0.6573;
-63.3000;0.8580;0.6497;
-63.0000;0.8628;0.6650;
-62.7000;0.8555;0.6446;
-62.4000;0.8555;0.6522;
-62.1000;0.8571;0.6599;
-61.8000;0.8547;0.6599;
-61.5000;0.8514;0.6471;
-61.2000;0.8555;0.6522;
-60.9000;0.8571;0.6522;
-60.6000;0.8555;0.6471;
-60.3000;0.8555;0.6446;
-60.0000;0.8588;0.6522;
-59.7000;0.8539;0.6420;
-59.4000;0.8531;0.6395;
-59.1000;0.8563;0.6497;
-58.8000;0.8571;0.6548;
-58.5000;0.8571;0.6573;
-58.2000;0.8539;0.6471;
-57.9000;0.8563;0.6471;
-57.6000;0.8547;0.6548;
-57.3000;0.8571;0.6573;
-57.0000;0.8571;0.6624;
-56.7000;0.8571;0.6624;
-56.4000;0.8547;0.6599;
-56.1000;0.8555;0.6522;
-55.8000;0.8571;0.6471;
-55.5000;0.8547;0.6420;
-55.2000;0.8571;0.6420;
-54.9000;0.8571;0.6446;
-54.6000;0.8555;0.6369;
-54.3000;0.8523;0.6319;
-54.0000;0.8563;0.6446;
-53.7000;0.8571;0.6446;
-53.4000;0.8571;0.6573;
-53.1000;0.8547;0.6497;
-52.8000;0.8563;0.6522;
-52.5000;0.8555;0.6497;
-52.2000;0.8571;0.6471;
-51.9000;0.8555;0.6395;
-51.6000;0.8547;0.6242;
-51.3000;0.8539;0.6191;
-51.0000;0.8547;0.6268;
-50.7000;0.8571;0.6319;
-50.4000;0.8555;0.6369;
-50.1000;0.8571;0.6446;
-49.8000;0.8555;0.6446;
-49.5000;0.8563;0.6522;
-49.2000;0.8563;0.6548;
-48.9000;0.8547;0.6701;
-48.6000;0.8555;0.6650;
-48.3000;0.8571;0.6650;
-48.0000;0.8563;0.6675;
-47.7000;0.8547;0.6701;
-47.4000;0.8563;0.6752;
-47.1000;0.8580;0.6752;
-46.8000;0.8580;0.6726;
-46.5000;0.8563;0.6726;
-46.2000;0.8571;0.6675;
-45.9000;0.8555;0.6624;
-45.6000;0.8555;0.6522;
-45.3000;0.8563;0.6650;
-45.0000;0.8555;0.6675;
-44.7000;0.8563;0.6726;
-44.4000;0.8555;0.6752;
-44.1000;0.8580;0.6752;
-43.8000;0.8563;0.6752;
-43.5000;0.8563;0.6701;
-43.2000;0.8555;0.6624;
-42.9000;0.8555;0.6548;
-42.6000;0.8563;0.6497;
-42.3000;0.8580;0.6650;
-42.0000;0.8547;0.6624;
-41.7000;0.8588;0.6701;
-41.4000;0.8563;0.6650;
-41.1000;0.8563;0.6624;
-40.8000;0.8555;0.6573;
-40.5000;0.8571;0.6573;
-40.2000;0.8531;0.6471;
-39.9000;0.8547;0.6522;
-39.6000;0.8588;0.6650;
-39.3000;0.8547;0.6599;
-39.0000;0.8580;0.6701;
-38.7000;0.8547;0.6624;
-38.4000;0.8571;0.6726;
-38.1000;0.8563;0.6726;
-37.8000;0.8555;0.6650;
-37.5000;0.8547;0.6675;
-37.2000;0.8555;0.6752;
-36.9000;0.8580;0.6803;
-36.6000;0.8555;0.6752;
-36.3000;0.8563;0.6726;
-36.0000;0.8555;0.6777;
-35.7000;0.8563;0.6854;
-35.4000;0.8563;0.6930;
-35.1000;0.8547;0.6879;
-34.8000;0.8555;0.6879;
-34.5000;0.8555;0.6752;
-34.2000;0.8547;0.6675;
-33.9000;0.8571;0.6573;
-33.6000;0.8555;0.6522;
-33.3000;0.8539;0.6497;
-33.0000;0.8555;0.6599;
-32.7000;0.8588;0.6752;
-32.4000;0.8547;0.6599;
-32.1000;0.8555;0.6599;
-31.8000;0.8547;0.6599;
-31.5000;0.8547;0.6599;
-31.2000;0.8563;0.6650;
-30.9000;0.8555;0.6675;
-30.6000;0.8563;0.6701;
-30.3000;0.8563;0.6777;
-30.0000;0.8563;0.6828;
-29.7000;0.8555;0.6777;
-29.4000;0.8555;0.6752;
-29.1000;0.8580;0.6777;
-28.8000;0.8563;0.6777;
-28.5000;0.8563;0.6650;
-28.2000;0.8555;0.6701;
-27.9000;0.8580;0.6726;
-27.6000;0.8563;0.6752;
-27.3000;0.8539;0.6752;
-27.0000;0.8580;0.6879;
-26.7000;0.8580;0.6905;
-26.4000;0.8580;0.6955;
-26.1000;0.8571;0.6930;
-25.8000;0.8555;0.6854;
-25.5000;0.8563;0.6905;
-25.2000;0.8580;0.6905;
-24.9000;0.8596;0.6854;
-24.6000;0.8563;0.6803;
-24.3000;0.8628;0.6828;
-24.0000;0.8571;0.6726;
-23.7000;0.8490;0.6573;
-23.4000;0.8571;0.6777;
-23.1000;0.8563;0.6726;
-22.8000;0.8580;0.6675;
-22.5000;0.8531;0.6675;
-22.2000;0.8563;0.6752;
-21.9000;0.8563;0.6803;
-21.6000;0.8563;0.6828;
-21.3000;0.8555;0.6828;
-21.0000;0.8555;0.6828;
-20.7000;0.8547;0.6777;
-20.4000;0.8523;0.6675;
-20.1000;0.8547;0.6803;
-19.8000;0.8555;0.6803;
-19.5000;0.8555;0.6854;
-19.2000;0.8547;0.6854;
-18.9000;0.8653;0.7083;
-18.6000;0.8539;0.6854;
-18.3000;0.8547;0.6905;
-18.0000;0.8563;0.6981;
-17.7000;0.8555;0.6955;
-17.4000;0.8547;0.6879;
-17.1000;0.8555;0.6879;
-16.8000;0.8580;0.7032;
-16.5000;0.8547;0.6930;
-16.2000;0.8547;0.6803;
-15.9000;0.8563;0.6879;
-15.6000;0.8539;0.6854;
-15.3000;0.8580;0.6955;
-15.0000;0.8563;0.6854;
-14.7000;0.8645;0.7159;
-14.4000;0.8547;0.6905;
-14.1000;0.8628;0.7185;
-13.8000;0.8580;0.7057;
-13.5000;0.8555;0.7057;
-13.2000;0.8571;0.7108;
-12.9000;0.8653;0.7261;
-12.6000;0.8580;0.7083;
-12.3000;0.8539;0.7006;
-12.0000;0.8555;0.7057;
-11.7000;0.8547;0.6930;
-11.4000;0.8539;0.6828;
-11.1000;0.8547;0.6854;
-10.8000;0.8580;0.6879;
-10.5000;0.8563;0.6905;
-10.2000;0.8588;0.6955;
-9.9000;0.8563;0.6930;
-9.6000;0.8571;0.6930;
-9.3000;0.8555;0.6854;
-9.0000;0.8580;0.6854;
-8.7000;0.8547;0.6879;
-8.4000;0.8547;0.6879;
-8.1000;0.8563;0.6930;
-7.8000;0.8547;0.6930;
-7.5000;0.8580;0.7006;
-7.2000;0.8563;0.6981;
-6.9000;0.8563;0.6930;
-6.6000;0.8547;0.6905;
-6.3000;0.8555;0.6905;
-6.0000;0.8547;0.6854;
-5.7000;0.8555;0.6803;
-5.4000;0.8571;0.6854;
-5.1000;0.8514;0.6803;
-4.8000;0.8563;0.6930;
-4.5000;0.8555;0.6905;
-4.2000;0.8547;0.6828;
-3.9000;0.8661;0.6981;
-3.6000;0.8539;0.6726;
-3.3000;0.8555;0.6752;
-3.0000;0.8563;0.6879;
-2.7000;0.8571;0.6955;
-2.4000;0.8580;0.6905;
-2.1000;0.8596;0.6905;
-1.8000;0.8580;0.6930;
-1.5000;0.8555;0.6879;
-1.2000;0.8580;0.6905;
-0.9000;0.8571;0.6803;
-0.6000;0.8547;0.6777;
-0.3000;0.8547;0.6726;
0.0000;0.8547;0.6726;
0.3000;0.8661;0.6930;
0.6000;0.8783;0.7185;
0.9000;0.8889;0.7465;
1.2000;0.9035;0.7847;
1.5000;0.9092;0.7975;
1.8000;0.9125;0.8255;
2.1000;0.9190;0.8535;
2.4000;0.9206;0.8637;
2.7000;0.9312;0.8968;
3.0000;0.9280;0.9019;
3.3000;0.9271;0.8994;
3.6000;0.9280;0.9019;
3.9000;0.9255;0.8943;
4.2000;0.9328;0.9147;
4.5000;0.9369;0.9299;
4.8000;0.9377;0.9350;
5.1000;0.9394;0.9401;
5.4000;0.9410;0.9427;
5.7000;0.9410;0.9452;
6.0000;0.9337;0.9248;
6.3000;0.9418;0.9478;
6.6000;0.9410;0.9478;
6.9000;0.9369;0.9325;
7.2000;0.9426;0.9478;
7.5000;0.9467;0.9605;
7.8000;0.9434;0.9452;
8.1000;0.9451;0.9580;
8.4000;0.9483;0.9529;
8.7000;0.9451;0.9401;
9.0000;0.9467;0.9427;
9.3000;0.9467;0.9452;
9.6000;0.9467;0.9401;
9.9000;0.9491;0.9401;
10.2000;0.9475;0.9376;
10.5000;0.9499;0.9350;
10.8000;0.9483;0.9325;
11.1000;0.9499;0.9401;
11.4000;0.9508;0.9401;
11.7000;0.9499;0.9248;
12.0000;0.9516;0.9198;
12.3000;0.9540;0.9248;
12.6000;0.9524;0.9248;
12.9000;0.9524;0.9299;
13.2000;0.9540;0.9299;
13.5000;0.9516;0.9274;
13.8000;0.9540;0.9274;
14.1000;0.9540;0.9248;
14.4000;0.9508;0.9070;
14.7000;0.9532;0.9172;
15.0000;0.9540;0.9172;
15.3000;0.9524;0.9121;
15.6000;0.9548;0.9121;
15.9000;0.9540;0.9019;
16.2000;0.9532;0.9019;
16.5000;0.9556;0.9198;
16.8000;0.9540;0.9248;
17.1000;0.9548;0.9198;
17.4000;0.9565;0.9299;
17.7000;0.9565;0.9274;
18.0000;0.9573;0.9325;
18.3000;0.9548;0.9427;
18.6000;0.9524;0.9376;
18.9000;0.9548;0.9376;
19.2000;0.9573;0.9350;
19.5000;0.9581;0.9350;
19.8000;0.9581;0.9350;
20.1000;0.9556;0.9299;
20.4000;0.9573;0.9299;
20.7000;0.9581;0.9350;
21.0000;0.9581;0.9299;
21.3000;0.9605;0.9401;
21.6000;0.9605;0.9325;
21.9000;0.9638;0.9376;
22.2000;0.9597;0.9198;
22.5000;0.9613;0.9325;
22.8000;0.9605;0.9350;
23.1000;0.9621;0.9376;
23.4000;0.9597;0.9198;
23.7000;0.9597;0.9172;
24.0000;0.9573;0.9096;
24.3000;0.9597;0.9198;
24.6000;0.9597;0.9274;
24.9000;0.9589;0.9299;
25.2000;0.9581;0.9325;
25.5000;0.9597;0.9325;
25.8000;0.9573;0.9299;
26.1000;0.9597;0.9350;
26.4000;0.9573;0.9248;
26.7000;0.9589;0.9274;
27.0000;0.9621;0.9350;
27.3000;0.9565;0.9223;
27.6000;0.9621;0.9376;
27.9000;0.9597;0.9274;
28.2000;0.9605;0.9248;
28.5000;0.9597;0.9299;
28.8000;0.9597;0.9274;
29.1000;0.9605;0.9299;
29.4000;0.9605;0.9350;
29.7000;0.9556;0.9248;
30.0000;0.9573;0.9350;
30.3000;0.9589;0.9452;
30.6000;0.9613;0.9478;
30.9000;0.9621;0.9478;
31.2000;0.9621;0.9427;
31.5000;0.9621;0.9401;
31.8000;0.9581;0.9198;
32.1000;0.9613;0.9350;
32.4000;0.9621;0.9325;
32.7000;0.9605;0.9274;
33.0000;0.9613;0.9274;
33.3000;0.9605;0.9274;
33.6000;0.9605;0.9248;
33.9000;0.9613;0.9274;
34.2000;0.9597;0.9274;
34.5000;0.9621;0.9350;
34.8000;0.9638;0.9427;
35.1000;0.9613;0.9274;
35.4000;0.9605;0.9299;
35.7000;0.9621;0.9401;
36.0000;0.9638;0.9554;
36.3000;0.9605;0.9529;
36.6000;0.9621;0.9503;
36.9000;0.9630;0.9452;
37.2000;0.9638;0.9401;
37.5000;0.9638;0.9452;
37.8000;0.9589;0.9248;
38.1000;0.9638;0.9350;
38.4000;0.9646;0.9401;
38.7000;0.9638;0.9299;
39.0000;0.9597;0.9248;
39.3000;0.9613;0.9274;
39.6000;0.9621;0.9248;
39.9000;0.9630;0.9223;
40.2000;0.9613;0.9121;
40.5000;0.9621;0.9147;
40.8000;0.9646;0.9172;
41.1000;0.9654;0.9223;
41.4000;0.9638;0.9147;
41.7000;0.9638;0.9096;
42.0000;0.9646;0.9096;
42.3000;0.9638;0.9096;
42.6000;0.9662;0.9223;
42.9000;0.9678;0.9325;
43.2000;0.9630;0.9223;
43.5000;0.9630;0.9274;
43.8000;0.9646;0.9172;
44.1000;0.9670;0.9172;
44.4000;0.9638;0.9096;
44.7000;0.9630;0.9070;
45.0000;0.9630;0.9198;
45.3000;0.9638;0.9198;
45.6000;0.9621;0.9172;
45.9000;0.9638;0.9223;
46.2000;0.9638;0.9299;
46.5000;0.9638;0.9248;
46.8000;0.9630;0.9147;
47.1000;0.9646;0.9299;
47.4000;0.9605;0.9198;
47.7000;0.9630;0.9172;
48.0000;0.9621;0.9147;
48.3000;0.9630;0.9198;
48.6000;0.9638;0.9274;
48.9000;0.9638;0.9223;
49.2000;0.9597;0.9070;
49.5000;0.9646;0.9172;
49.8000;0.9646;0.9198;
50.1000;0.9646;0.9172;
50.4000;0.9646;0.9248;
50.7000;0.9613;0.9147;
51.0000;0.9638;0.9172;
51.3000;0.9646;0.9248;
51.6000;0.9605;0.9045;
51.9000;0.9654;0.9223;
52.2000;0.9638;0.9223;
52.5000;0.9646;0.9274;
52.8000;0.9613;0.9248;
53.1000;0.9621;0.9376;
53.4000;0.9638;0.9376;
53.7000;0.9638;0.9376;
54.0000;0.9621;0.9350;
54.3000;0.9646;0.9325;
54.6000;0.9646;0.9350;
54.9000;0.9646;0.9299;
55.2000;0.9638;0.9299;
55.5000;0.9630;0.9274;
55.8000;0.9621;0.9376;
56.1000;0.9556;0.9248;
56.4000;0.9638;0.9401;
56.7000;0.9605;0.9376;
57.0000;0.9630;0.9248;
57.3000;0.9638;0.9223;
57.6000;0.9638;0.9325;
57.9000;0.9638;0.9325;
58.2000;0.9621;0.9325;
58.5000;0.9638;0.9350;
58.8000;0.9613;0.9299;
59.1000;0.9581;0.9147;
59.4000;0.9621;0.9350;
59.7000;0.9621;0.9274;
60.0000;0.9719;0.9427;
60.3000;0.9646;0.9198;
60.6000;0.9630;0.9198;
60.9000;0.9613;0.9248;
61.2000;0.9621;0.9274;
61.5000;0.9630;0.9248;
61.8000;0.9630;0.9299;
62.1000;0.9678;0.9401;
62.4000;0.9646;0.9350;
62.7000;0.9621;0.9350;
63.0000;0.9646;0.9274;
63.3000;0.9646;0.9248;
63.6000;0.9630;0.9299;
63.9000;0.9638;0.9274;
64.2000;0.9662;0.9376;
64.5000;0.9597;0.9121;
64.8000;0.9565;0.9045;
65.1000;0.9621;0.9198;
65.4000;0.9613;0.9172;
65.7000;0.9638;0.9223;
66.0000;0.9621;0.9172;
66.3000;0.9613;0.9223;
66.6000;0.9646;0.9248;
66.9000;0.9630;0.9172;
67.2000;0.9646;0.9248;
67.5000;0.9670;0.9452;
67.8000;0.9646;0.9350;
68.1000;0.9613;0.9274;
68.4000;0.9638;0.9350;
68.7000;0.9621;0.9299;
69.0000;0.9638;0.9350;
69.3000;0.9630;0.9299;
69.6000;0.9638;0.9325;
69.9000;0.9630;0.9376;
70.2000;0.9646;0.9452;
70.5000;0.9630;0.9401;
70.8000;0.9630;0.9401;
71.1000;0.9630;0.9401;
71.4000;0.9638;0.9325;
71.7000;0.9630;0.9376;
72.0000;0.9638;0.9478;
72.3000;0.9630;0.9478;
72.6000;0.9687;0.9580;
72.9000;0.9654;0.9529;
73.2000;0.9646;0.9529;
73.5000;0.9646;0.9503;
73.8000;0.9654;0.9503;
74.1000;0.9654;0.9478;
74.4000;0.9638;0.9529;
74.7000;0.9646;0.9503;
75.0000;0.9621;0.9503;
75.3000;0.9621;0.9427;
75.6000;0.9630;0.9350;
75.9000;0.9638;0.9401;
76.2000;0.9646;0.9376;
76.5000;0.9638;0.9350;
76.8000;0.9646;0.9427;
77.1000;0.9638;0.9376;
77.4000;0.9605;0.9274;
77.7000;0.9646;0.9376;
78.0000;0.9646;0.9198;
78.3000;0.9638;0.9172;
78.6000;0.9654;0.9121;
78.9000;0.9630;0.9121;
79.2000;0.9646;0.9096;
79.5000;0.9654;0.9147;
79.8000;0.9654;0.9147;
80.1000;0.9630;0.9172;
80.4000;0.9638;0.9172;
80.7000;0.9573;0.8994;
81.0000;0.9630;0.9172;
81.3000;0.9630;0.9121;
81.6000;0.9646;0.9223;
81.9000;0.9630;0.9147;
82.2000;0.9678;0.9223;
82.5000;0.9621;0.9121;
82.8000;0.9581;0.8994;
83.1000;0.9630;0.9121;
83.4000;0.9638;0.9096;
83.7000;0.9597;0.8994;
84.0000;0.9638;0.9070;
84.3000;0.9646;0.9070;
84.6000;0.9654;0.9121;
84.9000;0.9646;0.9121;
85.2000;0.9646;0.9172;
85.5000;0.9638;0.9198;
85.8000;0.9638;0.9248;
86.1000;0.9630;0.9198;
86.4000;0.9654;0.9198;
86.7000;0.9638;0.9172;
87.0000;0.9605;0.9070;
87.3000;0.9638;0.9096;
87.6000;0.9565;0.8994;
87.9000;0.9638;0.9121;
88.2000;0.9621;0.9121;
88.5000;0.9638;0.9172;
88.8000;0.9621;0.9147;
89.1000;0.9630;0.9198;
89.4000;0.9630;0.9223;
89.7000;0.9638;0.9223;
90.0000;0.9605;0.9223;
90.3000;0.9613;0.9248;
90.6000;0.9589;0.9223;
90.9000;0.9613;0.9325;
91.2000;0.9621;0.9376;
91.5000;0.9646;0.9350;
91.8000;0.9630;0.9299;
92.1000;0.9638;0.9299;
92.4000;0.9638;0.9274;
92.7000;0.9646;0.9299;
93.0000;0.9613;0.9198;
93.3000;0.9646;0.9274;
93.6000;0.9573;0.9198;
93.9000;0.9638;0.9350;
94.2000;0.9638;0.9325;
94.5000;0.9646;0.9274;
94.8000;0.9621;0.9198;
95.1000;0.9646;0.9248;
95.4000;0.9613;0.9121;
95.7000;0.9621;0.9198;
96.0000;0.9630;0.9198;
96.3000;0.9638;0.9198;
96.6000;0.9589;0.9147;
96.9000;0.9638;0.9223;
97.2000;0.9646;0.9299;
97.5000;0.9621;0.9376;
97.8000;0.9630;0.9299;
98.1000;0.9621;0.9325;
98.4000;0.9605;0.9376;
98.7000;0.9613;0.9452;
99.0000;0.9621;0.9452;
99.3000;0.9630;0.9503;
99.6000;0.9638;0.9452;
99.9000;0.9581;0.9325;
100.2000;0.9605;0.9452;
100.5000;0.9662;0.9529;
100.8000;0.9630;0.9376;
101.1000;0.9621;0.9325;
101.4000;0.9597;0.9147;
101.7000;0.9613;0.9223;
102.0000;0.9630;0.9248;
102.3000;0.9621;0.9274;
102.6000;0.9646;0.9350;
102.9000;0.9621;0.9299;
103.2000;0.9621;0.9223;
103.5000;0.9630;0.9248;
103.8000;0.9605;0.9248;
104.1000;0.9613;0.9198;
104.4000;0.9613;0.9248;
104.7000;0.9638;0.9350;
105.0000;0.9605;0.9274;
105.3000;0.9613;0.9376;
105.6000;0.9630;0.9401;
105.9000;0.9613;0.9325;
106.2000;0.9621;0.9376;
106.5000;0.9613;0.9401;
106.8000;0.9621;0.9401;
107.1000;0.9630;0.9427;
107.4000;0.9605;0.9427;
107.7000;0.9630;0.9427;
108.0000;0.9613;0.9376;
108.3000;0.9638;0.9401;
108.6000;0.9654;0.9452;
108.9000;0.9630;0.9427;
109.2000;0.9654;0.9350;
109.5000;0.9621;0.9376;
109.8000;0.9646;0.9401;
110.1000;0.9630;0.9325;
110.4000;0.9630;0.9274;
110.7000;0.9630;0.9274;
111.0000;0.9638;0.9325;
111.3000;0.9638;0.9350;
111.6000;0.9630;0.9427;
111.9000;0.9621;0.9401;
112.2000;0.9597;0.9452;
112.5000;0.9621;0.9529;
112.8000;0.9613;0.9452;
113.1000;0.9638;0.9529;
113.4000;0.9613;0.9452;
113.7000;0.9630;0.9580;
114.0000;0.9670;0.9682;
114.3000;0.9621;0.9554;
114.6000;0.9605;0.9580;
114.9000;0.9630;0.9580;
115.2000;0.9621;0.9478;
115.5000;0.9613;0.9274;
115.8000;0.9613;0.9274;
116.1000;0.9621;0.9299;
116.4000;0.9581;0.9248;
116.7000;0.9597;0.9121;
117.0000;0.9605;0.9147;
117.3000;0.9630;0.9096;
117.6000;0.9597;0.9096;
117.9000;0.9630;0.9147;
118.2000;0.9630;0.9248;
118.5000;0.9646;0.9274;
118.8000;0.9727;0.9452;
119.1000;0.9621;0.9248;
119.4000;0.9621;0.9248;
119.7000;0.9646;0.9350;
120.0000;0.9621;0.9376;
120.3000;0.9654;0.9554;
120.6000;0.9613;0.9401;
120.9000;0.9621;0.9376;
121.2000;0.9613;0.9274;
121.5000;0.9662;0.9401;
121.8000;0.9589;0.9248;
122.1000;0.9605;0.9299;
122.4000;0.9630;0.9401;
122.7000;0.9630;0.9376;
123.0000;0.9597;0.9350;
123.3000;0.9613;0.9350;
123.6000;0.9630;0.9478;
123.9000;0.9654;0.9427;
124.2000;0.9621;0.9350;
124.5000;0.9646;0.9452;
124.8000;0.9581;0.9223;
125.1000;0.9638;0.9274;
125.4000;0.9630;0.9299;
125.7000;0.9621;0.9299;
126.0000;0.9630;0.9401;
126.3000;0.9605;0.9325;
126.6000;0.9621;0.9401;
126.9000;0.9670;0.9503;
127.2000;0.9605;0.9427;
127.5000;0.9621;0.9350;
127.8000;0.9621;0.9350;
128.1000;0.9605;0.9248;
128.4000;0.9597;0.9198;
128.7000;0.9613;0.9350;
129.0000;0.9646;0.9452;
129.3000;0.9556;0.9299;
129.6000;0.9678;0.9682;
129.9000;0.9605;0.9478;
130.2000;0.9613;0.9452;
130.5000;0.9613;0.9452;
130.8000;0.9597;0.9376;
131.1000;0.9613;0.9401;
131.4000;0.9605;0.9401;
131.7000;0.9630;0.9452;
132.0000;0.9621;0.9452;
132.3000;0.9597;0.9452;
132.6000;0.9597;0.9529;
132.9000;0.9605;0.9554;
133.2000;0.9597;0.9554;
133.5000;0.9605;0.9529;
133.8000;0.9605;0.9503;
134.1000;0.9613;0.9478;
134.4000;0.9589;0.9350;
134.7000;0.9638;0.9478;
135.0000;0.9621;0.9401;
135.3000;0.9621;0.9299;
135.6000;0.9662;0.9299;
135.9000;0.9613;0.9147;
136.2000;0.9621;0.9121;
136.5000;0.9613;0.9121;
136.8000;0.9605;0.9147;
137.1000;0.9605;0.9172;
137.4000;0.9613;0.9274;
137.7000;0.9589;0.9248;
138.0000;0.9605;0.9223;
138.3000;0.9581;0.9198;
138.6000;0.9621;0.9325;
138.9000;0.9605;0.9299;
139.2000;0.9630;0.9299;
139.5000;0.9605;0.9198;
139.8000;0.9613;0.9223;
140.1000;0.9621;0.9299;
140.4000;0.9646;0.9274;
140.7000;0.9630;0.9325;
141.0000;0.9621;0.9299;
141.3000;0.9638;0.9376;
141.6000;0.9621;0.9299;
141.9000;0.9638;0.9350;
142.2000;0.9613;0.9198;
142.5000;0.9613;0.9223;
142.8000;0.9605;0.9172;
143.1000;0.9621;0.9147;
143.4000;0.9638;0.9223;
143.7000;0.9597;0.9019;
144.0000;0.9605;0.9070;
144.3000;0.9630;0.9096;
144.6000;0.9613;0.9045;
144.9000;0.9638;0.9248;
145.2000;0.9630;0.9248;
145.5000;0.9581;0.9223;
145.8000;0.9589;0.9274;
146.1000;0.9613;0.9223;
146.4000;0.9638;0.9299;
146.7000;0.9638;0.9299;
147.0000;0.9605;0.9198;
147.3000;0.9589;0.9172;
147.6000;0.9613;0.9198;
147.9000;0.9621;0.9198;
148.2000;0.9621;0.9198;
148.5000;0.9597;0.9223;
148.8000;0.9613;0.9274;
149.1000;0.9605;0.9198;
149.4000;0.9630;0.9248;
149.7000;0.9630;0.9274;
150.0000;0.9621;0.9248;
150.3000;0.9621;0.9248;
150.6000;0.9638;0.9350;
150.9000;0.9630;0.9350;
151.2000;0.9630;0.9350;
151.5000;0.9613;0.9427;
151.8000;0.9621;0.9427;
152.1000;0.9638;0.9452;
152.4000;0.9605;0.9401;
152.7000;0.9613;0.9452;
153.0000;0.9613;0.9376;
153.3000;0.9630;0.9299;
153.6000;0.9597;0.9198;
153.9000;0.9613;0.9172;
154.2000;0.9638;0.9248;
154.5000;0.9621;0.9198;
154.8000;0.9670;0.9350;
155.1000;0.9597;0.9096;
155.4000;0.9630;0.9147;
155.7000;0.9613;0.9096;
156.0000;0.9621;0.9172;
156.3000;0.9613;0.9096;
156.6000;0.9605;0.9121;
156.9000;0.9597;0.9147;
157.2000;0.9613;0.9172;
157.5000;0.9581;0.9172;
157.8000;0.9597;0.9198;
158.1000;0.9589;0.9147;
158.4000;0.9597;0.9223;
158.7000;0.9605;0.9172;
159.0000;0.9597;0.9172;
159.3000;0.9630;0.9325;
159.6000;0.9613;0.9325;
159.9000;0.9613;0.9299;
160.2000;0.9605;0.9325;
160.5000;0.9654;0.9401;
160.8000;0.9597;0.9198;
161.1000;0.9638;0.9299;
161.4000;0.9605;0.9274;
161.7000;0.9605;0.9274;
162.0000;0.9597;0.9248;
162.3000;0.9597;0.9299;
162.6000;0.9589;0.9274;
162.9000;0.9605;0.9299;
163.2000;0.9556;0.9096;
163.5000;0.9605;0.9248;
163.8000;0.9621;0.9299;
164.1000;0.9605;0.9248;
164.4000;0.9605;0.9248;
164.7000;0.9621;0.9223;
165.0000;0.9589;0.9223;
165.3000;0.9605;0.9223;
165.6000;0.9605;0.9248;
165.9000;0.9630;0.9376;
166.2000;0.9613;0.9299;
166.5000;0.9621;0.9299;
166.8000;0.9605;0.9223;
167.1000;0.9630;0.9274;
167.4000;0.9589;0.9147;
167.7000;0.9597;0.9147;
168.0000;0.9581;0.9147;
168.3000;0.9605;0.9274;
168.6000;0.9605;0.9274;
168.9000;0.9589;0.9198;
169.2000;0.9581;0.9248;
169.5000;0.9621;0.9401;
169.8000;0.9605;0.9248;
170.1000;0.9597;0.9248;
170.4000;0.9605;0.9274;
170.7000;0.9605;0.9376;
171.0000;0.9597;0.9223;
171.3000;0.9687;0.9376;
171.6000;0.9613;0.9172;
171.9000;0.9605;0.9147;
172.2000;0.9646;0.9350;
172.5000;0.9605;0.9172;
172.8000;0.9548;0.9045;
173.1000;0.9581;0.9070;
173.4000;0.9565;0.9019;
173.7000;0.9589;0.9121;
174.0000;0.9589;0.9121;
174.3000;0.9597;0.9223;
174.6000;0.9605;0.9172;
174.9000;0.9605;0.9147;
175.2000;0.9638;0.9121;
175.5000;0.9589;0.8994;
175.8000;0.9638;0.9121;
176.1000;0.9613;0.9019;
176.4000;0.9589;0.8968;
176.7000;0.9621;0.8968;
177.0000;0.9605;0.8892;
177.3000;0.9597;0.8968;
177.6000;0.9597;0.8917;
177.9000;0.9605;0.8943;
178.2000;0.9573;0.8994;
178.5000;0.9597;0.9096;
178.8000;0.9605;0.9172;
179.1000;0.9589;0.9147;
179.4000;0.9605;0.9223;
179.7000;0.9589;0.9223;
180.0000;0.9613;0.9223;
180.3000;0.9621;0.9325;
180.6000;0.9581;0.9172;
180.9000;0.9597;0.9223;
181.2000;0.9605;0.9248;
181.5000;0.9613;0.9223;
181.8000;0.9589;0.9223;
182.1000;0.9597;0.9248;
182.4000;0.9605;0.9223;
182.7000;0.9589;0.9248;
183.0000;0.9613;0.9325;
183.3000;0.9605;0.9223;
183.6000;0.9573;0.9121;
183.9000;0.9613;0.9274;
184.2000;0.9589;0.9248;
184.5000;0.9556;0.9172;
184.8000;0.9605;0.9350;
185.1000;0.9589;0.9376;
185.4000;0.9621;0.9427;
185.7000;0.9605;0.9452;
186.0000;0.9605;0.9452;
186.3000;0.9638;0.9401;
186.6000;0.9597;0.9299;
186.9000;0.9597;0.9299;
187.2000;0.9597;0.9248;
187.5000;0.9589;0.9350;
187.8000;0.9589;0.9376;
188.1000;0.9597;0.9325;
188.4000;0.9581;0.9350;
188.7000;0.9605;0.9401;
189.0000;0.9597;0.9325;
189.3000;0.9605;0.9350;
189.6000;0.9573;0.9274;
189.9000;0.9605;0.9325;
190.2000;0.9597;0.9299;
190.5000;0.9597;0.9325;
190.8000;0.9597;0.9274;
191.1000;0.9638;0.9325;
191.4000;0.9605;0.9325;
191.7000;0.9565;0.9147;
192.0000;0.9589;0.9172;
192.3000;0.9597;0.9096;
192.6000;0.9597;0.9172;
192.9000;0.9597;0.9121;
193.2000;0.9597;0.9121;
193.5000;0.9524;0.8917;
193.8000;0.9540;0.8892;
194.1000;0.9597;0.9019;
194.4000;0.9573;0.8968;
194.7000;0.9573;0.9045;
195.0000;0.9581;0.9172;
195.3000;0.9597;0.9198;
195.6000;0.9605;0.9299;
195.9000;0.9597;0.9248;
196.2000;0.9597;0.9274;
196.5000;0.9597;0.9350;
196.8000;0.9589;0.9223;
197.1000;0.9565;0.9147;
197.4000;0.9581;0.9147;
197.7000;0.9581;0.9147;
198.0000;0.9589;0.9096;
198.3000;0.9597;0.9198;
198.6000;0.9581;0.9198;
198.9000;0.9597;0.9223;
199.2000;0.9646;0.9223;
199.5000;0.9597;0.9019;
199.8000;0.9532;0.8917;
200.1000;0.9613;0.9070;
200.4000;0.9597;0.9070;
200.7000;0.9613;0.9045;
201.0000;0.9597;0.9172;
201.3000;0.9597;0.9147;
201.6000;0.9597;0.9147;
201.9000;0.9630;0.9274;
202.2000;0.9613;0.9299;
202.5000;0.9605;0.9299;
202.8000;0.9589;0.9325;
203.1000;0.9630;0.9376;
203.4000;0.9589;0.9248;
203.7000;0.9589;0.9299;
204.0000;0.9589;0.9248;
204.3000;0.9605;0.9299;
204.6000;0.9581;0.9299;
204.9000;0.9589;0.9274;
205.2000;0.9613;0.9248;
205.5000;0.9597;0.9147;
205.8000;0.9605;0.9198;
206.1000;0.9597;0.9198;
206.4000;0.9589;0.9223;
206.7000;0.9581;0.9223;
207.0000;0.9565;0.9070;
207.3000;0.9605;0.9198;
207.6000;0.9581;0.9147;
207.9000;0.9573;0.9121;
208.2000;0.9597;0.9223;
208.5000;0.9581;0.9147;
208.8000;0.9605;0.9172;
209.1000;0.9581;0.9070;
209.4000;0.9565;0.8968;
209.7000;0.9597;0.8943;
210.0000;0.9597;0.9019;
210.3000;0.9613;0.9147;
210.6000;0.9597;0.9147;
210.9000;0.9597;0.9172;
211.2000;0.9581;0.9147;
211.5000;0.9589;0.9070;
211.8000;0.9597;0.9198;
212.1000;0.9621;0.9299;
212.4000;0.9613;0.9299;
212.7000;0.9581;0.9248;
213.0000;0.9589;0.9350;
213.3000;0.9621;0.9427;
213.6000;0.9589;0.9350;
213.9000;0.9605;0.9299;
214.2000;0.9589;0.9325;
214.5000;0.9556;0.9299;
214.8000;0.9573;0.9325;
215.1000;0.9662;0.9605;
215.4000;0.9540;0.9223;
215.7000;0.9597;0.9478;
216.0000;0.9589;0.9452;
216.3000;0.9516;0.9223;
216.6000;0.9589;0.9401;
216.9000;0.9662;0.9376;
217.2000;0.9605;0.9172;
217.5000;0.9565;0.9019;
217.8000;0.9573;0.8968;
218.1000;0.9589;0.9019;
218.4000;0.9605;0.9019;
218.7000;0.9532;0.8790;
219.0000;0.9605;0.8892;
219.3000;0.9589;0.8841;
219.6000;0.9613;0.8917;
219.9000;0.9565;0.8892;
220.2000;0.9597;0.8994;
220.5000;0.9589;0.9121;
220.8000;0.9597;0.9198;
221.1000;0.9605;0.9198;
221.4000;0.9605;0.9248;
221.7000;0.9597;0.9172;
222.0000;0.9613;0.9198;
222.3000;0.9630;0.9198;
222.6000;0.9581;0.9172;
222.9000;0.9597;0.9248;
223.2000;0.9581;0.9147;
223.5000;0.9613;0.9223;
223.8000;0.9589;0.9223;
224.1000;0.9581;0.9223;
224.4000;0.9573;0.9248;
224.7000;0.9589;0.9299;
225.0000;0.9573;0.9325;
225.3000;0.9613;0.9248;
225.6000;0.9589;0.9172;
225.9000;0.9605;0.9147;
226.2000;0.9613;0.9223;
226.5000;0.9605;0.9248;
226.8000;0.9589;0.9274;
227.1000;0.9621;0.9350;
227.4000;0.9573;0.9147;
227.7000;0.9581;0.9121;
228.0000;0.9581;0.9096;
228.3000;0.9589;0.9147;
228.6000;0.9589;0.9198;
228.9000;0.9589;0.9198;
229.2000;0.9597;0.9172;
229.5000;0.9589;0.9198;
229.8000;0.9589;0.9172;
230.1000;0.9605;0.9223;
230.4000;0.9573;0.9198;
230.7000;0.9581;0.9172;
231.0000;0.9589;0.9147;
231.3000;0.9597;0.9172;
231.6000;0.9499;0.8917;
231.9000;0.9540;0.9070;
232.2000;0.9597;0.9223;
232.5000;0.9581;0.9172;
232.8000;0.9597;0.9172;
233.1000;0.9646;0.9248;
233.4000;0.9548;0.8917;
233.7000;0.9581;0.8994;
234.0000;0.9589;0.9019;
234.3000;0.9597;0.9019;
234.6000;0.9605;0.9198;
234.9000;0.9581;0.9147;
235.2000;0.9581;0.9096;
235.5000;0.9597;0.9045;
235.8000;0.9589;0.9070;
236.1000;0.9597;0.9121;
236.4000;0.9613;0.9299;
236.7000;0.9638;0.9299;
237.0000;0.9581;0.9172;
237.3000;0.9581;0.9198;
237.6000;0.9630;0.9248;
237.9000;0.9589;0.9147;
238.2000;0.9597;0.9121;
238.5000;0.9483;0.8994;
238.8000;0.9581;0.9274;
239.1000;0.9589;0.9274;
239.4000;0.9613;0.9325;
239.7000;0.9548;0.9198;
240.0000;0.9589;0.9299;
240.3000;0.9581;0.9350;
240.6000;0.9581;0.9350;
240.9000;0.9589;0.9325;
241.2000;0.9589;0.9376;
241.5000;0.9581;0.9299;
241.8000;0.9548;0.9172;
242.1000;0.9605;0.9350;
242.4000;0.9597;0.9325;
242.7000;0.9597;0.9350;
243.0000;0.9597;0.9274;
243.3000;0.9581;0.9325;
243.6000;0.9597;0.9274;
243.9000;0.9638;0.9478;
244.2000;0.9581;0.9299;
244.5000;0.9565;0.9299;
244.8000;0.9581;0.9325;
245.1000;0.9573;0.9325;
245.4000;0.9573;0.9350;
245.7000;0.9581;0.9401;
246.0000;0.9589;0.9427;
246.3000;0.9581;0.9401;
246.6000;0.9589;0.9325;
246.9000;0.9565;0.9223;
247.2000;0.9581;0.9248;
247.5000;0.9589;0.9376;
247.8000;0.9573;0.9376;
248.1000;0.9573;0.9325;
248.4000;0.9581;0.9274;
248.7000;0.9581;0.9325;
249.0000;0.9589;0.9452;
249.3000;0.9573;0.9452;
249.6000;0.9581;0.9401;
249.9000;0.9597;0.9427;
250.2000;0.9597;0.9299;
250.5000;0.9589;0.9325;
250.8000;0.9573;0.9274;
251.1000;0.9581;0.9274;
251.4000;0.9573;0.9198;
251.7000;0.9573;0.9198;
252.0000;0.9581;0.9121;
252.3000;0.9589;0.9198;
252.6000;0.9556;0.9121;
252.9000;0.9565;0.9121;
253.2000;0.9654;0.9299;
253.5000;0.9589;0.9172;
253.8000;0.9581;0.9248;
254.1000;0.9581;0.9248;
254.4000;0.9573;0.9274;
254.7000;0.9565;0.9248;
255.0000;0.9532;0.9198;
255.3000;0.9621;0.9427;
255.6000;0.9532;0.9198;
255.9000;0.9589;0.9376;
256.2000;0.9573;0.9376;
256.5000;0.9589;0.9376;
256.8000;0.9589;0.9325;
257.1000;0.9589;0.9376;
257.4000;0.9532;0.9172;
257.7000;0.9573;0.9325;
258.0000;0.9597;0.9452;
258.3000;0.9581;0.9427;
258.6000;0.9540;0.9274;
258.9000;0.9589;0.9452;
259.2000;0.9589;0.9503;
259.5000;0.9573;0.9401;
259.8000;0.9573;0.9376;
260.1000;0.9573;0.9350;
260.4000;0.9565;0.9376;
260.7000;0.9565;0.9299;
261.0000;0.9540;0.9223;
261.3000;0.9565;0.9299;
261.6000;0.9597;0.9401;
261.9000;0.9573;0.9274;
262.2000;0.9589;0.9274;
262.5000;0.9589;0.9172;
262.8000;0.9638;0.9274;
263.1000;0.9613;0.9248;
263.4000;0.9589;0.9299;
263.7000;0.9597;0.9248;
264.0000;0.9597;0.9350;
264.3000;0.9573;0.9248;
264.6000;0.9565;0.9198;
264.9000;0.9556;0.9325;
265.2000;0.9565;0.9350;
265.5000;0.9581;0.9350;
265.8000;0.9646;0.9554;
266.1000;0.9581;0.9350;
266.4000;0.9589;0.9401;
266.7000;0.9597;0.9350;
267.0000;0.9597;0.9350;
267.3000;0.9565;0.9401;
267.6000;0.9597;0.9376;
267.9000;0.9581;0.9427;
268.2000;0.9573;0.9452;
268.5000;0.9589;0.9478;
268.8000;0.9589;0.9452;
269.1000;0.9589;0.9427;
269.4000;0.9589;0.9350;
269.7000;0.9613;0.9376;
270.0000;0.9581;0.9350;
270.3000;0.9573;0.9427;
270.6000;0.9597;0.9529;
270.9000;0.9565;0.9503;
271.2000;0.9597;0.9529;
271.5000;0.9573;0.9427;
271.8000;0.9605;0.9452;
272.1000;0.9573;0.9325;
272.4000;0.9548;0.9248;
272.7000;0.9565;0.9325;
273.0000;0.9613;0.9427;
273.3000;0.9589;0.9478;
273.6000;0.9573;0.9478;
273.9000;0.9589;0.9427;
274.2000;0.9556;0.9350;
274.5000;0.9565;0.9350;
274.8000;0.9532;0.9325;
275.1000;0.9573;0.9478;
275.4000;0.9524;0.9299;
275.7000;0.9573;0.9376;
276.0000;0.9597;0.9376;
276.3000;0.9548;0.9248;
276.6000;0.9581;0.9248;
276.9000;0.9589;0.9325;
277.2000;0.9573;0.9376;
277.5000;0.9516;0.9223;
277.8000;0.9573;0.9427;
278.1000;0.9662;0.9605;
278.4000;0.9597;0.9452;
278.7000;0.9589;0.9401;
279.0000;0.9581;0.9427;
279.3000;0.9556;0.9376;
279.6000;0.9581;0.9478;
279.9000;0.9573;0.9452;
280.2000;0.9573;0.9376;
280.5000;0.9589;0.9452;
280.8000;0.9597;0.9452;
281.1000;0.9589;0.9452;
281.4000;0.9581;0.9452;
281.7000;0.9573;0.9401;
282.0000;0.9589;0.9503;
282.3000;0.9573;0.9529;
282.6000;0.9589;0.9529;
282.9000;0.9581;0.9529;
283.2000;0.9597;0.9580;
283.5000;0.9597;0.9580;
283.8000;0.9589;0.9478;
284.1000;0.9589;0.9478;
284.4000;0.9573;0.9503;
284.7000;0.9589;0.9427;
285.0000;0.9581;0.9376;
285.3000;0.9573;0.9376;
285.6000;0.9605;0.9401;
285.9000;0.9581;0.9401;
286.2000;0.9581;0.9376;
286.5000;0.9573;0.9376;
286.8000;0.9565;0.9350;
287.1000;0.9524;0.9198;
287.4000;0.9581;0.9325;
287.7000;0.9532;0.9350;
288.0000;0.9573;0.9401;
288.3000;0.9565;0.9274;
288.6000;0.9548;0.9274;
288.9000;0.9532;0.9299;
289.2000;0.9548;0.9376;
289.5000;0.9524;0.9299;
289.8000;0.9565;0.9427;
290.1000;0.9573;0.9427;
290.4000;0.9565;0.9427;
290.7000;0.9556;0.9325;
291.0000;0.9597;0.9376;
291.3000;0.9613;0.9376;
291.6000;0.9516;0.9096;
291.9000;0.9589;0.9325;
292.2000;0.9589;0.9325;
292.5000;0.9589;0.9325;
292.8000;0.9597;0.9274;
293.1000;0.9597;0.9274;
293.4000;0.9597;0.9299;
293.7000;0.9605;0.9376;
294.0000;0.9581;0.9274;
294.3000;0.9605;0.9350;
294.6000;0.9581;0.9350;
294.9000;0.9581;0.9452;
295.2000;0.9573;0.9503;
295.5000;0.9565;0.9503;
295.8000;0.9565;0.9478;
296.1000;0.9589;0.9427;
296.4000;0.9573;0.9401;
296.7000;0.9573;0.9452;
297.0000;0.9573;0.9452;
297.3000;0.9589;0.9478;
297.6000;0.9573;0.9401;
297.9000;0.9565;0.9350;
298.2000;0.9573;0.9376;
298.5000;0.9565;0.9248;
298.8000;0.9581;0.9350;
299.1000;0.9581;0.9401;
299.4000;0.9516;0.9248;
299.7000;0.9581;0.9376;
300.0000;0.9605;0.9503;
300.3000;0.9581;0.9401;
300.6000;0.9532;0.9223;
300.9000;0.9573;0.9478;
301.2000;0.9573;0.9503;
301.5000;0.9581;0.9605;
301.8000;0.9573;0.9554;
302.1000;0.9646;0.9656;
302.4000;0.9589;0.9529;
302.7000;0.9565;0.9452;
303.0000;0.9573;0.9478;
303.3000;0.9556;0.9452;
303.6000;0.9565;0.9376;
303.9000;0.9589;0.9350;
304.2000;0.9565;0.9299;
304.5000;0.9573;0.9350;
304.8000;0.9589;0.9376;
305.1000;0.9581;0.9248;
305.4000;0.9670;0.9452;
305.7000;0.9581;0.9274;
306.0000;0.9573;0.9172;
306.3000;0.9581;0.9248;
306.6000;0.9630;0.9274;
306.9000;0.9597;0.9223;
307.2000;0.9565;0.9096;
307.5000;0.9581;0.9198;
307.8000;0.9581;0.9223;
308.1000;0.9573;0.9274;
308.4000;0.9581;0.9248;
308.7000;0.9581;0.9248;
309.0000;0.9581;0.9223;
309.3000;0.9581;0.9248;
309.6000;0.9597;0.9325;
309.9000;0.9581;0.9376;
310.2000;0.9589;0.9376;
310.5000;0.9556;0.9350;
310.8000;0.9540;0.9325;
311.1000;0.9573;0.9401;
311.4000;0.9581;0.9452;
311.7000;0.9508;0.9248;
312.0000;0.9581;0.9401;
312.3000;0.9581;0.9350;
312.6000;0.9581;0.9452;
312.9000;0.9589;0.9350;
313.2000;0.9589;0.9325;
313.5000;0.9597;0.9376;
313.8000;0.9573;0.9325;
314.1000;0.9573;0.9274;
314.4000;0.9573;0.9198;
314.7000;0.9613;0.9248;
315.0000;0.9597;0.9198;
315.3000;0.9573;0.9070;
315.6000;0.9581;0.9045;
315.9000;0.9565;0.9096;
316.2000;0.9589;0.9172;
316.5000;0.9646;0.9325;
316.8000;0.9581;0.9223;
317.1000;0.9581;0.9299;
317.4000;0.9589;0.9350;
317.7000;0.9581;0.9350;
318.0000;0.9581;0.9299;
318.3000;0.9540;0.9223;
318.6000;0.9565;0.9299;
318.9000;0.9581;0.9427;
319.2000;0.9589;0.9401;
319.5000;0.9565;0.9299;
319.8000;0.9581;0.9198;
320.1000;0.9581;0.9248;
320.4000;0.9573;0.9350;
320.7000;0.9581;0.9350;
321.0000;0.9573;0.9325;
321.3000;0.9605;0.9350;
321.6000;0.9573;0.9325;
321.9000;0.9548;0.9274;
322.2000;0.9605;0.9452;
322.5000;0.9589;0.9376;
322.8000;0.9589;0.9452;
323.1000;0.9581;0.9452;
323.4000;0.9573;0.9452;
323.7000;0.9581;0.9529;
324.0000;0.9597;0.9503;
324.3000;0.9573;0.9580;
324.6000;0.9573;0.9605;
324.9000;0.9565;0.9503;
325.2000;0.9581;0.9478;
325.5000;0.9548;0.9376;
325.8000;0.9573;0.9299;
326.1000;0.9573;0.9350;
326.4000;0.9565;0.9325;
326.7000;0.9556;0.9299;
327.0000;0.9565;0.9223;
327.3000;0.9565;0.9274;
327.6000;0.9556;0.9350;
327.9000;0.9581;0.9401;
328.2000;0.9573;0.9350;
328.5000;0.9573;0.9401;
328.8000;0.9573;0.9248;
329.1000;0.9589;0.9325;
329.4000;0.9581;0.9299;
329.7000;0.9565;0.9248;
330.0000;0.9565;0.9376;
330.3000;0.9581;0.9274;
330.6000;0.9565;0.9172;
330.9000;0.9565;0.9299;
331.2000;0.9556;0.9299;
331.5000;0.9589;0.9325;
331.8000;0.9597;0.9401;
332.1000;0.9581;0.9350;
332.4000;0.9565;0.9299;
332.7000;0.9573;0.9325;
333.0000;0.9573;0.9350;
333.3000;0.9573;0.9325;
333.6000;0.9548;0.9350;
333.9000;0.9565;0.9401;
334.2000;0.9581;0.9376;
334.5000;0.9589;0.9376;
334.8000;0.9556;0.9350;
335.1000;0.9565;0.9274;
335.4000;0.9581;0.9223;
335.7000;0.9573;0.9198;
336.0000;0.9565;0.9121;
336.3000;0.9548;0.8994;
336.6000;0.9573;0.9147;
336.9000;0.9581;0.9198;
337.2000;0.9581;0.9147;
337.5000;0.9565;0.9045;
337.8000;0.9597;0.9096;
338.1000;0.9565;0.9121;
338.4000;0.9581;0.9248;
338.7000;0.9540;0.9198;
339.0000;0.9565;0.9350;
339.3000;0.9573;0.9452;
339.6000;0.9524;0.9452;
339.9000;0.9548;0.9529;
340.2000;0.9573;0.9580;
340.5000;0.9573;0.9554;
340.8000;0.9548;0.9503;
341.1000;0.9556;0.9478;
341.4000;0.9589;0.9478;
341.7000;0.9556;0.9452;
342.0000;0.9565;0.9478;
342.3000;0.9565;0.9427;
342.6000;0.9548;0.9299;
342.9000;0.9556;0.9299;
343.2000;0.9548;0.9248;
343.5000;0.9565;0.9299;
343.8000;0.9573;0.9325;
344.1000;0.9589;0.9401;
344.4000;0.9581;0.9401;
344.7000;0.9573;0.9376;
345.0000;0.9565;0.9452;
345.3000;0.9556;0.9401;
345.6000;0.9548;0.9274;
345.9000;0.9556;0.9223;
346.2000;0.9524;0.9045;
346.5000;0.9565;0.9147;
346.8000;0.9573;0.9248;
347.1000;0.9565;0.9299;
347.4000;0.9605;0.9478;
347.7000;0.9540;0.9350;
348.0000;0.9548;0.9427;
348.3000;0.9508;0.9223;
348.6000;0.9556;0.9299;
348.9000;0.9556;0.9376;
349.2000;0.9508;0.9376;
349.5000;0.9621;0.9656;
349.8000;0.9573;0.9452;
350.1000;0.9589;0.9529;
350.4000;0.9573;0.9605;
350.7000;0.9621;0.9784;
351.0000;0.9565;0.9656;
351.3000;0.9565;0.9605;
351.6000;0.9556;0.9631;
351.9000;0.9548;0.9631;
352.2000;0.9565;0.9656;
352.5000;0.9556;0.9631;
352.8000;0.9556;0.9580;
353.1000;0.9581;0.9503;
353.4000;0.9565;0.9401;
353.7000;0.9573;0.9350;
354.0000;0.9573;0.9350;
354.3000;0.9573;0.9401;
354.6000;0.9540;0.9350;
354.9000;0.9573;0.9376;
355.2000;0.9548;0.9376;
355.5000;0.9581;0.9401;
355.8000;0.9589;0.9478;
356.1000;0.9565;0.9503;
356.4000;0.9573;0.9580;
356.7000;0.9573;0.9656;
357.0000;0.9548;0.9656;
357.3000;0.9573;0.9580;
357.6000;0.9581;0.9605;
357.9000;0.9516;0.9427;
358.2000;0.9573;0.9580;
358.5000;0.9548;0.9554;
358.8000;0.9548;0.9478;
359.1000;0.9565;0.9503;
359.4000;0.9565;0.9478;
359.7000;0.9573;0.9452;
360.0000;0.9540;0.9401;
360.3000;0.9556;0.9478;
360.6000;0.9565;0.9452;
360.9000;0.9573;0.9554;
361.2000;0.9581;0.9478;
361.5000;0.9548;0.9478;
361.8000;0.9548;0.9401;
362.1000;0.9605;0.9554;
362.4000;0.9573;0.9580;
362.7000;0.9573;0.9452;
363.0000;0.9565;0.9478;
363.3000;0.9654;0.9733;
363.6000;0.9516;0.9350;
363.9000;0.9565;0.9478;
364.2000;0.9565;0.9478;
364.5000;0.9565;0.9478;
364.8000;0.9597;0.9554;
365.1000;0.9573;0.9554;
365.4000;0.9548;0.9503;
365.7000;0.9556;0.9554;
366.0000;0.9589;0.9554;
366.3000;0.9565;0.9478;
366.6000;0.9532;0.9350;
366.9000;0.9524;0.9350;
367.2000;0.9556;0.9401;
367.5000;0.9548;0.9299;
367.8000;0.9556;0.9299;
368.1000;0.9556;0.9274;
368.4000;0.9613;0.9376;
368.7000;0.9565;0.9299;
369.0000;0.9548;0.9325;
369.3000;0.9556;0.9248;
369.6000;0.9540;0.9248;
369.9000;0.9573;0.9376;
370.2000;0.9556;0.9401;
370.5000;0.9540;0.9350;
370.8000;0.9565;0.9376;
371.1000;0.9565;0.9299;
371.4000;0.9573;0.9299;
371.7000;0.9565;0.9401;
372.0000;0.9573;0.9452;
372.3000;0.9565;0.9452;
372.6000;0.9581;0.9529;
372.9000;0.9573;0.9478;
373.2000;0.9508;0.9325;
373.5000;0.9556;0.9478;
373.8000;0.9556;0.9427;
374.1000;0.9556;0.9401;
374.4000;0.9565;0.9376;
374.7000;0.9565;0.9350;
375.0000;0.9573;0.9376;
375.3000;0.9556;0.9401;
375.6000;0.9548;0.9401;
375.9000;0.9532;0.9401;
376.2000;0.9556;0.9427;
376.5000;0.9581;0.9376;
376.8000;0.9540;0.9248;
377.1000;0.9556;0.9274;
377.4000;0.9556;0.9350;
377.7000;0.9573;0.9325;
378.0000;0.9565;0.9248;
378.3000;0.9556;0.9096;
378.6000;0.9565;0.9019;
378.9000;0.9565;0.8943;
379.2000;0.9565;0.8943;
379.5000;0.9532;0.8917;
379.8000;0.9565;0.8994;
380.1000;0.9532;0.8892;
380.4000;0.9565;0.8968;
380.7000;0.9597;0.8968;
381.0000;0.9565;0.8968;
381.3000;0.9556;0.9019;
381.6000;0.9556;0.9045;
381.9000;0.9540;0.9019;
382.2000;0.9532;0.9096;
382.5000;0.9548;0.9147;
382.8000;0.9646;0.9376;
383.1000;0.9565;0.9198;
383.4000;0.9548;0.9198;
383.7000;0.9581;0.9274;
384.0000;0.9573;0.9248;
384.3000;0.9581;0.9299;
384.6000;0.9565;0.9325;
384.9000;0.9565;0.9401;
385.2000;0.9565;0.9376;
385.5000;0.9548;0.9376;
385.8000;0.9556;0.9274;
386.1000;0.9565;0.9299;
386.4000;0.9565;0.9274;
386.7000;0.9573;0.9223;
387.0000;0.9508;0.9070;
387.3000;0.9556;0.9299;
387.6000;0.9556;0.9223;
387.9000;0.9556;0.9248;
388.2000;0.9565;0.9274;
388.5000;0.9589;0.9325;
388.8000;0.9548;0.9223;
389.1000;0.9565;0.9274;
389.4000;0.9524;0.9299;
389.7000;0.9548;0.9325;
390.0000;0.9548;0.9427;
390.3000;0.9573;0.9478;
390.6000;0.9573;0.9427;
390.9000;0.9548;0.9401;
391.2000;0.9556;0.9401;
391.5000;0.9548;0.9401;
391.8000;0.9556;0.9427;
392.1000;0.9540;0.9401;
392.4000;0.9540;0.9274;
392.7000;0.9540;0.9248;
393.0000;0.9548;0.9223;
393.3000;0.9556;0.9274;
393.6000;0.9548;0.9274;
393.9000;0.9565;0.9248;
394.2000;0.9565;0.9223;
394.5000;0.9565;0.9172;
394.8000;0.9548;0.9121;
395.1000;0.9565;0.9172;
395.4000;0.9597;0.9198;
395.7000;0.9532;0.9172;
396.0000;0.9548;0.9248;
396.3000;0.9565;0.9274;
396.6000;0.9581;0.9299;
396.9000;0.9556;0.9299;
397.2000;0.9556;0.9299;
397.5000;0.9573;0.9401;
397.8000;0.9548;0.9401;
398.1000;0.9573;0.9503;
398.4000;0.9548;0.9503;
398.7000;0.9581;0.9529;
399.0000;0.9548;0.9427;
399.3000;0.9556;0.9401;
399.6000;0.9548;0.9376;
399.9000;0.9556;0.9299;
400.2000;0.9548;0.9350;
400.5000;0.9540;0.9274;
400.8000;0.9556;0.9223;
401.1000;0.9548;0.9223;
401.4000;0.9548;0.9223;
401.7000;0.9556;0.9198;
402.0000;0.9565;0.9299;
402.3000;0.9565;0.9274;
402.6000;0.9548;0.9198;
402.9000;0.9589;0.9147;
403.2000;0.9565;0.9147;
403.5000;0.9532;0.8994;
403.8000;0.9548;0.9121;
404.1000;0.9540;0.9198;
404.4000;0.9556;0.9248;
404.7000;0.9573;0.9223;
405.0000;0.9556;0.9147;
405.3000;0.9556;0.9121;
405.6000;0.9556;0.9070;
405.9000;0.9565;0.9096;
406.2000;0.9556;0.9172;
406.5000;0.9556;0.9223;
406.8000;0.9556;0.9248;
407.1000;0.9548;0.9198;
407.4000;0.9548;0.9198;
407.7000;0.9532;0.9198;
408.0000;0.9548;0.9147;
408.3000;0.9548;0.9070;
408.6000;0.9573;0.9070;
408.9000;0.9548;0.9019;
409.2000;0.9548;0.9096;
409.5000;0.9548;0.9147;
409.8000;0.9565;0.9223;
410.1000;0.9573;0.9198;
410.4000;0.9516;0.9019;
410.7000;0.9565;0.9121;
411.0000;0.9556;0.9172;
411.3000;0.9548;0.9147;
411.6000;0.9565;0.9045;
411.9000;0.9524;0.8943;
412.2000;0.9540;0.9019;
412.5000;0.9548;0.8994;
412.8000;0.9548;0.8994;
413.1000;0.9540;0.9045;
413.4000;0.9524;0.9045;
413.7000;0.9556;0.9121;
414.0000;0.9548;0.9019;
414.3000;0.9556;0.9045;
414.6000;0.9548;0.9045;
414.9000;0.9548;0.9045;
415.2000;0.9548;0.9096;
415.5000;0.9548;0.9045;
415.8000;0.9548;0.9198;
416.1000;0.9565;0.9248;
416.4000;0.9548;0.9172;
416.7000;0.9540;0.9096;
417.0000;0.9565;0.9121;
417.3000;0.9573;0.9172;
417.6000;0.9508;0.9070;
417.9000;0.9524;0.9223;
418.2000;0.9540;0.9198;
418.5000;0.9524;0.9198;
418.8000;0.9565;0.9299;
419.1000;0.9548;0.9299;
419.4000;0.9548;0.9223;
419.7000;0.9565;0.9248;
420.0000;0.9565;0.9325;
420.3000;0.9565;0.9376;
420.6000;0.9548;0.9223;
420.9000;0.9556;0.9198;
421.2000;0.9565;0.9198;
421.5000;0.9573;0.9274;
421.8000;0.9556;0.9248;
422.1000;0.9565;0.9248;
422.4000;0.9548;0.9350;
422.7000;0.9548;0.9350;
423.0000;0.9548;0.9401;
423.3000;0.9556;0.9350;
423.6000;0.9573;0.9376;
423.9000;0.9565;0.9376;
424.2000;0.9548;0.9376;
424.5000;0.9597;0.9478;
424.8000;0.9556;0.9350;
425.1000;0.9556;0.9350;
425.4000;0.9565;0.9325;
425.7000;0.9532;0.9299;
426.0000;0.9540;0.9325;
426.3000;0.9540;0.9248;
426.6000;0.9540;0.9172;
426.9000;0.9532;0.9121;
427.2000;0.9540;0.9198;
427.5000;0.9540;0.9096;
427.8000;0.9548;0.9147;
428.1000;0.9475;0.8892;
428.4000;0.9548;0.9121;
428.7000;0.9548;0.9172;
429.0000;0.9532;0.9172;
429.3000;0.9540;0.9248;
429.6000;0.9548;0.9198;
429.9000;0.9548;0.9096;
430.2000;0.9556;0.9096;
430.5000;0.9556;0.9096;
430.8000;0.9556;0.9172;
431.1000;0.9548;0.9274;
431.4000;0.9597;0.9401;
431.7000;0.9548;0.9299;
432.0000;0.9556;0.9325;
432.3000;0.9548;0.9376;
432.6000;0.9532;0.9376;
432.9000;0.9548;0.9325;
433.2000;0.9556;0.9325;
433.5000;0.9540;0.9274;
433.8000;0.9565;0.9401;
434.1000;0.9556;0.9478;
434.4000;0.9540;0.9427;
434.7000;0.9565;0.9452;
435.0000;0.9565;0.9503;
435.3000;0.9638;0.9682;
435.6000;0.9556;0.9376;
435.9000;0.9556;0.9401;
436.2000;0.9532;0.9325;
436.5000;0.9565;0.9631;
436.8000;0.9540;0.9580;
437.1000;0.9532;0.9554;
437.4000;0.9573;0.9580;
437.7000;0.9556;0.9554;
438.0000;0.9532;0.9478;
438.3000;0.9540;0.9478;
438.6000;0.9540;0.9427;
438.9000;0.9565;0.9452;
439.2000;0.9556;0.9427;
439.5000;0.9548;0.9401;
439.8000;0.9548;0.9427;
440.1000;0.9565;0.9478;
440.4000;0.9638;0.9656;
440.7000;0.9548;0.9401;
441.0000;0.9565;0.9376;
441.3000;0.9548;0.9350;
441.6000;0.9532;0.9325;
441.9000;0.9532;0.9299;
442.2000;0.9548;0.9274;
442.5000;0.9540;0.9223;
442.8000;0.9573;0.9248;
443.1000;0.9548;0.9198;
443.4000;0.9540;0.9248;
443.7000;0.9532;0.9274;
444.0000;0.9540;0.9325;
444.3000;0.9532;0.9401;
444.6000;0.9540;0.9427;
444.9000;0.9532;0.9350;
445.2000;0.9548;0.9325;
445.5000;0.9581;0.9376;
445.8000;0.9548;0.9274;
446.1000;0.9556;0.9223;
446.4000;0.9556;0.9198;
446.7000;0.9475;0.9096;
447.0000;0.9556;0.9198;
447.3000;0.9540;0.9223;
447.6000;0.9532;0.9172;
447.9000;0.9532;0.9198;
448.2000;0.9540;0.9299;
448.5000;0.9548;0.9401;
448.8000;0.9540;0.9427;
449.1000;0.9556;0.9478;
449.4000;0.9540;0.9452;
449.7000;0.9565;0.9529;
450.0000;0.9548;0.9503;
450.3000;0.9508;0.9503;
450.6000;0.9548;0.9656;
450.9000;0.9556;0.9707;
451.2000;0.9573;0.9707;
451.5000;0.9556;0.9605;
451.8000;0.9565;0.9631;
452.1000;0.9532;0.9427;
452.4000;0.9532;0.9376;
452.7000;0.9573;0.9427;
453.0000;0.9540;0.9350;
453.3000;0.9605;0.9529;
453.6000;0.9540;0.9350;
453.9000;0.9516;0.9325;
454.2000;0.9556;0.9350;
454.5000;0.9524;0.9325;
454.8000;0.9524;0.9274;
455.1000;0.9540;0.9274;
455.4000;0.9589;0.9325;
455.7000;0.9540;0.9172;
456.0000;0.9524;0.9121;
456.3000;0.9532;0.9223;
456.6000;0.9548;0.9248;
456.9000;0.9556;0.9248;
457.2000;0.9540;0.9274;
457.5000;0.9548;0.9274;
457.8000;0.9548;0.9325;
458.1000;0.9540;0.9401;
458.4000;0.9548;0.9427;
458.7000;0.9532;0.9401;
459.0000;0.9532;0.9376;
459.3000;0.9556;0.9299;
459.6000;0.9565;0.9299;
459.9000;0.9532;0.9248;
460.2000;0.9548;0.9274;
460.5000;0.9532;0.9325;
460.8000;0.9499;0.9325;
461.1000;0.9532;0.9427;
461.4000;0.9556;0.9452;
461.7000;0.9540;0.9350;
462.0000;0.9532;0.9452;
462.3000;0.9508;0.9376;
462.6000;0.9565;0.9503;
462.9000;0.9516;0.9478;
463.2000;0.9613;0.9784;
463.5000;0.9524;0.9554;
463.8000;0.9532;0.9529;
464.1000;0.9548;0.9554;
464.4000;0.9540;0.9554;
464.7000;0.9556;0.9478;
465.0000;0.9532;0.9427;
465.3000;0.9556;0.9554;
465.6000;0.9548;0.9554;
465.9000;0.9548;0.9401;
466.2000;0.9613;0.9503;
466.5000;0.9532;0.9350;
466.8000;0.9548;0.9427;
467.1000;0.9532;0.9427;
467.4000;0.9540;0.9401;
467.7000;0.9524;0.9350;
468.0000;0.9556;0.9427;
468.3000;0.9540;0.9452;
468.6000;0.9540;0.9478;
468.9000;0.9540;0.9529;
469.2000;0.9581;0.9529;
469.5000;0.9548;0.9427;
469.8000;0.9548;0.9376;
470.1000;0.9540;0.9350;
470.4000;0.9556;0.9350;
470.7000;0.9556;0.9350;
471.0000;0.9573;0.9376;
471.3000;0.9524;0.9325;
471.6000;0.9548;0.9401;
471.9000;0.9556;0.9401;
472.2000;0.9556;0.9376;
472.5000;0.9548;0.9299;
472.8000;0.9516;0.9198;
473.1000;0.9581;0.9350;
473.4000;0.9556;0.9350;
473.7000;0.9573;0.9248;
474.0000;0.9565;0.9274;
474.3000;0.9548;0.9299;
474.6000;0.9540;0.9376;
474.9000;0.9524;0.9325;
475.2000;0.9532;0.9401;
475.5000;0.9532;0.9376;
475.8000;0.9548;0.9350;
476.1000;0.9556;0.9401;
476.4000;0.9524;0.9299;
476.7000;0.9573;0.9503;
477.0000;0.9556;0.9503;
477.3000;0.9548;0.9529;
477.6000;0.9516;0.9452;
477.9000;0.9532;0.9478;
478.2000;0.9540;0.9427;
478.5000;0.9548;0.9452;
478.8000;0.9548;0.9376;
479.1000;0.9548;0.9299;
479.4000;0.9532;0.9172;
479.7000;0.9540;0.9198;
480.0000;0.9548;0.9198;
480.3000;0.9508;0.9045;
480.6000;0.9540;0.9172;
480.9000;0.9565;0.9401;
481.2000;0.9573;0.9452;
481.5000;0.9540;0.9325;
481.8000;0.9621;0.9478;
482.1000;0.9540;0.9274;
482.4000;0.9540;0.9274;
482.7000;0.9548;0.9325;
483.0000;0.9540;0.9401;
483.3000;0.9540;0.9401;
483.6000;0.9540;0.9503;
483.9000;0.9540;0.9529;
484.2000;0.9508;0.9529;
484.5000;0.9548;0.9554;
484.8000;0.9540;0.9554;
485.1000;0.9532;0.9503;
485.4000;0.9548;0.9529;
485.7000;0.9548;0.9529;
486.0000;0.9540;0.9478;
486.3000;0.9516;0.9376;
486.6000;0.9532;0.9401;
486.9000;0.9532;0.9401;
487.2000;0.9548;0.9401;
487.5000;0.9540;0.9401;
487.8000;0.9532;0.9376;
488.1000;0.9548;0.9427;
488.4000;0.9556;0.9452;
488.7000;0.9532;0.9274;
489.0000;0.9548;0.9248;
489.3000;0.9532;0.9248;
489.6000;0.9532;0.9248;
489.9000;0.9540;0.9248;
490.2000;0.9540;0.9223;
490.5000;0.9532;0.9223;
490.8000;0.9548;0.9274;
491.1000;0.9548;0.9248;
491.4000;0.9556;0.9198;
491.7000;0.9532;0.9172;
492.0000;0.9540;0.9274;
492.3000;0.9589;0.9452;
492.6000;0.9540;0.9401;
492.9000;0.9540;0.9299;
493.2000;0.9532;0.9274;
493.5000;0.9532;0.9248;
493.8000;0.9540;0.9248;
494.1000;0.9597;0.9376;
494.4000;0.9540;0.9325;
494.7000;0.9524;0.9401;
495.0000;0.9556;0.9401;
495.3000;0.9532;0.9427;
495.6000;0.9524;0.9299;
495.9000;0.9556;0.9325;
496.2000;0.9548;0.9325;
496.5000;0.9556;0.9401;
496.8000;0.9532;0.9401;
497.1000;0.9524;0.9401;
497.4000;0.9532;0.9350;
497.7000;0.9540;0.9427;
498.0000;0.9516;0.9350;
498.3000;0.9532;0.9299;
498.6000;0.9532;0.9299;
498.9000;0.9516;0.9299;
499.2000;0.9540;0.9376;
499.5000;0.9524;0.9376;
499.8000;0.9524;0.9452;
500.1000;0.9516;0.9401;
500.4000;0.9532;0.9452;
500.7000;0.9524;0.9427;
501.0000;0.9491;0.9274;
501.3000;0.9516;0.9350;
501.6000;0.9540;0.9452;
501.9000;0.9532;0.9401;
502.2000;0.9556;0.9427;
502.5000;0.9532;0.9478;
502.8000;0.9556;0.9631;
503.1000;0.9499;0.9580;
503.4000;0.9524;0.9631;
503.7000;0.9524;0.9605;
504.0000;0.9540;0.9631;
504.3000;0.9540;0.9631;
504.6000;0.9556;0.9631;
504.9000;0.9524;0.9605;
505.2000;0.9532;0.9503;
505.5000;0.9565;0.9605;
505.8000;0.9524;0.9554;
506.1000;0.9540;0.9682;
506.4000;0.9540;0.9758;
506.7000;0.9548;0.9809;
507.0000;0.9532;0.9733;
507.3000;0.9540;0.9580;
507.6000;0.9516;0.9478;
507.9000;0.9532;0.9554;
508.2000;0.9540;0.9554;
508.5000;0.9524;0.9580;
508.8000;0.9524;0.9605;
509.1000;0.9524;0.9580;
509.4000;0.9524;0.9529;
509.7000;0.9532;0.9503;
510.0000;0.9524;0.9503;
510.3000;0.9524;0.9580;
510.6000;0.9565;0.9707;
510.9000;0.9524;0.9554;
511.2000;0.9524;0.9631;
511.5000;0.9532;0.9631;
511.8000;0.9524;0.9631;
512.1000;0.9548;0.9580;
512.4000;0.9524;0.9554;
512.7000;0.9532;0.9580;
513.0000;0.9499;0.9478;
513.3000;0.9516;0.9605;
513.6000;0.9467;0.9452;
513.9000;0.9540;0.9529;
514.2000;0.9597;0.9631;
514.5000;0.9532;0.9580;
514.8000;0.9524;0.9580;
515.1000;0.9524;0.9554;
515.4000;0.9532;0.9503;
515.7000;0.9556;0.9427;
516.0000;0.9524;0.9325;
516.3000;0.9540;0.9299;
516.6000;0.9548;0.9401;
516.9000;0.9532;0.9452;
517.2000;0.9532;0.9478;
517.5000;0.9565;0.9503;
517.8000;0.9548;0.9478;
518.1000;0.9556;0.9503;
518.4000;0.9516;0.9478;
518.7000;0.9499;0.9478;
519.0000;0.9540;0.9631;
519.3000;0.9508;0.9529;
519.6000;0.9516;0.9503;
519.9000;0.9516;0.9452;
520.2000;0.9524;0.9478;
520.5000;0.9524;0.9478;
520.8000;0.9516;0.9503;
521.1000;0.9532;0.9503;
521.4000;0.9532;0.9452;
521.7000;0.9540;0.9401;
522.0000;0.9548;0.9452;
522.3000;0.9532;0.9529;
522.6000;0.9516;0.9452;
522.9000;0.9556;0.9580;
523.2000;0.9556;0.9529;
523.5000;0.9540;0.9503;
523.8000;0.9524;0.9503;
524.1000;0.9532;0.9529;
524.4000;0.9532;0.9529;
524.7000;0.9548;0.9554;
525.0000;0.9524;0.9478;
525.3000;0.9532;0.9478;
525.6000;0.9573;0.9580;
525.9000;0.9532;0.9427;
526.2000;0.9508;0.9376;
526.5000;0.9524;0.9376;
526.8000;0.9540;0.9452;
527.1000;0.9491;0.9325;
527.4000;0.9524;0.9350;
527.7000;0.9589;0.9452;
528.0000;0.9532;0.9299;
528.3000;0.9548;0.9274;
528.6000;0.9540;0.9198;
528.9000;0.9524;0.9198;
529.2000;0.9532;0.9223;
529.5000;0.9532;0.9198;
529.8000;0.9516;0.9172;
530.1000;0.9516;0.9325;
530.4000;0.9524;0.9325;
530.7000;0.9532;0.9376;
531.0000;0.9516;0.9427;
531.3000;0.9524;0.9554;
531.6000;0.9540;0.9554;
531.9000;0.9532;0.9580;
532.2000;0.9532;0.9529;
532.5000;0.9524;0.9401;
532.8000;0.9524;0.9376;
533.1000;0.9532;0.9478;
533.4000;0.9532;0.9503;
533.7000;0.9532;0.9452;
534.0000;0.9532;0.9401;
534.3000;0.9540;0.9478;
534.6000;0.9532;0.9427;
534.9000;0.9516;0.9350;
535.2000;0.9524;0.9401;
535.5000;0.9524;0.9452;
535.8000;0.9532;0.9452;
536.1000;0.9524;0.9478;
536.4000;0.9508;0.9554;
536.7000;0.9532;0.9631;
537.0000;0.9532;0.9631;
537.3000;0.9565;0.9682;
537.6000;0.9467;0.9325;
537.9000;0.9524;0.9478;
538.2000;0.9548;0.9529;
538.5000;0.9508;0.9452;
538.8000;0.9508;0.9529;
539.1000;0.9524;0.9605;
539.4000;0.9532;0.9631;
539.7000;0.9508;0.9554;
540.0000;0.9524;0.9554;
540.3000;0.9524;0.9503;
540.6000;0.9467;0.9376;
540.9000;0.9508;0.9452;
541.2000;0.9508;0.9401;
541.5000;0.9532;0.9427;
541.8000;0.9516;0.9376;
542.1000;0.9524;0.9478;
542.4000;0.9532;0.9503;
542.7000;0.9475;0.9376;
543.0000;0.9540;0.9580;
543.3000;0.9573;0.9605;
543.6000;0.9573;0.9529;
543.9000;0.9491;0.9325;
544.2000;0.9524;0.9401;
544.5000;0.9516;0.9529;
544.8000;0.9516;0.9478;
545.1000;0.9516;0.9427;
545.4000;0.9516;0.9401;
545.7000;0.9451;0.9274;
546.0000;0.9532;0.9452;
546.3000;0.9524;0.9452;
546.6000;0.9524;0.9529;
546.9000;0.9524;0.9503;
547.2000;0.9524;0.9427;
547.5000;0.9532;0.9452;
547.8000;0.9508;0.9427;
548.1000;0.9499;0.9427;
548.4000;0.9491;0.9401;
548.7000;0.9540;0.9554;
549.0000;0.9532;0.9401;
549.3000;0.9508;0.9427;
549.6000;0.9524;0.9554;
549.9000;0.9532;0.9554;
550.2000;0.9516;0.9554;
550.5000;0.9524;0.9580;
550.8000;0.9524;0.9529;
551.1000;0.9524;0.9478;
551.4000;0.9540;0.9478;
551.7000;0.9532;0.9478;
552.0000;0.9540;0.9503;
552.3000;0.9540;0.9478;
552.6000;0.9524;0.9376;
552.9000;0.9540;0.9274;
553.2000;0.9540;0.9299;
553.5000;0.9516;0.9248;
553.8000;0.9540;0.9299;
554.1000;0.9483;0.9172;
554.4000;0.9532;0.9248;
554.7000;0.9524;0.9172;
555.0000;0.9540;0.9172;
555.3000;0.9540;0.9274;
555.6000;0.9499;0.9121;
555.9000;0.9524;0.9198;
556.2000;0.9556;0.9248;
556.5000;0.9491;0.9121;
556.8000;0.9508;0.9147;
557.1000;0.9508;0.9147;
557.4000;0.9499;0.9299;
557.7000;0.9524;0.9452;
558.0000;0.9516;0.9478;
558.3000;0.9434;0.9223;
558.6000;0.9524;0.9452;
558.9000;0.9532;0.9401;
559.2000;0.9540;0.9401;
559.5000;0.9524;0.9299;
559.8000;0.9524;0.9401;
560.1000;0.9467;0.9223;
560.4000;0.9499;0.9325;
560.7000;0.9532;0.9401;
561.0000;0.9516;0.9350;
561.3000;0.9516;0.9376;
561.6000;0.9532;0.9427;
561.9000;0.9508;0.9529;
562.2000;0.9532;0.9401;
562.5000;0.9524;0.9427;
562.8000;0.9475;0.9325;
563.1000;0.9524;0.9427;
563.4000;0.9516;0.9427;
563.7000;0.9540;0.9503;
564.0000;0.9540;0.9452;
564.3000;0.9532;0.9427;
564.6000;0.9532;0.9299;
564.9000;0.9556;0.9248;
565.2000;0.9573;0.9274;
565.5000;0.9516;0.9172;
565.8000;0.9540;0.9274;
566.1000;0.9467;0.9121;
566.4000;0.9532;0.9274;
566.7000;0.9605;0.9554;
567.0000;0.9516;0.9274;
567.3000;0.9499;0.9223;
567.6000;0.9532;0.9299;
567.9000;0.9491;0.9299;
568.2000;0.9540;0.9529;
568.5000;0.9508;0.9452;
568.8000;0.9524;0.9401;
569.1000;0.9532;0.9401;
569.4000;0.9540;0.9452;
569.7000;0.9499;0.9401;
570.0000;0.9540;0.9427;
570.3000;0.9532;0.9376;
570.6000;0.9516;0.9401;
570.9000;0.9516;0.9376;
571.2000;0.9508;0.9325;
571.5000;0.9532;0.9274;
571.8000;0.9524;0.9274;
572.1000;0.9410;0.9019;
572.4000;0.9475;0.9147;
572.7000;0.9516;0.9223;
573.0000;0.9516;0.9223;
573.3000;0.9524;0.9223;
573.6000;0.9548;0.9248;
573.9000;0.9524;0.9223;
574.2000;0.9524;0.9172;
574.5000;0.9508;0.9096;
574.8000;0.9573;0.9198;
575.1000;0.9532;0.9070;
575.4000;0.9516;0.9121;
575.7000;0.9516;0.9172;
576.0000;0.9540;0.9350;
576.3000;0.9540;0.9452;
576.6000;0.9516;0.9427;
576.9000;0.9524;0.9478;
577.2000;0.9499;0.9427;
577.5000;0.9524;0.9503;
577.8000;0.9516;0.9503;
578.1000;0.9548;0.9580;
578.4000;0.9524;0.9529;
578.7000;0.9499;0.9325;
579.0000;0.9516;0.9325;
579.3000;0.9573;0.9452;
579.6000;0.9532;0.9350;
579.9000;0.9459;0.9096;
580.2000;0.9540;0.9248;
580.5000;0.9532;0.9223;
580.8000;0.9524;0.9248;
581.1000;0.9508;0.9274;
581.4000;0.9516;0.9376;
581.7000;0.9524;0.9401;
582.0000;0.9524;0.9503;
582.3000;0.9540;0.9656;
582.6000;0.9516;0.9605;
582.9000;0.9532;0.9605;
583.2000;0.9548;0.9580;
583.5000;0.9516;0.9529;
583.8000;0.9524;0.9427;
584.1000;0.9524;0.9376;
584.4000;0.9540;0.9401;
584.7000;0.9508;0.9325;
585.0000;0.9524;0.9198;
585.3000;0.9532;0.9248;
585.6000;0.9548;0.9274;
585.9000;0.9548;0.9376;
586.2000;0.9516;0.9248;
586.5000;0.9532;0.9350;
586.8000;0.9524;0.9376;
587.1000;0.9532;0.9401;
587.4000;0.9516;0.9248;
587.7000;0.9491;0.9198;
588.0000;0.9516;0.9223;
588.3000;0.9524;0.9248;
588.6000;0.9499;0.9198;
588.9000;0.9499;0.9223;
589.2000;0.9499;0.9223;
589.5000;0.9524;0.9376;
589.8000;0.9508;0.9376;
590.1000;0.9508;0.9325;
590.4000;0.9524;0.9248;
590.7000;0.9508;0.9223;
591.0000;0.9548;0.9376;
591.3000;0.9524;0.9274;
591.6000;0.9491;0.9223;
591.9000;0.9508;0.9198;
592.2000;0.9516;0.9223;
592.5000;0.9499;0.9198;
592.8000;0.9499;0.9223;
593.1000;0.9516;0.9198;
593.4000;0.9524;0.9299;
593.7000;0.9524;0.9325;
594.0000;0.9524;0.9299;
594.3000;0.9524;0.9401;
594.6000;0.9597;0.9529;
594.9000;0.9508;0.9223;
595.2000;0.9548;0.9376;
595.5000;0.9516;0.9274;
595.8000;0.9475;0.9147;
596.1000;0.9565;0.9452;
596.4000;0.9499;0.9274;
596.7000;0.9516;0.9325;
597.0000;0.9508;0.9350;
597.3000;0.9532;0.9401;
597.6000;0.9516;0.9401;
597.9000;0.9524;0.9427;
598.2000;0.9499;0.9401;
598.5000;0.9524;0.9478;
598.8000;0.9516;0.9554;
599.1000;0.9499;0.9503;
599.4000;0.9516;0.9503;
599.7000;0.9516;0.9529;
600.0000;0.9491;0.9554;
600.3000;0.9516;0.9554;
600.6000;0.9516;0.9350;
600.9000;0.9475;0.9223;
601.2000;0.9410;0.9045;
601.5000;0.9312;0.8866;
601.8000;0.9247;0.8815;
602.1000;0.9174;0.8612;
602.4000;0.9052;0.8229;
602.7000;0.9035;0.8255;
603.0000;0.8970;0.8026;
603.3000;0.8905;0.7924;
603.6000;0.8848;0.7694;
603.9000;0.8791;0.7567;
604.2000;0.8734;0.7516;
604.5000;0.8677;0.7465;
604.8000;0.8653;0.7440;
605.1000;0.8580;0.7210;
605.4000;0.8620;0.7287;
605.7000;0.8498;0.7006;
606.0000;0.8490;0.7032;
606.3000;0.8441;0.7032;
606.6000;0.8409;0.7006;
606.9000;0.8360;0.7006;
607.2000;0.8344;0.7057;
607.5000;0.8295;0.7006;
607.8000;0.8270;0.6955;
608.1000;0.8197;0.6803;
608.4000;0.8221;0.6930;
608.7000;0.8205;0.6981;
609.0000;0.8173;0.6828;
609.3000;0.8140;0.6777;
609.6000;0.8116;0.6777;
609.9000;0.8091;0.6777;
610.2000;0.8059;0.6726;
610.5000;0.8034;0.6624;
610.8000;0.8034;0.6573;
611.1000;0.8010;0.6599;
611.4000;0.7977;0.6548;
611.7000;0.7953;0.6497;
612.0000;0.7937;0.6522;
612.3000;0.7920;0.6573;
612.6000;0.7855;0.6446;
612.9000;0.7871;0.6497;
613.2000;0.7863;0.6446;
613.5000;0.7839;0.6420;
613.8000;0.7831;0.6471;
614.1000;0.7798;0.6446;
614.4000;0.7790;0.6446;
614.7000;0.7831;0.6573;
615.0000;0.7774;0.6420;
615.3000;0.7757;0.6471;
615.6000;0.7725;0.6420;
615.9000;0.7725;0.6446;
616.2000;0.7749;0.6522;
616.5000;0.7700;0.6497;
616.8000;0.7652;0.6369;
617.1000;0.7684;0.6446;
617.4000;0.7652;0.6446;
617.7000;0.7627;0.6420;
618.0000;0.7709;0.6573;
618.3000;0.7643;0.6446;
618.6000;0.7603;0.6395;
618.9000;0.7586;0.6344;
619.2000;0.7595;0.6395;
619.5000;0.7554;0.6420;
619.8000;0.7562;0.6497;
620.1000;0.7554;0.6471;
620.4000;0.7538;0.6344;
620.7000;0.7530;0.6268;
621.0000;0.7530;0.6344;
621.3000;0.7505;0.6293;
621.6000;0.7505;0.6344;
621.9000;0.7489;0.6268;
622.2000;0.7464;0.6268;
622.5000;0.7464;0.6268;
622.8000;0.7432;0.6242;
623.1000;0.7448;0.6446;
623.4000;0.7440;0.6420;
623.7000;0.7432;0.6344;
624.0000;0.7416;0.6319;
624.3000;0.7407;0.6242;
624.6000;0.7440;0.6319;
624.9000;0.7383;0.6217;
625.2000;0.7399;0.6217;
625.5000;0.7383;0.6191;
625.8000;0.7375;0.6217;
626.1000;0.7383;0.6395;
626.4000;0.7424;0.6522;
626.7000;0.7342;0.6344;
627.0000;0.7334;0.6395;
627.3000;0.7318;0.6395;
627.6000;0.7318;0.6344;
627.9000;0.7334;0.6319;
628.2000;0.7302;0.6191;
628.5000;0.7285;0.6166;
628.8000;0.7302;0.6191;
629.1000;0.7310;0.6191;
629.4000;0.7293;0.6191;
629.7000;0.7261;0.6217;
630.0000;0.7261;0.6319;
630.3000;0.7261;0.6369;
630.6000;0.7253;0.6293;
630.9000;0.7236;0.6344;
631.2000;0.7245;0.6268;
631.5000;0.7236;0.6293;
631.8000;0.7220;0.6268;
632.1000;0.7228;0.6191;
632.4000;0.7204;0.6268;
632.7000;0.7220;0.6242;
633.0000;0.7212;0.6268;
633.3000;0.7179;0.6268;
633.6000;0.7188;0.6293;
633.9000;0.7188;0.6344;
634.2000;0.7188;0.6293;
634.5000;0.7155;0.6191;
634.8000;0.7139;0.6191;
635.1000;0.7155;0.6191;
635.4000;0.7171;0.6140;
635.7000;0.7212;0.6268;
636.0000;0.7155;0.6166;
636.3000;0.7139;0.6166;
636.6000;0.7147;0.6140;
636.9000;0.7131;0.6140;
637.2000;0.7123;0.6089;
637.5000;0.7139;0.6191;
637.8000;0.7123;0.6140;
638.1000;0.7114;0.6140;
638.4000;0.7098;0.6191;
638.7000;0.7098;0.6217;
639.0000;0.7098;0.6217;
639.3000;0.7098;0.6293;
639.6000;0.7074;0.6242;
639.9000;0.7082;0.6344;
640.2000;0.7090;0.6344;
640.5000;0.7074;0.6420;
640.8000;0.7074;0.6319;
641.1000;0.7057;0.6344;
641.4000;0.7049;0.6268;
641.7000;0.7066;0.6268;
642.0000;0.7041;0.6242;
642.3000;0.7057;0.6268;
642.6000;0.7033;0.6293;
642.9000;0.7025;0.6242;
643.2000;0.7025;0.6140;
643.5000;0.7098;0.6395;
643.8000;0.6952;0.6089;
644.1000;0.7025;0.6191;
644.4000;0.7025;0.6191;
644.7000;0.7000;0.6191;
645.0000;0.6984;0.6242;
645.3000;0.6984;0.6344;
645.6000;0.7000;0.6369;
645.9000;0.6992;0.6420;
646.2000;0.6984;0.6420;
646.5000;0.6992;0.6369;
646.8000;0.6976;0.6268;
647.1000;0.6968;0.6344;
647.4000;0.6943;0.6293;
647.7000;0.6952;0.6344;
648.0000;0.6960;0.6319;
648.3000;0.6952;0.6268;
648.6000;0.6935;0.6191;
648.9000;0.6927;0.6115;
649.2000;0.6952;0.6140;
649.5000;0.6935;0.6064;
649.8000;0.6943;0.6115;
650.1000;0.6919;0.6140;
650.4000;0.6927;0.6268;
650.7000;0.6927;0.6319;
651.0000;0.6903;0.6242;
651.3000;0.6919;0.6293;
651.6000;0.6935;0.6369;
651.9000;0.6903;0.6217;
652.2000;0.6886;0.6166;
652.5000;0.6886;0.6115;
652.8000;0.6886;0.6089;
653.1000;0.6886;0.6064;
653.4000;0.6862;0.6089;
653.7000;0.6862;0.6217;
654.0000;0.6862;0.6242;
654.3000;0.6862;0.6293;
654.6000;0.6886;0.6344;
654.9000;0.6870;0.6191;
655.2000;0.6862;0.6140;
655.5000;0.6821;0.6191;
655.8000;0.6846;0.6242;
656.1000;0.6829;0.6140;
656.4000;0.6846;0.6268;
656.7000;0.6870;0.6344;
657.0000;0.6846;0.6319;
657.3000;0.6821;0.6319;
657.6000;0.6813;0.6293;
657.9000;0.6781;0.6293;
658.2000;0.6813;0.6344;
658.5000;0.6821;0.6319;
658.8000;0.6772;0.6115;
659.1000;0.6805;0.6140;
659.4000;0.6805;0.6191;
659.7000;0.6813;0.6242;
660.0000;0.6797;0.6191;
660.3000;0.6789;0.6217;
660.6000;0.6813;0.6344;
660.9000;0.6772;0.6191;
661.2000;0.6707;0.5987;
661.5000;0.6781;0.6166;
661.8000;0.6772;0.6140;
662.1000;0.6772;0.6140;
662.4000;0.6764;0.6191;
662.7000;0.6764;0.6242;
663.0000;0.6740;0.6191;
663.3000;0.6789;0.6293;
663.6000;0.6756;0.6268;
663.9000;0.6740;0.6115;
664.2000;0.6748;0.6140;
664.5000;0.6748;0.6140;
664.8000;0.6740;0.6140;
665.1000;0.6756;0.6089;
665.4000;0.6732;0.6064;
665.7000;0.6740;0.6064;
666.0000;0.6740;0.6038;
666.3000;0.6732;0.5987;
666.6000;0.6667;0.5783;
666.9000;0.6732;0.5962;
667.2000;0.6732;0.6038;
667.5000;0.6716;0.5962;
667.8000;0.6756;0.6140;
668.1000;0.6716;0.6064;
668.4000;0.6716;0.6089;
668.7000;0.6707;0.6089;
669.0000;0.6699;0.6038;
669.3000;0.6691;0.6038;
669.6000;0.6707;0.6089;
669.9000;0.6691;0.6115;
670.2000;0.6683;0.6089;
670.5000;0.6683;0.5987;
670.8000;0.6691;0.6038;
671.1000;0.6707;0.6013;
671.4000;0.6683;0.6038;
671.7000;0.6667;0.5987;
672.0000;0.6699;0.6191;
672.3000;0.6667;0.6166;
672.6000;0.6667;0.6191;
672.9000;0.6650;0.6166;
673.2000;0.6650;0.6038;
673.5000;0.6659;0.6089;
673.8000;0.6667;0.6166;
674.1000;0.6642;0.6115;
674.4000;0.6626;0.6038;
674.7000;0.6650;0.6089;
675.0000;0.6634;0.5962;
675.3000;0.6585;0.5809;
675.6000;0.6634;0.5834;
675.9000;0.6634;0.5809;
676.2000;0.6626;0.5860;
676.5000;0.6626;0.5885;
676.8000;0.6634;0.5783;
677.1000;0.6683;0.6064;
677.4000;0.6634;0.5936;
677.7000;0.6610;0.5962;
678.0000;0.6618;0.5962;
678.3000;0.6585;0.5885;
678.6000;0.6650;0.6089;
678.9000;0.6610;0.6038;
679.2000;0.6553;0.5962;
679.5000;0.6626;0.6115;
679.8000;0.6634;0.6166;
680.1000;0.6610;0.6089;
680.4000;0.6569;0.6013;
680.7000;0.6650;0.6242;
681.0000;0.6610;0.6191;
681.3000;0.6602;0.6191;
681.6000;0.6602;0.6268;
681.9000;0.6585;0.6166;
682.2000;0.6610;0.6293;
682.5000;0.6577;0.6242;
682.8000;0.6585;0.6217;
683.1000;0.6577;0.6242;
683.4000;0.6561;0.6344;
683.7000;0.6569;0.6369;
684.0000;0.6561;0.6369;
684.3000;0.6528;0.6191;
684.6000;0.6528;0.6191;
684.9000;0.6545;0.6191;
685.2000;0.6553;0.6115;
685.5000;0.6536;0.6089;
685.8000;0.6536;0.6191;
686.1000;0.6577;0.6217;
686.4000;0.6569;0.6319;
686.7000;0.6553;0.6242;
687.0000;0.6528;0.6038;
687.3000;0.6528;0.5987;
687.6000;0.6512;0.5911;
687.9000;0.6528;0.6038;
688.2000;0.6536;0.6064;
688.5000;0.6528;0.6089;
688.8000;0.6528;0.6115;
689.1000;0.6471;0.5860;
689.4000;0.6471;0.5885;
689.7000;0.6528;0.6038;
690.0000;0.6520;0.6064;
690.3000;0.6520;0.6064;
690.6000;0.6528;0.6191;
690.9000;0.6512;0.6166;
691.2000;0.6496;0.6115;
691.5000;0.6569;0.6217;
691.8000;0.6512;0.6064;
692.1000;0.6504;0.6038;
692.4000;0.6471;0.5962;
692.7000;0.6520;0.6191;
693.0000;0.6488;0.6089;
693.3000;0.6577;0.6344;
693.6000;0.6512;0.6166;
693.9000;0.6496;0.6140;
694.2000;0.6504;0.6191;
694.5000;0.6479;0.6140;
694.8000;0.6479;0.6166;
695.1000;0.6479;0.6217;
695.4000;0.6536;0.6344;
695.7000;0.6479;0.6191;
696.0000;0.6471;0.6242;
696.3000;0.6471;0.6217;
696.6000;0.6422;0.6089;
696.9000;0.6463;0.6217;
697.2000;0.6471;0.6166;
697.5000;0.6479;0.6191;
697.8000;0.6479;0.6140;
698.1000;0.6431;0.6089;
698.4000;0.6463;0.6191;
698.7000;0.6479;0.6344;
699.0000;0.6471;0.6369;
699.3000;0.6463;0.6319;
699.6000;0.6455;0.6242;
699.9000;0.6447;0.6242;
700.2000;0.6455;0.6242;
700.5000;0.6463;0.6166;
700.8000;0.6455;0.6115;
701.1000;0.6471;0.6217;
701.4000;0.6447;0.6293;
701.7000;0.6463;0.6420;
702.0000;0.6463;0.6395;
702.3000;0.6439;0.6395;
702.6000;0.6447;0.6420;
702.9000;0.6447;0.6446;
703.2000;0.6455;0.6497;
703.5000;0.6431;0.6420;
703.8000;0.6406;0.6319;
704.1000;0.6422;0.6319;
704.4000;0.6422;0.6268;
704.7000;0.6431;0.6191;
705.0000;0.6406;0.6140;
705.3000;0.6422;0.6140;
705.6000;0.6406;0.6064;
705.9000;0.6422;0.6191;
706.2000;0.6406;0.6166;
706.5000;0.6414;0.6140;
706.8000;0.6479;0.6293;
707.1000;0.6341;0.5987;
707.4000;0.6414;0.6140;
707.7000;0.6398;0.6140;
708.0000;0.6398;0.6166;
708.3000;0.6390;0.6115;
708.6000;0.6374;0.6166;
708.9000;0.6390;0.6166;
709.2000;0.6406;0.6115;
709.5000;0.6390;0.6064;
709.8000;0.6398;0.6089;
710.1000;0.6390;0.6064;
710.4000;0.6463;0.6293;
710.7000;0.6390;0.6064;
711.0000;0.6390;0.6013;
711.3000;0.6414;0.6064;
711.6000;0.6398;0.6013;
711.9000;0.6447;0.6089;
712.2000;0.6382;0.5987;
712.5000;0.6398;0.6013;
712.8000;0.6390;0.5936;
713.1000;0.6398;0.6038;
713.4000;0.6382;0.5987;
713.7000;0.6365;0.5987;
714.0000;0.6300;0.5733;
714.3000;0.6382;0.5962;
714.6000;0.6357;0.5885;
714.9000;0.6341;0.5834;
715.2000;0.6357;0.5733;
715.5000;0.6341;0.5682;
715.8000;0.6374;0.5809;
716.1000;0.6341;0.5707;
716.4000;0.6349;0.5758;
716.7000;0.6357;0.5758;
717.0000;0.6374;0.5809;
717.3000;0.6341;0.5707;
717.6000;0.6349;0.5809;
717.9000;0.6341;0.5834;
718.2000;0.6333;0.5911;
718.5000;0.6341;0.5911;
718.8000;0.6341;0.5911;
719.1000;0.6333;0.5936;
719.4000;0.6300;0.5809;
719.7000;0.6341;0.5936;
720.0000;0.6382;0.6140;
720.3000;0.6341;0.5962;
720.6000;0.6349;0.5962;
720.9000;0.6357;0.5911;
721.2000;0.6333;0.5911;
721.5000;0.6325;0.6038;
721.8000;0.6349;0.6115;
722.1000;0.6325;0.6115;
722.4000;0.6349;0.6217;
722.7000;0.6317;0.6089;
723.0000;0.6341;0.6217;
723.3000;0.6341;0.6242;
723.6000;0.6341;0.6217;
723.9000;0.6365;0.6344;
724.2000;0.6317;0.6268;
724.5000;0.6325;0.6191;
724.8000;0.6333;0.6140;
725.1000;0.6341;0.6140;
725.4000;0.6300;0.6089;
725.7000;0.6325;0.6191;
726.0000;0.6284;0.6089;
726.3000;0.6309;0.6140;
726.6000;0.6341;0.6140;
726.9000;0.6341;0.6115;
727.2000;0.6317;0.6089;
727.5000;0.6325;0.6089;
727.8000;0.6260;0.5936;
728.1000;0.6309;0.6013;
728.4000;0.6309;0.6013;
728.7000;0.6276;0.5911;
729.0000;0.6284;0.6013;
729.3000;0.6276;0.6140;
729.6000;0.6227;0.5987;
729.9000;0.6284;0.6115;
730.2000;0.6300;0.6038;
730.5000;0.6268;0.5962;
730.8000;0.6300;0.5936;
731.1000;0.6284;0.5936;
731.4000;0.6292;0.6013;
731.7000;0.6252;0.6038;
732.0000;0.6276;0.6115;
732.3000;0.6300;0.6038;
732.6000;0.6284;0.5987;
732.9000;0.6284;0.5987;
733.2000;0.6284;0.6064;
733.5000;0.6268;0.5987;
733.8000;0.6276;0.6013;
734.1000;0.6252;0.5962;
734.4000;0.6317;0.6166;
734.7000;0.6276;0.6038;
735.0000;0.6243;0.5962;
735.3000;0.6227;0.5911;
735.6000;0.6268;0.6038;
735.9000;0.6276;0.6013;
736.2000;0.6292;0.6064;
736.5000;0.6268;0.5987;
736.8000;0.6252;0.5834;
737.1000;0.6260;0.5834;
737.4000;0.6203;0.5656;
737.7000;0.6243;0.5783;
738.0000;0.6260;0.5860;
738.3000;0.6268;0.5911;
738.6000;0.6276;0.5987;
738.9000;0.6243;0.5936;
739.2000;0.6260;0.6013;
739.5000;0.6235;0.6064;
739.8000;0.6227;0.6115;
740.1000;0.6235;0.6140;
740.4000;0.6235;0.6089;
740.7000;0.6227;0.6089;
741.0000;0.6252;0.6166;
741.3000;0.6260;0.6089;
741.6000;0.6243;0.6013;
741.9000;0.6252;0.6064;
742.2000;0.6243;0.6191;
742.5000;0.6243;0.6217;
742.8000;0.6252;0.6140;
743.1000;0.6235;0.6064;
743.4000;0.6252;0.5987;
743.7000;0.6219;0.5911;
744.0000;0.6235;0.5911;
744.3000;0.6227;0.5987;
744.6000;0.6227;0.5987;
744.9000;0.6227;0.5962;
745.2000;0.6235;0.5936;
745.5000;0.6227;0.5987;
745.8000;0.6227;0.6064;
746.1000;0.6227;0.6064;
746.4000;0.6227;0.6089;
746.7000;0.6211;0.6089;
747.0000;0.6195;0.6064;
747.3000;0.6211;0.6064;
747.6000;0.6227;0.6064;
747.9000;0.6203;0.6064;
748.2000;0.6195;0.6013;
748.5000;0.6195;0.5987;
748.8000;0.6211;0.5987;
749.1000;0.6186;0.5936;
749.4000;0.6243;0.6013;
749.7000;0.6178;0.5834;
750.0000;0.6203;0.5860;
750.3000;0.6203;0.5809;
750.6000;0.6276;0.5962;
750.9000;0.6219;0.5783;
751.2000;0.6203;0.5860;
751.5000;0.6219;0.5987;
751.8000;0.6219;0.5987;
752.1000;0.6211;0.6038;
752.4000;0.6227;0.6038;
752.7000;0.6186;0.6013;
753.0000;0.6211;0.6089;
753.3000;0.6243;0.6166;
753.6000;0.6219;0.6115;
753.9000;0.6268;0.6242;
754.2000;0.6195;0.5987;
754.5000;0.6195;0.6013;
754.8000;0.6203;0.6064;
755.1000;0.6186;0.6217;
755.4000;0.6211;0.6191;
755.7000;0.6186;0.6242;
756.0000;0.6195;0.6344;
756.3000;0.6203;0.6319;
756.6000;0.6211;0.6319;
756.9000;0.6186;0.6268;
757.2000;0.6227;0.6217;
757.5000;0.6203;0.6191;
757.8000;0.6211;0.6242;
758.1000;0.6154;0.6089;
758.4000;0.6203;0.6293;
758.7000;0.6186;0.6268;
759.0000;0.6186;0.6217;
759.3000;0.6178;0.6242;
759.6000;0.6154;0.6191;
759.9000;0.6170;0.6191;
760.2000;0.6170;0.6191;
760.5000;0.6260;0.6242;
760.8000;0.6178;0.6013;
761.1000;0.6129;0.5936;
761.4000;0.6146;0.6064;
761.7000;0.6154;0.6115;
762.0000;0.6178;0.6089;
762.3000;0.6178;0.6140;
762.6000;0.6186;0.6064;
762.9000;0.6170;0.6115;
763.2000;0.6154;0.6115;
763.5000;0.6170;0.6242;
763.8000;0.6178;0.6344;
764.1000;0.6162;0.6395;
764.4000;0.6154;0.6420;
764.7000;0.6154;0.6369;
765.0000;0.6146;0.6319;
765.3000;0.6170;0.6293;
765.6000;0.6170;0.6191;
765.9000;0.6154;0.6191;
766.2000;0.6146;0.6217;
766.5000;0.6162;0.6191;
766.8000;0.6162;0.6166;
767.1000;0.6154;0.6166;
767.4000;0.6154;0.6115;
767.7000;0.6162;0.6064;
768.0000;0.6170;0.6166;
768.3000;0.6154;0.6115;
768.6000;0.6170;0.6166;
768.9000;0.6178;0.6217;
769.2000;0.6162;0.6217;
769.5000;0.6154;0.6115;
769.8000;0.6154;0.6140;
770.1000;0.6146;0.6038;
770.4000;0.6146;0.6115;
770.7000;0.6162;0.6115;
771.0000;0.6129;0.6038;
771.3000;0.6138;0.6013;
771.6000;0.6146;0.6140;
771.9000;0.6154;0.6089;
772.2000;0.6138;0.6089;
772.5000;0.6162;0.6140;
772.8000;0.6121;0.6064;
773.1000;0.6154;0.6089;
773.4000;0.6138;0.6038;
773.7000;0.6162;0.6089;
774.0000;0.6154;0.6064;
774.3000;0.6154;0.6038;
774.6000;0.6154;0.5962;
774.9000;0.6195;0.6191;
775.2000;0.6146;0.6038;
775.5000;0.6162;0.6191;
775.8000;0.6129;0.6140;
776.1000;0.6138;0.6140;
776.4000;0.6072;0.5911;
776.7000;0.6138;0.6166;
777.0000;0.6129;0.6191;
777.3000;0.6138;0.6217;
777.6000;0.6138;0.6140;
777.9000;0.6146;0.6115;
778.2000;0.6146;0.6115;
778.5000;0.6170;0.6064;
778.8000;0.6129;0.5962;
779.1000;0.6146;0.6013;
779.4000;0.6162;0.5911;
779.7000;0.6121;0.5834;
780.0000;0.6138;0.5834;
780.3000;0.6154;0.5809;
780.6000;0.6170;0.5834;
780.9000;0.6129;0.5860;
781.2000;0.6129;0.5809;
781.5000;0.6113;0.5885;
781.8000;0.6097;0.5885;
782.1000;0.6129;0.6013;
782.4000;0.6129;0.6064;
782.7000;0.6121;0.5962;
783.0000;0.6064;0.5733;
783.3000;0.6113;0.5987;
783.6000;0.6032;0.5783;
783.9000;0.6097;0.6089;
784.2000;0.6195;0.6369;
784.5000;0.6113;0.6115;
784.8000;0.6113;0.6166;
785.1000;0.6129;0.6217;
785.4000;0.6113;0.6217;
785.7000;0.6129;0.6268;
786.0000;0.6170;0.6319;
786.3000;0.6105;0.6242;
786.6000;0.6121;0.6369;
786.9000;0.6113;0.6395;
787.2000;0.6113;0.6344;
787.5000;0.6105;0.6242;
787.8000;0.6097;0.6191;
788.1000;0.6113;0.6191;
788.4000;0.6186;0.6344;
788.7000;0.6105;0.6089;
789.0000;0.6105;0.6089;
789.3000;0.6097;0.6115;
789.6000;0.6081;0.6064;
789.9000;0.6089;0.6191;
790.2000;0.6113;0.6217;
790.5000;0.6097;0.6140;
790.8000;0.6105;0.6140;
791.1000;0.6105;0.6166;
791.4000;0.6089;0.6064;
791.7000;0.6097;0.6089;
792.0000;0.6097;0.6089;
792.3000;0.6089;0.5987;
792.6000;0.6097;0.6038;
792.9000;0.6089;0.6089;
793.2000;0.6081;0.6013;
793.5000;0.6040;0.5962;
793.8000;0.6089;0.6064;
794.1000;0.6089;0.6115;
794.4000;0.6097;0.6140;
794.7000;0.6097;0.6140;
795.0000;0.6089;0.6089;
795.3000;0.6097;0.6166;
795.6000;0.6089;0.6191;
795.9000;0.6105;0.6268;
796.2000;0.6081;0.6242;
796.5000;0.6081;0.6166;
796.8000;0.6072;0.6140;
797.1000;0.6064;0.6166;
797.4000;0.6089;0.6166;
797.7000;0.6064;0.6140;
798.0000;0.6072;0.6217;
798.3000;0.6081;0.6217;
798.6000;0.6081;0.6140;
798.9000;0.6064;0.6089;
799.2000;0.6089;0.6089;
799.5000;0.6081;0.6140;
799.8000;0.6154;0.6268;
800.1000;0.6097;0.6064;
800.4000;0.6081;0.6140;
800.7000;0.6081;0.6166;
801.0000;0.6105;0.6140;
801.3000;0.6040;0.5911;
801.6000;0.6040;0.6013;
801.9000;0.6064;0.6191;
802.2000;0.6105;0.6319;
802.5000;0.6081;0.6242;
802.8000;0.6089;0.6191;
803.1000;0.6048;0.6089;
803.4000;0.6081;0.6115;
803.7000;0.6105;0.6166;
804.0000;0.6081;0.6064;
804.3000;0.6097;0.6089;
804.6000;0.6162;0.6319;
804.9000;0.6081;0.6217;
805.2000;0.6097;0.6242;
805.5000;0.6072;0.6166;
805.8000;0.6064;0.6115;
806.1000;0.6113;0.6268;
806.4000;0.6072;0.6217;
806.7000;0.6064;0.6140;
807.0000;0.6072;0.6242;
807.3000;0.6170;0.6497;
807.6000;0.6040;0.6293;
807.9000;0.6064;0.6319;
808.2000;0.6072;0.6242;
808.5000;0.6056;0.6242;
808.8000;0.6040;0.6293;
809.1000;0.6040;0.6268;
809.4000;0.6040;0.6293;
809.7000;0.6064;0.6369;
810.0000;0.6064;0.6344;
810.3000;0.6072;0.6344;
810.6000;0.6072;0.6344;
810.9000;0.6040;0.6268;
811.2000;0.6072;0.6369;
811.5000;0.6064;0.6319;
811.8000;0.6048;0.6217;
812.1000;0.6072;0.6268;
812.4000;0.6064;0.6268;
812.7000;0.6072;0.6293;
813.0000;0.6097;0.6395;
813.3000;0.6064;0.6319;
813.6000;0.6064;0.6319;
813.9000;0.6056;0.6344;
814.2000;0.6040;0.6319;
814.5000;0.6056;0.6344;
814.8000;0.6048;0.6344;
815.1000;0.6048;0.6369;
815.4000;0.6064;0.6293;
815.7000;0.6056;0.6166;
816.0000;0.6032;0.6089;
816.3000;0.6064;0.6166;
816.6000;0.6056;0.6217;
816.9000;0.6056;0.6140;
817.2000;0.6056;0.6064;
817.5000;0.6048;0.6064;
817.8000;0.6056;0.6064;
818.1000;0.6048;0.6013;
818.4000;0.6048;0.6064;
818.7000;0.6048;0.6089;
819.0000;0.6040;0.6064;
819.3000;0.6089;0.6140;
819.6000;0.6032;0.6038;
819.9000;0.6040;0.6140;
820.2000;0.6048;0.6268;
820.5000;0.5983;0.6191;
820.8000;0.6032;0.6293;
821.1000;0.6032;0.6191;
821.4000;0.6081;0.6166;
821.7000;0.6040;0.6064;
822.0000;0.6048;0.6013;
822.3000;0.6040;0.6038;
822.6000;0.5975;0.5783;
822.9000;0.6056;0.5962;
823.2000;0.6056;0.6013;
823.5000;0.6056;0.6038;
823.8000;0.6056;0.6089;
824.1000;0.6040;0.6089;
824.4000;0.6040;0.6013;
824.7000;0.6024;0.5987;
825.0000;0.6040;0.6038;
825.3000;0.6032;0.6089;
825.6000;0.6015;0.6013;
825.9000;0.6072;0.6115;
826.2000;0.6007;0.6115;
826.5000;0.6048;0.6217;
826.8000;0.6015;0.6089;
827.1000;0.6032;0.6115;
827.4000;0.6015;0.6089;
827.7000;0.6048;0.6166;
828.0000;0.6032;0.6140;
828.3000;0.6121;0.6344;
828.6000;0.6040;0.6115;
828.9000;0.6032;0.6115;
829.2000;0.6040;0.6089;
829.5000;0.6040;0.6166;
829.8000;0.6048;0.6217;
830.1000;0.6048;0.6217;
830.4000;0.6024;0.6191;
830.7000;0.6007;0.6064;
831.0000;0.6015;0.6089;
831.3000;0.6024;0.6115;
831.6000;0.6007;0.6038;
831.9000;0.6040;0.6140;
832.2000;0.6024;0.6140;
832.5000;0.6032;0.6115;
832.8000;0.6015;0.6089;
833.1000;0.6040;0.6064;
833.4000;0.6032;0.5987;
833.7000;0.6024;0.5962;
834.0000;0.6015;0.5936;
834.3000;0.6032;0.5936;
834.6000;0.6024;0.5962;
834.9000;0.6007;0.5911;
835.2000;0.6015;0.5962;
835.5000;0.6064;0.6089;
835.8000;0.6015;0.6013;
836.1000;0.6024;0.5911;
836.4000;0.6040;0.5911;
836.7000;0.6032;0.5860;
837.0000;0.6032;0.6013;
837.3000;0.6015;0.6013;
837.6000;0.6048;0.6038;
837.9000;0.6015;0.6013;
838.2000;0.6015;0.6013;
838.5000;0.6015;0.6013;
838.8000;0.6032;0.6140;
839.1000;0.6015;0.6038;
839.4000;0.6032;0.6038;
839.7000;0.6007;0.5962;
840.0000;0.6007;0.5962;
840.3000;0.6007;0.6038;
840.6000;0.6015;0.6038;
840.9000;0.6007;0.6013;
841.2000;0.6015;0.6013;
841.5000;0.6007;0.5962;
841.8000;0.5999;0.5962;
842.1000;0.6007;0.6038;
842.4000;0.5991;0.6064;
842.7000;0.6024;0.6115;
843.0000;0.6032;0.6115;
843.3000;0.6032;0.6166;
843.6000;0.5975;0.5936;
843.9000;0.5999;0.6064;
844.2000;0.6007;0.6140;
844.5000;0.6007;0.6115;
844.8000;0.5991;0.6115;
845.1000;0.5999;0.6217;
845.4000;0.5999;0.6268;
845.7000;0.6015;0.6242;
846.0000;0.6007;0.6242;
846.3000;0.6064;0.6446;
846.6000;0.5999;0.6344;
846.9000;0.6032;0.6344;
847.2000;0.6024;0.6395;
847.5000;0.5975;0.6268;
847.8000;0.6015;0.6395;
848.1000;0.6015;0.6420;
848.4000;0.6032;0.6369;
848.7000;0.6007;0.6319;
849.0000;0.6007;0.6369;
849.3000;0.5999;0.6319;
849.6000;0.6007;0.6293;
849.9000;0.6007;0.6344;
850.2000;0.6007;0.6319;
850.5000;0.6015;0.6395;
850.8000;0.5999;0.6369;
851.1000;0.5999;0.6293;
851.4000;0.5950;0.6217;
851.7000;0.5991;0.6293;
852.0000;0.5999;0.6293;
852.3000;0.5991;0.6293;
852.6000;0.5999;0.6319;
852.9000;0.5999;0.6293;
853.2000;0.5999;0.6395;
853.5000;0.6007;0.6471;
853.8000;0.5991;0.6420;
854.1000;0.6007;0.6497;
854.4000;0.6064;0.6599;
854.7000;0.5999;0.6446;
855.0000;0.6007;0.6395;
855.3000;0.6032;0.6446;
855.6000;0.5999;0.6420;
855.9000;0.6007;0.6446;
856.2000;0.5991;0.6319;
856.5000;0.5983;0.6217;
856.8000;0.6015;0.6319;
857.1000;0.5991;0.6217;
857.4000;0.6040;0.6242;
857.7000;0.5975;0.6166;
858.0000;0.5999;0.6319;
858.3000;0.5991;0.6395;
858.6000;0.5991;0.6369;
858.9000;0.5991;0.6344;
859.2000;0.5983;0.6319;
859.5000;0.5999;0.6344;
859.8000;0.5999;0.6369;
860.1000;0.5991;0.6395;
860.4000;0.5934;0.6217;
860.7000;0.5983;0.6319;
861.0000;0.5991;0.6242;
861.3000;0.5983;0.6242;
861.6000;0.5975;0.6191;
861.9000;0.5991;0.6166;
862.2000;0.5999;0.6242;
862.5000;0.6015;0.6217;
862.8000;0.5975;0.6089;
863.1000;0.5975;0.6038;
863.4000;0.5983;0.6064;
863.7000;0.5958;0.6013;
864.0000;0.5975;0.6038;
864.3000;0.5975;0.6064;
864.6000;0.5958;0.6166;
864.9000;0.5975;0.6268;
865.2000;0.5983;0.6217;
865.5000;0.5967;0.6217;
865.8000;0.5991;0.6420;
866.1000;0.5983;0.6420;
866.4000;0.5991;0.6369;
866.7000;0.5983;0.6217;
867.0000;0.5975;0.6293;
867.3000;0.5983;0.6191;
867.6000;0.5991;0.6268;
867.9000;0.5975;0.6191;
868.2000;0.5958;0.6217;
868.5000;0.5975;0.6217;
868.8000;0.5991;0.6191;
869.1000;0.5975;0.6140;
869.4000;0.5975;0.6166;
869.7000;0.5975;0.6115;
870.0000;0.5958;0.6115;
870.3000;0.5975;0.6115;
870.6000;0.5967;0.6038;
870.9000;0.5975;0.6089;
871.2000;0.5975;0.6089;
871.5000;0.5967;0.6191;
871.8000;0.5967;0.6242;
872.1000;0.5958;0.6217;
872.4000;0.5975;0.6217;
872.7000;0.5975;0.6191;
873.0000;0.5991;0.6089;
873.3000;0.5975;0.6064;
873.6000;0.6007;0.6115;
873.9000;0.5991;0.6064;
874.2000;0.5999;0.6115;
874.5000;0.5983;0.6217;
874.8000;0.5983;0.6191;
875.1000;0.5975;0.6166;
875.4000;0.5950;0.6166;
875.7000;0.5967;0.6166;
876.0000;0.5991;0.6191;
876.3000;0.5983;0.6217;
876.6000;0.5975;0.6191;
876.9000;0.5958;0.6217;
877.2000;0.5910;0.6115;
877.5000;0.6040;0.6522;
877.8000;0.5983;0.6344;
878.1000;0.5950;0.6217;
878.4000;0.5958;0.6242;
878.7000;0.5950;0.6242;
879.0000;0.5967;0.6268;
879.3000;0.5967;0.6166;
879.6000;0.5983;0.6242;
879.9000;0.5967;0.6191;
880.2000;0.5983;0.6217;
880.5000;0.5942;0.6140;
880.8000;0.5967;0.6166;
881.1000;0.5975;0.6217;
881.4000;0.5950;0.6038;
881.7000;0.5967;0.6064;
882.0000;0.5967;0.6140;
882.3000;0.5975;0.6089;
882.6000;0.5958;0.6013;
882.9000;0.5975;0.6089;
883.2000;0.5958;0.6115;
883.5000;0.5958;0.6115;
883.8000;0.5975;0.6242;
884.1000;0.5967;0.6268;
884.4000;0.5975;0.6344;
884.7000;0.5958;0.6369;
885.0000;0.5967;0.6344;
885.3000;0.5950;0.6344;
885.6000;0.5950;0.6217;
885.9000;0.5958;0.6217;
886.2000;0.5967;0.6140;
886.5000;0.5983;0.6089;
886.8000;0.5950;0.6089;
887.1000;0.5975;0.6140;
887.4000;0.5958;0.6038;
887.7000;0.5967;0.6013;
888.0000;0.5950;0.6038;
888.3000;0.5910;0.5860;
888.6000;0.5926;0.5962;
888.9000;0.5983;0.6166;
889.2000;0.5926;0.6013;
889.5000;0.5926;0.6013;
889.8000;0.5942;0.6064;
890.1000;0.5942;0.6064;
890.4000;0.5958;0.6064;
890.7000;0.5910;0.5987;
891.0000;0.5942;0.6115;
891.3000;0.5950;0.6217;
891.6000;0.5942;0.6191;
891.9000;0.5950;0.6140;
892.2000;0.5942;0.6166;
892.5000;0.5958;0.6268;
892.8000;0.5950;0.6191;
893.1000;0.5958;0.6191;
893.4000;0.6007;0.6344;
893.7000;0.5958;0.6242;
894.0000;0.5958;0.6217;
894.3000;0.5967;0.6344;
894.6000;0.5958;0.6395;
894.9000;0.5942;0.6293;
895.2000;0.5942;0.6217;
895.5000;0.5950;0.6140;
895.8000;0.5942;0.6089;
896.1000;0.5942;0.6064;
896.4000;0.5942;0.6013;
896.7000;0.5983;0.6166;
897.0000;0.5958;0.6166;
897.3000;0.5950;0.6089;
897.6000;0.5942;0.6140;
897.9000;0.5967;0.6242;
898.2000;0.6032;0.6446;
898.5000;0.5942;0.6268;
898.8000;0.5958;0.6268;
899.1000;0.5902;0.6166;
899.4000;0.5918;0.6191;
899.7000;0.5877;0.6140;
900.0000;0.5918;0.6217;
900.3000;0.5910;0.6166;
900.6000;0.5942;0.6166;
900.9000;0.5942;0.6268;
901.2000;0.5950;0.6293;
901.5000;0.5967;0.6344;
901.8000;0.5950;0.6242;
902.1000;0.5926;0.6319;
902.4000;0.5942;0.6319;
902.7000;0.5934;0.6293;
903.0000;0.5958;0.6344;
903.3000;0.5950;0.6395;
903.6000;0.5934;0.6395;
903.9000;0.5918;0.6395;
904.2000;0.5926;0.6446;
904.5000;0.5967;0.6573;
904.8000;0.5942;0.6522;
905.1000;0.5934;0.6548;
905.4000;0.5926;0.6548;
905.7000;0.5934;0.6548;
906.0000;0.5950;0.6573;
906.3000;0.5942;0.6420;
906.6000;0.5918;0.6344;
906.9000;0.5942;0.6395;
907.2000;0.5950;0.6522;
907.5000;0.5926;0.6497;
907.8000;0.5942;0.6446;
908.1000;0.5942;0.6446;
908.4000;0.5934;0.6446;
908.7000;0.5934;0.6420;
909.0000;0.5934;0.6395;
909.3000;0.5934;0.6420;
909.6000;0.5942;0.6497;
909.9000;0.5926;0.6548;
910.2000;0.5918;0.6471;
910.5000;0.5926;0.6497;
910.8000;0.5926;0.6497;
911.1000;0.5926;0.6446;
911.4000;0.5926;0.6446;
911.7000;0.5983;0.6650;
912.0000;0.5926;0.6548;
912.3000;0.5902;0.6471;
912.6000;0.5918;0.6522;
912.9000;0.5918;0.6497;
913.2000;0.5926;0.6446;
913.5000;0.5918;0.6497;
913.8000;0.5942;0.6471;
914.1000;0.5893;0.6420;
914.4000;0.5861;0.6344;
914.7000;0.5918;0.6420;
915.0000;0.5926;0.6395;
915.3000;0.5942;0.6446;
915.6000;0.5950;0.6369;
915.9000;0.5902;0.6217;
916.2000;0.5942;0.6319;
916.5000;0.5918;0.6293;
916.8000;0.5902;0.6242;
917.1000;0.5926;0.6369;
917.4000;0.5902;0.6319;
917.7000;0.5910;0.6395;
918.0000;0.5918;0.6395;
918.3000;0.5934;0.6471;
918.6000;0.5934;0.6446;
918.9000;0.5918;0.6369;
919.2000;0.5926;0.6369;
919.5000;0.5950;0.6471;
919.8000;0.5910;0.6293;
920.1000;0.5902;0.6268;
920.4000;0.5893;0.6242;
920.7000;0.5893;0.6268;
921.0000;0.5910;0.6293;
921.3000;0.5918;0.6344;
921.6000;0.5910;0.6242;
921.9000;0.5926;0.6191;
922.2000;0.5926;0.6293;
922.5000;0.5918;0.6217;
922.8000;0.5950;0.6344;
923.1000;0.5918;0.6268;
923.4000;0.5902;0.6344;
923.7000;0.5926;0.6395;
924.0000;0.5910;0.6319;
924.3000;0.5918;0.6420;
924.6000;0.5934;0.6522;
924.9000;0.5942;0.6573;
925.2000;0.5910;0.6497;
925.5000;0.5910;0.6471;
925.8000;0.5934;0.6573;
926.1000;0.5975;0.6624;
926.4000;0.5926;0.6573;
926.7000;0.5918;0.6548;
927.0000;0.5918;0.6471;
927.3000;0.5934;0.6548;
927.6000;0.5918;0.6599;
927.9000;0.5926;0.6573;
928.2000;0.5910;0.6548;
928.5000;0.5902;0.6497;
928.8000;0.5926;0.6522;
929.1000;0.5910;0.6497;
929.4000;0.5926;0.6497;
929.7000;0.5934;0.6573;
930.0000;0.5910;0.6599;
930.3000;0.5918;0.6675;
930.6000;0.5926;0.6624;
930.9000;0.5934;0.6650;
931.2000;0.5902;0.6573;
931.5000;0.5918;0.6573;
931.8000;0.5918;0.6573;
932.1000;0.5942;0.6522;
932.4000;0.5934;0.6573;
932.7000;0.5918;0.6573;
933.0000;0.5950;0.6599;
933.3000;0.5918;0.6471;
933.6000;0.5926;0.6522;
933.9000;0.5885;0.6369;
934.2000;0.5910;0.6420;
934.5000;0.5893;0.6395;
934.8000;0.5902;0.6446;
935.1000;0.5918;0.6497;
935.4000;0.5918;0.6573;
935.7000;0.5893;0.6471;
936.0000;0.5926;0.6446;
936.3000;0.5926;0.6395;
936.6000;0.5918;0.6420;
936.9000;0.5934;0.6471;
937.2000;0.5934;0.6446;
937.5000;0.5910;0.6420;
937.8000;0.5918;0.6446;
938.1000;0.5918;0.6446;
938.4000;0.5910;0.6319;
938.7000;0.5893;0.6319;
939.0000;0.5926;0.6446;
939.3000;0.5942;0.6471;
939.6000;0.5877;0.6217;
939.9000;0.5926;0.6217;
940.2000;0.5918;0.6191;
940.5000;0.5902;0.6191;
940.8000;0.5910;0.6115;
941.1000;0.5910;0.6140;
941.4000;0.5902;0.6191;
941.7000;0.5918;0.6319;
942.0000;0.5893;0.6344;
942.3000;0.5902;0.6319;
942.6000;0.5902;0.6268;
942.9000;0.5910;0.6471;
943.2000;0.5893;0.6548;
943.5000;0.5918;0.6573;
943.8000;0.5918;0.6522;
944.1000;0.5869;0.6369;
944.4000;0.5885;0.6420;
944.7000;0.5893;0.6420;
945.0000;0.5910;0.6420;
945.3000;0.5902;0.6395;
945.6000;0.5885;0.6446;
945.9000;0.5910;0.6471;
946.2000;0.5893;0.6420;
946.5000;0.5902;0.6471;
946.8000;0.5893;0.6446;
947.1000;0.5877;0.6319;
947.4000;0.5885;0.6369;
947.7000;0.5885;0.6395;
948.0000;0.5893;0.6344;
948.3000;0.5902;0.6369;
948.6000;0.5910;0.6446;
948.9000;0.5910;0.6420;
949.2000;0.5902;0.6446;
949.5000;0.5918;0.6446;
949.8000;0.5902;0.6369;
950.1000;0.5910;0.6395;
950.4000;0.5926;0.6497;
950.7000;0.5902;0.6471;
951.0000;0.5893;0.6497;
951.3000;0.5918;0.6497;
951.6000;0.5918;0.6420;
951.9000;0.5885;0.6395;
952.2000;0.5902;0.6446;
952.5000;0.5910;0.6522;
952.8000;0.5918;0.6471;
953.1000;0.5902;0.6446;
953.4000;0.5853;0.6395;
953.7000;0.5893;0.6369;
954.0000;0.5918;0.6446;
954.3000;0.5902;0.6395;
954.6000;0.5812;0.6140;
954.9000;0.5893;0.6369;
955.2000;0.5902;0.6420;
955.5000;0.5885;0.6293;
955.8000;0.5910;0.6369;
956.1000;0.5893;0.6319;
956.4000;0.5885;0.6268;
956.7000;0.5910;0.6242;
957.0000;0.5893;0.6166;
957.3000;0.5885;0.6268;
957.6000;0.5877;0.6217;
957.9000;0.5902;0.6242;
958.2000;0.5893;0.6293;
958.5000;0.5853;0.6268;
958.8000;0.5902;0.6369;
959.1000;0.5910;0.6319;
959.4000;0.5885;0.6293;
959.7000;0.5918;0.6319;
960.0000;0.5893;0.6369;
960.3000;0.5942;0.6471;
960.6000;0.5902;0.6344;
960.9000;0.5902;0.6319;
961.2000;0.5877;0.6319;
961.5000;0.5885;0.6369;
961.8000;0.5885;0.6395;
962.1000;0.5918;0.6369;
962.4000;0.5934;0.6446;
962.7000;0.5853;0.6344;
963.0000;0.5893;0.6369;
963.3000;0.5918;0.6395;
963.6000;0.5893;0.6319;
963.9000;0.5877;0.6344;
964.2000;0.5918;0.6446;
964.5000;0.5877;0.6395;
964.8000;0.5877;0.6446;
965.1000;0.5828;0.6319;
965.4000;0.5893;0.6446;
965.7000;0.5877;0.6497;
966.0000;0.5877;0.6420;
966.3000;0.5877;0.6446;
966.6000;0.5885;0.6522;
966.9000;0.5885;0.6548;
967.2000;0.5853;0.6369;
967.5000;0.5877;0.6471;
967.8000;0.5885;0.6420;
968.1000;0.5902;0.6522;
968.4000;0.5885;0.6395;
968.7000;0.5869;0.6420;
969.0000;0.5885;0.6471;
969.3000;0.5893;0.6471;
969.6000;0.5877;0.6420;
969.9000;0.5885;0.6471;
970.2000;0.5877;0.6420;
970.5000;0.5893;0.6573;
970.8000;0.5893;0.6522;
971.1000;0.5893;0.6599;
971.4000;0.5869;0.6471;
971.7000;0.5910;0.6548;
972.0000;0.5885;0.6471;
972.3000;0.5893;0.6420;
972.6000;0.5885;0.6420;
972.9000;0.5893;0.6395;
973.2000;0.5902;0.6395;
973.5000;0.5885;0.6395;
973.8000;0.5877;0.6471;
974.1000;0.5885;0.6522;
974.4000;0.5902;0.6573;
974.7000;0.5877;0.6497;
975.0000;0.5893;0.6522;
975.3000;0.5885;0.6599;
975.6000;0.5893;0.6624;
975.9000;0.5893;0.6599;
976.2000;0.5885;0.6573;
976.5000;0.5910;0.6573;
976.8000;0.5877;0.6497;
977.1000;0.5885;0.6446;
977.4000;0.5910;0.6395;
977.7000;0.5893;0.6319;
978.0000;0.5893;0.6319;
978.3000;0.5885;0.6344;
978.6000;0.5877;0.6369;
978.9000;0.5861;0.6344;
979.2000;0.5877;0.6344;
979.5000;0.5869;0.6344;
979.8000;0.5885;0.6344;
980.1000;0.5853;0.6319;
980.4000;0.5877;0.6319;
980.7000;0.5869;0.6369;
981.0000;0.5869;0.6420;
981.3000;0.5893;0.6446;
981.6000;0.5910;0.6522;
981.9000;0.5877;0.6471;
982.2000;0.5893;0.6497;
982.5000;0.5877;0.6446;
982.8000;0.5877;0.6420;
983.1000;0.5877;0.6522;
983.4000;0.5902;0.6650;
983.7000;0.5885;0.6599;
984.0000;0.5861;0.6599;
984.3000;0.5869;0.6599;
984.6000;0.5885;0.6599;
984.9000;0.5877;0.6599;
985.2000;0.5893;0.6650;
985.5000;0.5869;0.6522;
985.8000;0.5869;0.6548;
986.1000;0.5885;0.6522;
986.4000;0.5902;0.6624;
986.7000;0.5885;0.6548;
987.0000;0.5869;0.6522;
987.3000;0.5893;0.6522;
987.6000;0.5877;0.6497;
987.9000;0.5861;0.6446;
988.2000;0.5877;0.6497;
988.5000;0.5893;0.6420;
988.8000;0.5861;0.6344;
989.1000;0.5926;0.6471;
989.4000;0.5885;0.6268;
989.7000;0.5885;0.6191;
990.0000;0.5828;0.6013;
990.3000;0.5861;0.6115;
990.6000;0.5869;0.6115;
990.9000;0.5885;0.6242;
991.2000;0.5877;0.6344;
991.5000;0.5910;0.6446;
991.8000;0.5869;0.6319;
992.1000;0.5869;0.6319;
992.4000;0.5877;0.6293;
992.7000;0.5869;0.6191;
993.0000;0.5877;0.6140;
993.3000;0.5885;0.6217;
993.6000;0.5853;0.6140;
993.9000;0.5853;0.6242;
994.2000;0.5853;0.6242;
994.5000;0.5845;0.6191;
994.8000;0.5869;0.6191;
995.1000;0.5861;0.6217;
995.4000;0.5861;0.6217;
995.7000;0.5861;0.6242;
996.0000;0.5885;0.6369;
996.3000;0.5877;0.6319;
996.6000;0.5893;0.6420;
996.9000;0.5861;0.6471;
997.2000;0.5893;0.6522;
997.5000;0.5910;0.6548;
997.8000;0.5869;0.6446;
998.1000;0.5861;0.6395;
998.4000;0.5869;0.6344;
998.7000;0.5885;0.6395;
999.0000;0.5869;0.6369;
999.3000;0.5877;0.6395;
999.6000;0.5861;0.6395;
999.9000;0.5885;0.6446;
1000.2000;0.5877;0.6471;
1000.5000;0.5845;0.6446;
1000.8000;0.5853;0.6420;
1001.1000;0.5877;0.6369;
1001.4000;0.5877;0.6242;
1001.7000;0.5853;0.6191;
1002.0000;0.5869;0.6344;
1002.3000;0.5877;0.6395;
1002.6000;0.5885;0.6420;
1002.9000;0.5820;0.6268;
1003.2000;0.5869;0.6420;
1003.5000;0.5877;0.6446;
1003.8000;0.5869;0.6420;
1004.1000;0.5869;0.6420;
1004.4000;0.5845;0.6369;
1004.7000;0.5869;0.6471;
1005.0000;0.5885;0.6522;
1005.3000;0.5869;0.6573;
1005.6000;0.5869;0.6522;
1005.9000;0.5853;0.6395;
1006.2000;0.5861;0.6369;
1006.5000;0.5845;0.6395;
1006.8000;0.5853;0.6497;
1007.1000;0.5828;0.6497;
1007.4000;0.5869;0.6624;
1007.7000;0.5861;0.6726;
1008.0000;0.5877;0.6675;
1008.3000;0.5853;0.6573;
1008.6000;0.5861;0.6548;
1008.9000;0.5861;0.6573;
1009.2000;0.5853;0.6522;
1009.5000;0.5869;0.6522;
1009.8000;0.5861;0.6471;
1010.1000;0.5853;0.6420;
1010.4000;0.5918;0.6650;
1010.7000;0.5861;0.6420;
1011.0000;0.5836;0.6344;
1011.3000;0.5869;0.6420;
1011.6000;0.5885;0.6446;
1011.9000;0.5869;0.6369;
1012.2000;0.5869;0.6369;
1012.5000;0.5877;0.6293;
1012.8000;0.5861;0.6319;
1013.1000;0.5942;0.6573;
1013.4000;0.5869;0.6319;
1013.7000;0.5877;0.6420;
1014.0000;0.5820;0.6319;
1014.3000;0.5861;0.6395;
1014.6000;0.5893;0.6446;
1014.9000;0.5861;0.6395;
1015.2000;0.5869;0.6446;
1015.5000;0.5869;0.6446;
1015.8000;0.5861;0.6395;
1016.1000;0.5853;0.6369;
1016.4000;0.5845;0.6420;
1016.7000;0.5845;0.6369;
1017.0000;0.5853;0.6471;
1017.3000;0.5853;0.6522;
1017.6000;0.5853;0.6548;
1017.9000;0.5861;0.6497;
1018.2000;0.5869;0.6471;
1018.5000;0.5869;0.6522;
1018.8000;0.5853;0.6497;
1019.1000;0.5861;0.6471;
1019.4000;0.5836;0.6369;
1019.7000;0.5845;0.6369;
1020.0000;0.5869;0.6446;
1020.3000;0.5861;0.6497;
1020.6000;0.5861;0.6522;
1020.9000;0.5836;0.6446;
1021.2000;0.5853;0.6497;
1021.5000;0.5853;0.6471;
1021.8000;0.5845;0.6497;
1022.1000;0.5828;0.6497;
1022.4000;0.5853;0.6497;
1022.7000;0.5845;0.6497;
1023.0000;0.5869;0.6624;
1023.3000;0.5853;0.6548;
1023.6000;0.5828;0.6369;
1023.9000;0.5853;0.6395;
1024.2000;0.5877;0.6497;
1024.5000;0.5853;0.6446;
1024.8000;0.5861;0.6395;
1025.1000;0.5820;0.6242;
1025.4000;0.5861;0.6369;
1025.7000;0.5861;0.6369;
1026.0000;0.5836;0.6319;
1026.3000;0.5853;0.6497;
1026.6000;0.5853;0.6522;
1026.9000;0.5861;0.6548;
1027.2000;0.5836;0.6420;
1027.5000;0.5836;0.6395;
1027.8000;0.5861;0.6446;
1028.1000;0.5853;0.6369;
1028.4000;0.5861;0.6344;
1028.7000;0.5845;0.6344;
1029.0000;0.5836;0.6471;
1029.3000;0.5853;0.6471;
1029.6000;0.5845;0.6446;
1029.9000;0.5845;0.6420;
1030.2000;0.5845;0.6446;
1030.5000;0.5853;0.6573;
1030.8000;0.5845;0.6573;
1031.1000;0.5845;0.6497;
1031.4000;0.5853;0.6573;
1031.7000;0.5836;0.6573;
1032.0000;0.5853;0.6675;
1032.3000;0.5869;0.6803;
1032.6000;0.5853;0.6726;
1032.9000;0.5828;0.6624;
1033.2000;0.5861;0.6675;
1033.5000;0.5861;0.6599;
1033.8000;0.5853;0.6471;
1034.1000;0.5812;0.6369;
1034.4000;0.5845;0.6497;
1034.7000;0.5845;0.6573;
1035.0000;0.5853;0.6497;
1035.3000;0.5861;0.6522;
1035.6000;0.5861;0.6420;
1035.9000;0.5861;0.6293;
1036.2000;0.5836;0.6293;
1036.5000;0.5877;0.6522;
1036.8000;0.5869;0.6471;
1037.1000;0.5877;0.6497;
1037.4000;0.5861;0.6497;
1037.7000;0.5836;0.6446;
1038.0000;0.5877;0.6471;
1038.3000;0.5853;0.6319;
1038.6000;0.5861;0.6319;
1038.9000;0.5861;0.6369;
1039.2000;0.5853;0.6522;
1039.5000;0.5828;0.6522;
1039.8000;0.5853;0.6701;
1040.1000;0.5861;0.6752;
1040.4000;0.5853;0.6701;
1040.7000;0.5845;0.6726;
1041.0000;0.5828;0.6624;
1041.3000;0.5828;0.6624;
1041.6000;0.5820;0.6548;
1041.9000;0.5845;0.6573;
1042.2000;0.5861;0.6599;
1042.5000;0.5845;0.6548;
1042.8000;0.5828;0.6624;
1043.1000;0.5836;0.6701;
1043.4000;0.5853;0.6650;
1043.7000;0.5828;0.6624;
1044.0000;0.5836;0.6599;
1044.3000;0.5845;0.6650;
1044.6000;0.5877;0.6752;
1044.9000;0.5853;0.6701;
1045.2000;0.5836;0.6675;
1045.5000;0.5845;0.6599;
1045.8000;0.5845;0.6548;
1046.1000;0.5877;0.6573;
1046.4000;0.5812;0.6369;
1046.7000;0.5893;0.6573;
1047.0000;0.5845;0.6522;
1047.3000;0.5853;0.6548;
1047.6000;0.5845;0.6573;
1047.9000;0.5853;0.6522;
1048.2000;0.5845;0.6548;
1048.5000;0.5836;0.6497;
1048.8000;0.5845;0.6446;
1049.1000;0.5836;0.6395;
1049.4000;0.5845;0.6319;
1049.7000;0.5853;0.6217;
1050.0000;0.5853;0.6217;
1050.3000;0.5836;0.6191;
1050.6000;0.5828;0.6191;
1050.9000;0.5845;0.6140;
1051.2000;0.5836;0.6191;
1051.5000;0.5804;0.6140;
1051.8000;0.5820;0.6089;
1052.1000;0.5845;0.6191;
1052.4000;0.5853;0.6369;
1052.7000;0.5820;0.6319;
1053.0000;0.5828;0.6395;
1053.3000;0.5853;0.6446;
1053.6000;0.5804;0.6344;
1053.9000;0.5845;0.6395;
1054.2000;0.5828;0.6293;
1054.5000;0.5828;0.6293;
1054.8000;0.5877;0.6446;
1055.1000;0.5845;0.6471;
1055.4000;0.5836;0.6293;
1055.7000;0.5804;0.6217;
1056.0000;0.5828;0.6344;
1056.3000;0.5885;0.6497;
1056.6000;0.5812;0.6319;
1056.9000;0.5763;0.6140;
1057.2000;0.5836;0.6293;
1057.5000;0.5836;0.6293;
1057.8000;0.5836;0.6268;
1058.1000;0.5836;0.6293;
1058.4000;0.5845;0.6395;
1058.7000;0.5853;0.6522;
1059.0000;0.5836;0.6446;
1059.3000;0.5828;0.6395;
1059.6000;0.5853;0.6548;
1059.9000;0.5845;0.6624;
1060.2000;0.5804;0.6522;
1060.5000;0.5836;0.6573;
1060.8000;0.5845;0.6599;
1061.1000;0.5820;0.6573;
1061.4000;0.5853;0.6599;
1061.7000;0.5836;0.6573;
1062.0000;0.5845;0.6599;
1062.3000;0.5853;0.6650;
1062.6000;0.5861;0.6624;
1062.9000;0.5836;0.6573;
1063.2000;0.5845;0.6599;
1063.5000;0.5861;0.6650;
1063.8000;0.5845;0.6650;
1064.1000;0.5861;0.6701;
1064.4000;0.5788;0.6497;
1064.7000;0.5828;0.6599;
1065.0000;0.5845;0.6548;
1065.3000;0.5853;0.6497;
1065.6000;0.5828;0.6573;
1065.9000;0.5836;0.6624;
1066.2000;0.5836;0.6599;
1066.5000;0.5853;0.6548;
1066.8000;0.5845;0.6548;
1067.1000;0.5828;0.6497;
1067.4000;0.5836;0.6624;
1067.7000;0.5869;0.6675;
1068.0000;0.5820;0.6599;
1068.3000;0.5861;0.6726;
1068.6000;0.5796;0.6599;
1068.9000;0.5845;0.6701;
1069.2000;0.5845;0.6599;
1069.5000;0.5836;0.6420;
1069.8000;0.5853;0.6420;
1070.1000;0.5845;0.6471;
1070.4000;0.5820;0.6497;
1070.7000;0.5845;0.6548;
1071.0000;0.5845;0.6548;
1071.3000;0.5804;0.6446;
1071.6000;0.5804;0.6522;
1071.9000;0.5836;0.6624;
1072.2000;0.5828;0.6675;
1072.5000;0.5845;0.6701;
1072.8000;0.5804;0.6573;
1073.1000;0.5779;0.6497;
1073.4000;0.5836;0.6701;
1073.7000;0.5836;0.6675;
1074.0000;0.5853;0.6701;
1074.3000;0.5820;0.6701;
1074.6000;0.5828;0.6650;
1074.9000;0.5836;0.6701;
1075.2000;0.5910;0.6879;
1075.5000;0.5836;0.6726;
1075.8000;0.5853;0.6624;
1076.1000;0.5812;0.6369;
1076.4000;0.5861;0.6420;
1076.7000;0.5845;0.6446;
1077.0000;0.5836;0.6497;
1077.3000;0.5836;0.6522;
1077.6000;0.5828;0.6573;
1077.9000;0.5845;0.6599;
1078.2000;0.5853;0.6497;
1078.5000;0.5845;0.6497;
1078.8000;0.5845;0.6599;
1079.1000;0.5853;0.6726;
1079.4000;0.5893;0.6828;
1079.7000;0.5828;0.6675;
1080.0000;0.5853;0.6777;
1080.3000;0.5836;0.6726;
1080.6000;0.5836;0.6726;
1080.9000;0.5836;0.6726;
1081.2000;0.5763;0.6573;
1081.5000;0.5820;0.6726;
1081.8000;0.5853;0.6675;
1082.1000;0.5836;0.6650;
1082.4000;0.5828;0.6573;
1082.7000;0.5853;0.6624;
1083.0000;0.5836;0.6599;
1083.3000;0.5820;0.6624;
1083.6000;0.5836;0.6675;
1083.9000;0.5853;0.6803;
1084.2000;0.5836;0.6803;
1084.5000;0.5877;0.6879;
1084.8000;0.5845;0.6777;
1085.1000;0.5828;0.6726;
1085.4000;0.5845;0.6752;
1085.7000;0.5845;0.6752;
1086.0000;0.5828;0.6828;
1086.3000;0.5788;0.6701;
1086.6000;0.5820;0.6752;
1086.9000;0.5828;0.6624;
1087.2000;0.5845;0.6573;
1087.5000;0.5836;0.6522;
1087.8000;0.5836;0.6446;
1088.1000;0.5828;0.6548;
1088.4000;0.5845;0.6573;
1088.7000;0.5845;0.6599;
1089.0000;0.5845;0.6675;
1089.3000;0.5779;0.6599;
1089.6000;0.5836;0.6854;
1089.9000;0.5836;0.6777;
1090.2000;0.5845;0.6752;
1090.5000;0.5804;0.6650;
1090.8000;0.5845;0.6675;
1091.1000;0.5812;0.6548;
1091.4000;0.5820;0.6548;
1091.7000;0.5828;0.6548;
1092.0000;0.5836;0.6522;
1092.3000;0.5836;0.6446;
1092.6000;0.5820;0.6420;
1092.9000;0.5845;0.6522;
1093.2000;0.5828;0.6497;
1093.5000;0.5828;0.6548;
1093.8000;0.5812;0.6548;
1094.1000;0.5812;0.6573;
1094.4000;0.5812;0.6573;
1094.7000;0.5820;0.6573;
1095.0000;0.5845;0.6701;
1095.3000;0.5820;0.6701;
1095.6000;0.5836;0.6726;
1095.9000;0.5828;0.6701;
1096.2000;0.5812;0.6650;
1096.5000;0.5820;0.6573;
1096.8000;0.5812;0.6599;
1097.1000;0.5820;0.6497;
1097.4000;0.5820;0.6522;
1097.7000;0.5820;0.6446;
1098.0000;0.5836;0.6471;
1098.3000;0.5779;0.6446;
1098.6000;0.5820;0.6599;
1098.9000;0.5820;0.6701;
1099.2000;0.5812;0.6726;
1099.5000;0.5845;0.6752;
1099.8000;0.5836;0.6752;
1100.1000;0.5804;0.6624;
1100.4000;0.5828;0.6650;
1100.7000;0.5853;0.6650;
1101.0000;0.5845;0.6522;
1101.3000;0.5804;0.6471;
1101.6000;0.5828;0.6446;
1101.9000;0.5828;0.6395;
1102.2000;0.5893;0.6624;
1102.5000;0.5820;0.6446;
1102.8000;0.5820;0.6471;
1103.1000;0.5828;0.6446;
1103.4000;0.5845;0.6497;
1103.7000;0.5836;0.6497;
1104.0000;0.5828;0.6548;
1104.3000;0.5828;0.6548;
1104.6000;0.5828;0.6599;
1104.9000;0.5812;0.6599;
1105.2000;0.5820;0.6650;
1105.5000;0.5828;0.6675;
1105.8000;0.5812;0.6650;
1106.1000;0.5796;0.6624;
1106.4000;0.5820;0.6675;
1106.7000;0.5812;0.6522;
1107.0000;0.5820;0.6548;
1107.3000;0.5836;0.6522;
1107.6000;0.5828;0.6471;
1107.9000;0.5812;0.6420;
1108.2000;0.5828;0.6471;
1108.5000;0.5812;0.6573;
1108.8000;0.5812;0.6573;
1109.1000;0.5820;0.6573;
1109.4000;0.5820;0.6624;
1109.7000;0.5845;0.6752;
1110.0000;0.5845;0.6675;
1110.3000;0.5820;0.6675;
1110.6000;0.5828;0.6701;
1110.9000;0.5828;0.6777;
1111.2000;0.5812;0.6726;
1111.5000;0.5812;0.6701;
1111.8000;0.5812;0.6624;
1112.1000;0.5845;0.6752;
1112.4000;0.5796;0.6752;
1112.7000;0.5788;0.6701;
1113.0000;0.5812;0.6701;
1113.3000;0.5836;0.6701;
1113.6000;0.5828;0.6624;
1113.9000;0.5747;0.6395;
1114.2000;0.5812;0.6599;
1114.5000;0.5820;0.6726;
1114.8000;0.5836;0.6726;
1115.1000;0.5812;0.6650;
1115.4000;0.5820;0.6726;
1115.7000;0.5812;0.6726;
1116.0000;0.5836;0.6828;
1116.3000;0.5828;0.6777;
1116.6000;0.5820;0.6675;
1116.9000;0.5812;0.6624;
1117.2000;0.5820;0.6624;
1117.5000;0.5828;0.6599;
1117.8000;0.5820;0.6548;
1118.1000;0.5804;0.6471;
1118.4000;0.5820;0.6497;
1118.7000;0.5771;0.6369;
1119.0000;0.5820;0.6522;
1119.3000;0.5853;0.6650;
1119.6000;0.5812;0.6701;
1119.9000;0.5812;0.6726;
1120.2000;0.5771;0.6573;
1120.5000;0.5804;0.6624;
1120.8000;0.5812;0.6624;
1121.1000;0.5804;0.6624;
1121.4000;0.5804;0.6573;
1121.7000;0.5869;0.6803;
1122.0000;0.5804;0.6599;
1122.3000;0.5820;0.6624;
1122.6000;0.5845;0.6650;
1122.9000;0.5828;0.6675;
1123.2000;0.5828;0.6726;
1123.5000;0.5828;0.6701;
1123.8000;0.5836;0.6624;
1124.1000;0.5828;0.6522;
1124.4000;0.5836;0.6548;
1124.7000;0.5861;0.6599;
1125.0000;0.5836;0.6573;
1125.3000;0.5804;0.6497;
1125.6000;0.5836;0.6573;
1125.9000;0.5836;0.6573;
1126.2000;0.5804;0.6446;
1126.5000;0.5820;0.6548;
1126.8000;0.5812;0.6522;
1127.1000;0.5804;0.6548;
1127.4000;0.5910;0.6955;
1127.7000;0.5828;0.6803;
1128.0000;0.5820;0.6828;
1128.3000;0.5796;0.6675;
1128.6000;0.5836;0.6803;
1128.9000;0.5812;0.6752;
1129.2000;0.5804;0.6624;
1129.5000;0.5812;0.6599;
1129.8000;0.5812;0.6650;
1130.1000;0.5747;0.6497;
1130.4000;0.5820;0.6752;
1130.7000;0.5812;0.6752;
1131.0000;0.5779;0.6650;
1131.3000;0.5845;0.6777;
1131.6000;0.5820;0.6624;
1131.9000;0.5779;0.6548;
1132.2000;0.5836;0.6803;
1132.5000;0.5812;0.6803;
1132.8000;0.5836;0.6854;
1133.1000;0.5812;0.6752;
1133.4000;0.5853;0.6981;
1133.7000;0.5804;0.6854;
1134.0000;0.5828;0.7006;
1134.3000;0.5804;0.6955;
1134.6000;0.5820;0.6879;
1134.9000;0.5836;0.6854;
1135.2000;0.5845;0.6828;
1135.5000;0.5804;0.6624;
1135.8000;0.5820;0.6701;
1136.1000;0.5828;0.6777;
1136.4000;0.5836;0.6752;
1136.7000;0.5820;0.6650;
1137.0000;0.5820;0.6701;
1137.3000;0.5836;0.6675;
1137.6000;0.5820;0.6624;
1137.9000;0.5828;0.6675;
1138.2000;0.5820;0.6650;
1138.5000;0.5812;0.6650;
1138.8000;0.5820;0.6675;
1139.1000;0.5836;0.6777;
1139.4000;0.5812;0.6624;
1139.7000;0.5812;0.6573;
1140.0000;0.5820;0.6522;
1140.3000;0.5812;0.6573;
1140.6000;0.5812;0.6650;
1140.9000;0.5828;0.6777;
1141.2000;0.5885;0.7032;
1141.5000;0.5820;0.6803;
1141.8000;0.5812;0.6701;
1142.1000;0.5812;0.6573;
1142.4000;0.5804;0.6573;
1142.7000;0.5812;0.6624;
1143.0000;0.5812;0.6599;
1143.3000;0.5804;0.6624;
1143.6000;0.5804;0.6701;
1143.9000;0.5812;0.6777;
1144.2000;0.5820;0.6777;
1144.5000;0.5812;0.6701;
1144.8000;0.5812;0.6675;
1145.1000;0.5804;0.6548;
1145.4000;0.5788;0.6395;
1145.7000;0.5812;0.6471;
1146.0000;0.5836;0.6573;
1146.3000;0.5779;0.6471;
1146.6000;0.5893;0.6726;
1146.9000;0.5820;0.6548;
1147.2000;0.5812;0.6497;
1147.5000;0.5853;0.6548;
1147.8000;0.5812;0.6522;
1148.1000;0.5828;0.6599;
1148.4000;0.5828;0.6650;
1148.7000;0.5804;0.6701;
1149.0000;0.5812;0.6624;
1149.3000;0.5836;0.6675;
1149.6000;0.5812;0.6548;
1149.9000;0.5820;0.6573;
1150.2000;0.5796;0.6548;
1150.5000;0.5828;0.6650;
1150.8000;0.5812;0.6650;
1151.1000;0.5836;0.6624;
1151.4000;0.5812;0.6650;
1151.7000;0.5820;0.6624;
1152.0000;0.5845;0.6726;
1152.3000;0.5804;0.6599;
1152.6000;0.5828;0.6624;
1152.9000;0.5804;0.6624;
1153.2000;0.5845;0.6752;
1153.5000;0.5788;0.6548;
1153.8000;0.5796;0.6522;
1154.1000;0.5812;0.6497;
1154.4000;0.5739;0.6395;
1154.7000;0.5796;0.6548;
1155.0000;0.5804;0.6522;
1155.3000;0.5796;0.6522;
1155.6000;0.5812;0.6624;
1155.9000;0.5836;0.6599;
1156.2000;0.5796;0.6548;
1156.5000;0.5804;0.6599;
1156.8000;0.5812;0.6497;
1157.1000;0.5804;0.6522;
1157.4000;0.5812;0.6446;
1157.7000;0.5812;0.6497;
1158.0000;0.5796;0.6624;
1158.3000;0.5820;0.6701;
1158.6000;0.5812;0.6675;
1158.9000;0.5796;0.6624;
1159.2000;0.5796;0.6624;
1159.5000;0.5804;0.6624;
1159.8000;0.5812;0.6726;
1160.1000;0.5820;0.6701;
1160.4000;0.5779;0.6548;
1160.7000;0.5812;0.6548;
1161.0000;0.5804;0.6471;
1161.3000;0.5804;0.6548;
1161.6000;0.5869;0.6726;
1161.9000;0.5820;0.6650;
1162.2000;0.5812;0.6675;
1162.5000;0.5853;0.6675;
1162.8000;0.5796;0.6446;
1163.1000;0.5812;0.6497;
1163.4000;0.5796;0.6548;
1163.7000;0.5779;0.6701;
1164.0000;0.5804;0.6777;
1164.3000;0.5804;0.6752;
1164.6000;0.5722;0.6548;
1164.9000;0.5771;0.6624;
1165.2000;0.5804;0.6777;
1165.5000;0.5828;0.6955;
1165.8000;0.5820;0.6930;
1166.1000;0.5828;0.6879;
1166.4000;0.5828;0.6879;
1166.7000;0.5869;0.6930;
1167.0000;0.5820;0.6777;
1167.3000;0.5804;0.6777;
1167.6000;0.5804;0.6701;
1167.9000;0.5804;0.6573;
1168.2000;0.5747;0.6369;
1168.5000;0.5820;0.6548;
1168.8000;0.5804;0.6573;
1169.1000;0.5812;0.6599;
1169.4000;0.5796;0.6650;
1169.7000;0.5804;0.6624;
1170.0000;0.5804;0.6650;
1170.3000;0.5788;0.6599;
1170.6000;0.5804;0.6522;
1170.9000;0.5804;0.6522;
1171.2000;0.5796;0.6548;
1171.5000;0.5796;0.6675;
1171.8000;0.5804;0.6675;
1172.1000;0.5812;0.6650;
1172.4000;0.5804;0.6573;
1172.7000;0.5804;0.6599;
1173.0000;0.5796;0.6599;
1173.3000;0.5804;0.6650;
1173.6000;0.5828;0.6803;
1173.9000;0.5796;0.6777;
1174.2000;0.5796;0.6650;
1174.5000;0.5828;0.6675;
1174.8000;0.5828;0.6726;
1175.1000;0.5804;0.6701;
1175.4000;0.5804;0.6624;
1175.7000;0.5804;0.6548;
1176.0000;0.5820;0.6701;
1176.3000;0.5812;0.6675;
1176.6000;0.5828;0.6599;
1176.9000;0.5812;0.6701;
1177.2000;0.5812;0.6752;
1177.5000;0.5812;0.6701;
1177.8000;0.5804;0.6675;
1178.1000;0.5796;0.6599;
1178.4000;0.5796;0.6650;
1178.7000;0.5796;0.6650;
1179.0000;0.5779;0.6624;
1179.3000;0.5804;0.6675;
1179.6000;0.5796;0.6650;
1179.9000;0.5796;0.6624;
1180.2000;0.5788;0.6548;
1180.5000;0.5804;0.6573;
1180.8000;0.5796;0.6624;
1181.1000;0.5812;0.6752;
1181.4000;0.5796;0.6752;
1181.7000;0.5804;0.6726;
1182.0000;0.5804;0.6701;
1182.3000;0.5804;0.6675;
1182.6000;0.5788;0.6777;
1182.9000;0.5796;0.6752;
1183.2000;0.5812;0.6803;
1183.5000;0.5812;0.6752;
1183.8000;0.5836;0.6828;
1184.1000;0.5796;0.6701;
1184.4000;0.5804;0.6701;
1184.7000;0.5788;0.6726;
1185.0000;0.5812;0.6726;
1185.3000;0.5796;0.6726;
1185.6000;0.5796;0.6879;
1185.9000;0.5812;0.6879;
1186.2000;0.5804;0.6803;
1186.5000;0.5771;0.6650;
1186.8000;0.5812;0.6675;
1187.1000;0.5812;0.6624;
1187.4000;0.5796;0.6624;
1187.7000;0.5779;0.6624;
1188.0000;0.5812;0.6777;
1188.3000;0.5788;0.6726;
1188.6000;0.5796;0.6777;
1188.9000;0.5788;0.6803;
1189.2000;0.5763;0.6701;
1189.5000;0.5788;0.6650;
1189.8000;0.5804;0.6701;
1190.1000;0.5804;0.6726;
1190.4000;0.5812;0.6752;
1190.7000;0.5779;0.6650;
1191.0000;0.5804;0.6752;
1191.3000;0.5812;0.6803;
1191.6000;0.5820;0.6777;
1191.9000;0.5796;0.6777;
1192.2000;0.5804;0.6726;
1192.5000;0.5804;0.6752;
1192.8000;0.5804;0.6752;
1193.1000;0.5812;0.6803;
1193.4000;0.5820;0.6905;
1193.7000;0.5812;0.6905;
1194.0000;0.5804;0.6955;
1194.3000;0.5788;0.6981;
1194.6000;0.5812;0.6930;
1194.9000;0.5804;0.6803;
1195.2000;0.5804;0.6726;
1195.5000;0.5804;0.6752;
1195.8000;0.5820;0.6752;
1196.1000;0.5804;0.6701;
1196.4000;0.5812;0.6777;
1196.7000;0.5796;0.6752;
1197.0000;0.5739;0.6624;
1197.3000;0.5747;0.6624;
1197.6000;0.5812;0.6752;
1197.9000;0.5796;0.6650;
1198.2000;0.5788;0.6624;
1198.5000;0.5796;0.6573;
1198.8000;0.5804;0.6573;
1199.1000;0.5812;0.6675;
1199.4000;0.5836;0.6777;
1199.7000;0.5788;0.6675;
1200.0000;0.5788;0.6726;
1200.3000;0.5804;0.6675;
1200.6000;0.5836;0.6828;
1200.9000;0.5788;0.6777;
1201.2000;0.5788;0.6777;
1201.5000;0.5812;0.6854;
1201.8000;0.5796;0.6726;
1202.1000;0.5804;0.6828;
1202.4000;0.5796;0.6803;
1202.7000;0.5804;0.6854;
1203.0000;0.5804;0.6854;
1203.3000;0.5747;0.6701;
1203.6000;0.5796;0.6930;
1203.9000;0.5779;0.6854;
1204.2000;0.5771;0.6854;
1204.5000;0.5812;0.7006;
1204.8000;0.5788;0.6930;
1205.1000;0.5812;0.6879;
1205.4000;0.5853;0.7006;
1205.7000;0.5796;0.6726;
1206.0000;0.5796;0.6777;
1206.3000;0.5828;0.6879;
1206.6000;0.5812;0.6803;
1206.9000;0.5820;0.6854;
1207.2000;0.5796;0.6879;
1207.5000;0.5812;0.6930;
1207.8000;0.5779;0.6905;
1208.1000;0.5812;0.6854;
1208.4000;0.5812;0.6777;
1208.7000;0.5828;0.6752;
1209.0000;0.5804;0.6650;
1209.3000;0.5796;0.6675;
1209.6000;0.5779;0.6599;
1209.9000;0.5788;0.6548;
1210.2000;0.5812;0.6573;
1210.5000;0.5796;0.6446;
1210.8000;0.5804;0.6497;
1211.1000;0.5788;0.6548;
1211.4000;0.5804;0.6650;
1211.7000;0.5812;0.6624;
1212.0000;0.5812;0.6650;
1212.3000;0.5779;0.6599;
1212.6000;0.5804;0.6599;
1212.9000;0.5812;0.6675;
1213.2000;0.5804;0.6650;
1213.5000;0.5788;0.6624;
1213.8000;0.5779;0.6675;
1214.1000;0.5869;0.6854;
1214.4000;0.5796;0.6624;
1214.7000;0.5796;0.6701;
1215.0000;0.5804;0.6726;
1215.3000;0.5755;0.6573;
1215.6000;0.5804;0.6777;
1215.9000;0.5796;0.6726;
1216.2000;0.5788;0.6573;
1216.5000;0.5812;0.6624;
1216.8000;0.5804;0.6624;
1217.1000;0.5812;0.6624;
1217.4000;0.5788;0.6624;
1217.7000;0.5796;0.6650;
1218.0000;0.5796;0.6675;
1218.3000;0.5771;0.6522;
1218.6000;0.5796;0.6599;
1218.9000;0.5779;0.6624;
1219.2000;0.5755;0.6573;
1219.5000;0.5812;0.6752;
1219.8000;0.5771;0.6624;
1220.1000;0.5796;0.6701;
1220.4000;0.5804;0.6828;
1220.7000;0.5812;0.6777;
1221.0000;0.5812;0.6828;
1221.3000;0.5771;0.6624;
1221.6000;0.5796;0.6752;
1221.9000;0.5812;0.6803;
1222.2000;0.5877;0.6981;
1222.5000;0.5820;0.6752;
1222.8000;0.5796;0.6624;
1223.1000;0.5836;0.6752;
1223.4000;0.5796;0.6548;
1223.7000;0.5796;0.6573;
1224.0000;0.5836;0.6701;
1224.3000;0.5820;0.6726;
1224.6000;0.5788;0.6675;
1224.9000;0.5788;0.6650;
1225.2000;0.5796;0.6675;
1225.5000;0.5796;0.6675;
1225.8000;0.5804;0.6726;
1226.1000;0.5788;0.6701;
1226.4000;0.5763;0.6726;
1226.7000;0.5788;0.6905;
1227.0000;0.5779;0.6879;
1227.3000;0.5796;0.6905;
1227.6000;0.5796;0.6905;
1227.9000;0.5796;0.6879;
1228.2000;0.5804;0.6854;
1228.5000;0.5804;0.6828;
1228.8000;0.5788;0.6701;
1229.1000;0.5796;0.6624;
1229.4000;0.5796;0.6650;
1229.7000;0.5779;0.6624;
1230.0000;0.5788;0.6624;
1230.3000;0.5771;0.6624;
1230.6000;0.5804;0.6675;
1230.9000;0.5788;0.6752;
1231.2000;0.5788;0.6726;
1231.5000;0.5796;0.6803;
1231.8000;0.5812;0.6955;
1232.1000;0.5804;0.6955;
1232.4000;0.5812;0.6803;
1232.7000;0.5788;0.6675;
1233.0000;0.5804;0.6701;
1233.3000;0.5828;0.6701;
1233.6000;0.5812;0.6701;
1233.9000;0.5796;0.6675;
1234.2000;0.5796;0.6726;
1234.5000;0.5812;0.6701;
1234.8000;0.5788;0.6650;
1235.1000;0.5836;0.6777;
1235.4000;0.5779;0.6675;
1235.7000;0.5885;0.6955;
1236.0000;0.5804;0.6777;
1236.3000;0.5763;0.6777;
1236.6000;0.5812;0.6803;
1236.9000;0.5779;0.6777;
1237.2000;0.5820;0.6854;
1237.5000;0.5828;0.6854;
1237.8000;0.5796;0.6752;
1238.1000;0.5812;0.6803;
1238.4000;0.5812;0.6777;
1238.7000;0.5731;0.6522;
1239.0000;0.5820;0.6726;
1239.3000;0.5779;0.6650;
1239.6000;0.5836;0.6803;
1239.9000;0.5796;0.6726;
1240.2000;0.5877;0.6879;
1240.5000;0.5739;0.6471;
1240.8000;0.5779;0.6701;
1241.1000;0.5812;0.6777;
1241.4000;0.5788;0.6675;
1241.7000;0.5755;0.6573;
1242.0000;0.5812;0.6777;
1242.3000;0.5796;0.6650;
1242.6000;0.5804;0.6624;
1242.9000;0.5788;0.6497;
1243.2000;0.5788;0.6522;
1243.5000;0.5796;0.6471;
1243.8000;0.5804;0.6599;
1244.1000;0.5779;0.6573;
1244.4000;0.5796;0.6573;
1244.7000;0.5796;0.6548;
1245.0000;0.5788;0.6573;
1245.3000;0.5779;0.6701;
1245.6000;0.5788;0.6752;
1245.9000;0.5788;0.6828;
1246.2000;0.5763;0.6752;
1246.5000;0.5804;0.6803;
1246.8000;0.5788;0.6726;
1247.1000;0.5796;0.6752;
1247.4000;0.5812;0.6726;
1247.7000;0.5812;0.6803;
1248.0000;0.5788;0.6828;
1248.3000;0.5788;0.6879;
1248.6000;0.5812;0.6955;
1248.9000;0.5804;0.6905;
1249.2000;0.5796;0.6905;
1249.5000;0.5771;0.6803;
1249.8000;0.5804;0.6905;
1250.1000;0.5804;0.6854;
1250.4000;0.5820;0.6854;
1250.7000;0.5779;0.6752;
1251.0000;0.5779;0.6777;
1251.3000;0.5796;0.6752;
1251.6000;0.5796;0.6777;
1251.9000;0.5845;0.6981;
1252.2000;0.5788;0.6879;
1252.5000;0.5788;0.6828;
1252.8000;0.5804;0.6854;
1253.1000;0.5788;0.6854;
1253.4000;0.5779;0.6828;
1253.7000;0.5869;0.6981;
1254.0000;0.5804;0.6752;
1254.3000;0.5796;0.6803;
1254.6000;0.5788;0.6828;
1254.9000;0.5698;0.6522;
1255.2000;0.5771;0.6726;
1255.5000;0.5755;0.6624;
1255.8000;0.5820;0.6828;
1256.1000;0.5722;0.6548;
1256.4000;0.5796;0.6777;
1256.7000;0.5788;0.6777;
1257.0000;0.5739;0.6726;
1257.3000;0.5779;0.6854;
1257.6000;0.5788;0.6854;
1257.9000;0.5779;0.6854;
1258.2000;0.5788;0.6854;
1258.5000;0.5853;0.7057;
1258.8000;0.5788;0.6828;
1259.1000;0.5812;0.6854;
1259.4000;0.5788;0.6752;
1259.7000;0.5788;0.6803;
1260.0000;0.5788;0.6828;
1260.3000;0.5788;0.6854;
1260.6000;0.5763;0.6726;
1260.9000;0.5771;0.6752;
1261.2000;0.5779;0.6803;
1261.5000;0.5788;0.6828;
1261.8000;0.5804;0.6828;
1262.1000;0.5763;0.6726;
1262.4000;0.5763;0.6828;
1262.7000;0.5763;0.6879;
1263.0000;0.5804;0.6905;
1263.3000;0.5796;0.6828;
1263.6000;0.5812;0.6879;
1263.9000;0.5804;0.6752;
1264.2000;0.5796;0.6752;
1264.5000;0.5796;0.6803;
1264.8000;0.5779;0.6752;
1265.1000;0.5779;0.6675;
1265.4000;0.5788;0.6701;
1265.7000;0.5788;0.6650;
1266.0000;0.5771;0.6650;
1266.3000;0.5812;0.6675;
1266.6000;0.5804;0.6650;
1266.9000;0.5771;0.6675;
1267.2000;0.5779;0.6752;
1267.5000;0.5788;0.6752;
1267.8000;0.5788;0.6701;
1268.1000;0.5796;0.6675;
1268.4000;0.5804;0.6828;
1268.7000;0.5796;0.6828;
1269.0000;0.5804;0.6955;
1269.3000;0.5788;0.6930;
1269.6000;0.5788;0.6879;
1269.9000;0.5820;0.6955;
1270.2000;0.5788;0.6930;
1270.5000;0.5771;0.7006;
1270.8000;0.5779;0.6905;
1271.1000;0.5771;0.6777;
1271.4000;0.5804;0.6803;
1271.7000;0.5788;0.6752;
1272.0000;0.5788;0.6701;
1272.3000;0.5796;0.6752;
1272.6000;0.5796;0.6752;
1272.9000;0.5804;0.6803;
1273.2000;0.5804;0.6701;
1273.5000;0.5788;0.6675;
1273.8000;0.5796;0.6726;
1274.1000;0.5820;0.6777;
1274.4000;0.5796;0.6650;
1274.7000;0.5796;0.6701;
1275.0000;0.5788;0.6777;
1275.3000;0.5788;0.6854;
1275.6000;0.5779;0.6752;
1275.9000;0.5861;0.7032;
1276.2000;0.5779;0.6803;
1276.5000;0.5788;0.6905;
1276.8000;0.5788;0.6854;
1277.1000;0.5796;0.6854;
1277.4000;0.5796;0.6777;
1277.7000;0.5779;0.6726;
1278.0000;0.5820;0.6803;
1278.3000;0.5804;0.6777;
1278.6000;0.5771;0.6624;
1278.9000;0.5788;0.6701;
1279.2000;0.5779;0.6701;
1279.5000;0.5747;0.6624;
1279.8000;0.5779;0.6777;
1280.1000;0.5796;0.6828;
1280.4000;0.5763;0.6803;
1280.7000;0.5788;0.6854;
1281.0000;0.5788;0.6879;
1281.3000;0.5755;0.6752;
1281.6000;0.5796;0.6879;
1281.9000;0.5763;0.6624;
1282.2000;0.5739;0.6599;
1282.5000;0.5779;0.6548;
1282.8000;0.5788;0.6573;
1283.1000;0.5812;0.6701;
1283.4000;0.5779;0.6752;
1283.7000;0.5771;0.6752;
1284.0000;0.5796;0.6752;
1284.3000;0.5796;0.6726;
1284.6000;0.5788;0.6803;
1284.9000;0.5796;0.6854;
1285.2000;0.5779;0.6854;
1285.5000;0.5779;0.6777;
1285.8000;0.5804;0.6752;
1286.1000;0.5779;0.6777;
1286.4000;0.5779;0.6777;
1286.7000;0.5779;0.6726;
1287.0000;0.5788;0.6777;
1287.3000;0.5796;0.6803;
1287.6000;0.5796;0.6854;
1287.9000;0.5796;0.6905;
1288.2000;0.5747;0.6777;
1288.5000;0.5779;0.6828;
1288.8000;0.5788;0.6828;
1289.1000;0.5796;0.6777;
1289.4000;0.5804;0.6777;
1289.7000;0.5747;0.6573;
1290.0000;0.5779;0.6573;
1290.3000;0.5788;0.6522;
1290.6000;0.5788;0.6548;
1290.9000;0.5763;0.6522;
1291.2000;0.5771;0.6599;
1291.5000;0.5796;0.6599;
1291.8000;0.5788;0.6548;
1292.1000;0.5796;0.6599;
1292.4000;0.5779;0.6548;
1292.7000;0.5779;0.6497;
1293.0000;0.5804;0.6599;
1293.3000;0.5820;0.6624;
1293.6000;0.5771;0.6624;
1293.9000;0.5788;0.6675;
1294.2000;0.5788;0.6752;
1294.5000;0.5788;0.6854;
1294.8000;0.5788;0.6803;
1295.1000;0.5779;0.6777;
1295.4000;0.5739;0.6675;
1295.7000;0.5771;0.6675;
1296.0000;0.5788;0.6650;
1296.3000;0.5779;0.6726;
1296.6000;0.5771;0.6701;
1296.9000;0.5812;0.6803;
1297.2000;0.5788;0.6726;
1297.5000;0.5779;0.6726;
1297.8000;0.5788;0.6701;
1298.1000;0.5788;0.6701;
1298.4000;0.5788;0.6624;
1298.7000;0.5796;0.6599;
1299.0000;0.5788;0.6650;
1299.3000;0.5788;0.6624;
1299.6000;0.5788;0.6701;
1299.9000;0.5788;0.6777;
1300.2000;0.5771;0.6777;
1300.5000;0.5788;0.6726;
1300.8000;0.5779;0.6675;
1301.1000;0.5804;0.6726;
1301.4000;0.5788;0.6624;
1301.7000;0.5788;0.6599;
1302.0000;0.5779;0.6599;
1302.3000;0.5788;0.6599;
1302.6000;0.5804;0.6701;
1302.9000;0.5763;0.6624;
1303.2000;0.5763;0.6675;
1303.5000;0.5812;0.6675;
1303.8000;0.5779;0.6675;
1304.1000;0.5771;0.6650;
1304.4000;0.5763;0.6599;
1304.7000;0.5788;0.6624;
1305.0000;0.5763;0.6573;
1305.3000;0.5796;0.6726;
1305.6000;0.5812;0.6726;
1305.9000;0.5779;0.6777;
1306.2000;0.5779;0.6752;
1306.5000;0.5788;0.6726;
1306.8000;0.5771;0.6726;
1307.1000;0.5788;0.6752;
1307.4000;0.5796;0.6828;
1307.7000;0.5779;0.6854;
1308.0000;0.5779;0.6879;
1308.3000;0.5788;0.6905;
1308.6000;0.5796;0.6905;
1308.9000;0.5788;0.6854;
1309.2000;0.5788;0.6803;
1309.5000;0.5779;0.6777;
1309.8000;0.5796;0.6675;
1310.1000;0.5779;0.6650;
1310.4000;0.5788;0.6701;
1310.7000;0.5788;0.6650;
1311.0000;0.5804;0.6675;
1311.3000;0.5804;0.6675;
1311.6000;0.5779;0.6548;
1311.9000;0.5763;0.6599;
1312.2000;0.5771;0.6522;
1312.5000;0.5779;0.6522;
1312.8000;0.5771;0.6471;
1313.1000;0.5771;0.6471;
1313.4000;0.5731;0.6446;
1313.7000;0.5771;0.6624;
1314.0000;0.5779;0.6726;
1314.3000;0.5779;0.6752;
1314.6000;0.5763;0.6752;
1314.9000;0.5779;0.6726;
1315.2000;0.5771;0.6726;
1315.5000;0.5763;0.6752;
1315.8000;0.5779;0.6777;
1316.1000;0.5763;0.6803;
1316.4000;0.5747;0.6701;
1316.7000;0.5763;0.6803;
1317.0000;0.5763;0.6803;
1317.3000;0.5779;0.6828;
1317.6000;0.5788;0.6752;
1317.9000;0.5788;0.6675;
1318.2000;0.5771;0.6650;
1318.5000;0.5755;0.6573;
1318.8000;0.5788;0.6650;
1319.1000;0.5804;0.6701;
1319.4000;0.5828;0.6854;
1319.7000;0.5779;0.6701;
1320.0000;0.5779;0.6803;
1320.3000;0.5788;0.6828;
1320.6000;0.5763;0.6752;
1320.9000;0.5788;0.6854;
1321.2000;0.5779;0.6777;
1321.5000;0.5771;0.6752;
1321.8000;0.5771;0.6726;
1322.1000;0.5763;0.6701;
1322.4000;0.5788;0.6726;
1322.7000;0.5804;0.6752;
1323.0000;0.5771;0.6675;
1323.3000;0.5788;0.6777;
1323.6000;0.5771;0.6828;
1323.9000;0.5788;0.6828;
1324.2000;0.5788;0.6777;
1324.5000;0.5796;0.6752;
1324.8000;0.5828;0.6955;
1325.1000;0.5779;0.6752;
1325.4000;0.5771;0.6726;
1325.7000;0.5788;0.6803;
1326.0000;0.5763;0.6777;
1326.3000;0.5788;0.6777;
1326.6000;0.5771;0.6777;
1326.9000;0.5788;0.6701;
1327.2000;0.5779;0.6752;
1327.5000;0.5779;0.6879;
1327.8000;0.5779;0.6905;
1328.1000;0.5714;0.6650;
1328.4000;0.5788;0.6803;
1328.7000;0.5804;0.6955;
1329.0000;0.5796;0.6981;
1329.3000;0.5796;0.7006;
1329.6000;0.5747;0.6955;
1329.9000;0.5812;0.7083;
1330.2000;0.5779;0.6930;
1330.5000;0.5771;0.6854;
1330.8000;0.5763;0.6803;
1331.1000;0.5771;0.6879;
1331.4000;0.5779;0.6905;
1331.7000;0.5788;0.6930;
1332.0000;0.5779;0.6854;
1332.3000;0.5788;0.6905;
1332.6000;0.5788;0.6930;
1332.9000;0.5779;0.6981;
1333.2000;0.5779;0.7057;
1333.5000;0.5788;0.6981;
1333.8000;0.5779;0.6981;
1334.1000;0.5779;0.7083;
1334.4000;0.5731;0.6930;
1334.7000;0.5771;0.7159;
1335.0000;0.5771;0.7134;
1335.3000;0.5804;0.7159;
1335.6000;0.5788;0.7108;
1335.9000;0.5788;0.6981;
1336.2000;0.5779;0.6955;
1336.5000;0.5779;0.6828;
1336.8000;0.5771;0.6777;
1337.1000;0.5779;0.6752;
1337.4000;0.5788;0.6854;
1337.7000;0.5779;0.6905;
1338.0000;0.5796;0.6955;
1338.3000;0.5771;0.6803;
1338.6000;0.5779;0.6777;
1338.9000;0.5771;0.6777;
1339.2000;0.5788;0.6752;
1339.5000;0.5788;0.6726;
1339.8000;0.5771;0.6624;
1340.1000;0.5779;0.6752;
1340.4000;0.5779;0.6752;
1340.7000;0.5788;0.6777;
1341.0000;0.5771;0.6777;
1341.3000;0.5779;0.6777;
1341.6000;0.5779;0.6752;
1341.9000;0.5771;0.6726;
1342.2000;0.5771;0.6701;
1342.5000;0.5747;0.6701;
1342.8000;0.5779;0.6803;
1343.1000;0.5779;0.6854;
1343.4000;0.5763;0.6803;
1343.7000;0.5788;0.6828;
1344.0000;0.5779;0.6854;
1344.3000;0.5836;0.6930;
1344.6000;0.5788;0.6752;
1344.9000;0.5722;0.6573;
1345.2000;0.5788;0.6803;
1345.5000;0.5779;0.6803;
1345.8000;0.5820;0.6955;
1346.1000;0.5779;0.6828;
1346.4000;0.5788;0.6854;
1346.7000;0.5763;0.6854;
1347.0000;0.5771;0.6879;
1347.3000;0.5771;0.6930;
1347.6000;0.5755;0.6955;
1347.9000;0.5771;0.6955;
1348.2000;0.5771;0.6955;
1348.5000;0.5747;0.6905;
1348.8000;0.5788;0.6955;
1349.1000;0.5771;0.6930;
1349.4000;0.5788;0.6854;
1349.7000;0.5771;0.6828;
1350.0000;0.5771;0.6905;
1350.3000;0.5771;0.6905;
1350.6000;0.5747;0.6777;
1350.9000;0.5788;0.6777;
1351.2000;0.5788;0.6777;
1351.5000;0.5771;0.6701;
1351.8000;0.5771;0.6675;
1352.1000;0.5788;0.6624;
1352.4000;0.5771;0.6701;
1352.7000;0.5763;0.6752;
1353.0000;0.5779;0.6828;
1353.3000;0.5739;0.6726;
1353.6000;0.5820;0.7006;
1353.9000;0.5779;0.6879;
1354.2000;0.5812;0.6955;
1354.5000;0.5771;0.6854;
1354.8000;0.5779;0.6879;
1355.1000;0.5804;0.6854;
1355.4000;0.5755;0.6752;
1355.7000;0.5779;0.6803;
1356.0000;0.5779;0.6777;
1356.3000;0.5755;0.6675;
1356.6000;0.5771;0.6854;
1356.9000;0.5779;0.6854;
1357.2000;0.5763;0.6777;
1357.5000;0.5771;0.6726;
1357.8000;0.5755;0.6573;
1358.1000;0.5747;0.6573;
1358.4000;0.5763;0.6599;
1358.7000;0.5779;0.6650;
1359.0000;0.5779;0.6650;
1359.3000;0.5828;0.6803;
1359.6000;0.5788;0.6726;
1359.9000;0.5763;0.6624;
1360.2000;0.5779;0.6701;
1360.5000;0.5771;0.6803;
1360.8000;0.5779;0.6777;
1361.1000;0.5804;0.6777;
1361.4000;0.5771;0.6726;
1361.7000;0.5788;0.6828;
1362.0000;0.5771;0.6854;
1362.3000;0.5779;0.6905;
1362.6000;0.5779;0.6905;
1362.9000;0.5788;0.6981;
1363.2000;0.5779;0.6981;
1363.5000;0.5804;0.7032;
1363.8000;0.5779;0.6981;
1364.1000;0.5771;0.7006;
1364.4000;0.5788;0.7083;
1364.7000;0.5796;0.7032;
1365.0000;0.5788;0.6955;
1365.3000;0.5779;0.6905;
1365.6000;0.5739;0.6803;
1365.9000;0.5853;0.7108;
1366.2000;0.5788;0.6905;
1366.5000;0.5747;0.6879;
1366.8000;0.5755;0.6879;
1367.1000;0.5779;0.6854;
1367.4000;0.5779;0.6803;
1367.7000;0.5788;0.6777;
1368.0000;0.5771;0.6752;
1368.3000;0.5796;0.6777;
1368.6000;0.5779;0.6777;
1368.9000;0.5763;0.6752;
1369.2000;0.5763;0.6777;
1369.5000;0.5779;0.6828;
1369.8000;0.5763;0.6777;
1370.1000;0.5796;0.6777;
1370.4000;0.5755;0.6650;
1370.7000;0.5771;0.6650;
1371.0000;0.5796;0.6624;
1371.3000;0.5779;0.6573;
1371.6000;0.5788;0.6624;
1371.9000;0.5796;0.6701;
1372.2000;0.5779;0.6675;
1372.5000;0.5755;0.6599;
1372.8000;0.5779;0.6624;
1373.1000;0.5771;0.6548;
1373.4000;0.5771;0.6573;
1373.7000;0.5796;0.6675;
1374.0000;0.5845;0.6879;
1374.3000;0.5779;0.6803;
1374.6000;0.5722;0.6701;
1374.9000;0.5796;0.6803;
1375.2000;0.5771;0.6726;
1375.5000;0.5820;0.6854;
1375.8000;0.5779;0.6726;
1376.1000;0.5788;0.6828;
1376.4000;0.5796;0.6879;
1376.7000;0.5788;0.6930;
1377.0000;0.5771;0.6803;
1377.3000;0.5779;0.6777;
1377.6000;0.5755;0.6726;
1377.9000;0.5763;0.6777;
1378.2000;0.5779;0.6854;
1378.5000;0.5779;0.6854;
1378.8000;0.5755;0.6803;
1379.1000;0.5771;0.6828;
1379.4000;0.5771;0.6803;
1379.7000;0.5779;0.6803;
1380.0000;0.5771;0.6803;
1380.3000;0.5779;0.6803;
1380.6000;0.5820;0.6854;
1380.9000;0.5779;0.6777;
1381.2000;0.5771;0.6803;
1381.5000;0.5788;0.6726;
1381.8000;0.5788;0.6777;
1382.1000;0.5771;0.6752;
1382.4000;0.5779;0.6726;
1382.7000;0.5763;0.6624;
1383.0000;0.5779;0.6624;
1383.3000;0.5779;0.6624;
1383.6000;0.5763;0.6650;
1383.9000;0.5788;0.6650;
1384.2000;0.5763;0.6624;
1384.5000;0.5771;0.6599;
1384.8000;0.5779;0.6599;
1385.1000;0.5812;0.6599;
1385.4000;0.5763;0.6548;
1385.7000;0.5763;0.6573;
1386.0000;0.5771;0.6599;
1386.3000;0.5779;0.6599;
1386.6000;0.5771;0.6573;
1386.9000;0.5771;0.6522;
1387.2000;0.5763;0.6522;
1387.5000;0.5763;0.6471;
1387.8000;0.5779;0.6395;
1388.1000;0.5812;0.6420;
1388.4000;0.5779;0.6293;
1388.7000;0.5779;0.6319;
1389.0000;0.5771;0.6369;
1389.3000;0.5779;0.6344;
1389.6000;0.5771;0.6369;
1389.9000;0.5771;0.6395;
1390.2000;0.5771;0.6420;
1390.5000;0.5796;0.6446;
1390.8000;0.5771;0.6369;
1391.1000;0.5747;0.6293;
1391.4000;0.5788;0.6344;
1391.7000;0.5779;0.6344;
1392.0000;0.5755;0.6344;
1392.3000;0.5771;0.6446;
1392.6000;0.5771;0.6471;
1392.9000;0.5763;0.6522;
1393.2000;0.5739;0.6471;
1393.5000;0.5771;0.6573;
1393.8000;0.5763;0.6522;
1394.1000;0.5763;0.6522;
1394.4000;0.5763;0.6471;
1394.7000;0.5771;0.6522;
1395.0000;0.5788;0.6624;
1395.3000;0.5796;0.6675;
1395.6000;0.5763;0.6701;
1395.9000;0.5796;0.6854;
1396.2000;0.5763;0.6777;
1396.5000;0.5771;0.6777;
1396.8000;0.5763;0.6777;
1397.1000;0.5763;0.6752;
1397.4000;0.5763;0.6701;
1397.7000;0.5714;0.6471;
1398.0000;0.5779;0.6624;
1398.3000;0.5779;0.6650;
1398.6000;0.5755;0.6624;
1398.9000;0.5836;0.6879;
1399.2000;0.5788;0.6803;
1399.5000;0.5771;0.6777;
1399.8000;0.5771;0.6777;
