time/ms;Fluo/V;P700 deltaI/I x10³;
-199.8000;0.8913;0.7185;
-199.5000;0.8921;0.7159;
-199.2000;0.8930;0.7185;
-198.9000;0.8905;0.7057;
-198.6000;0.8938;0.7057;
-198.3000;0.8905;0.7006;
-198.0000;0.8905;0.6981;
-197.7000;0.8930;0.7032;
-197.4000;0.8913;0.7032;
-197.1000;0.8921;0.7057;
-196.8000;0.8946;0.7134;
-196.5000;0.8938;0.7159;
-196.2000;0.8889;0.7108;
-195.9000;0.8938;0.7261;
-195.6000;0.8938;0.7236;
-195.3000;0.8930;0.7134;
-195.0000;0.8921;0.7134;
-194.7000;0.8921;0.7108;
-194.4000;0.8946;0.7287;
-194.1000;0.8954;0.7287;
-193.8000;0.8905;0.7236;
-193.5000;0.8897;0.7261;
-193.2000;0.8930;0.7312;
-192.9000;0.8978;0.7414;
-192.6000;0.8930;0.7312;
-192.3000;0.8938;0.7338;
-192.0000;0.8938;0.7363;
-191.7000;0.8954;0.7389;
-191.4000;0.8954;0.7363;
-191.1000;0.8946;0.7287;
-190.8000;0.8938;0.7363;
-190.5000;0.8954;0.7363;
-190.2000;0.8954;0.7440;
-189.9000;0.8930;0.7338;
-189.6000;0.8938;0.7338;
-189.3000;0.9003;0.7440;
-189.0000;0.8930;0.7287;
-188.7000;0.8913;0.7210;
-188.4000;0.8913;0.7134;
-188.1000;0.8913;0.7083;
-187.8000;0.8881;0.6930;
-187.5000;0.8930;0.7057;
-187.2000;0.8938;0.6981;
-186.9000;0.8921;0.6777;
-186.6000;0.8946;0.6777;
-186.3000;0.8946;0.6879;
-186.0000;0.8938;0.6854;
-185.7000;0.8938;0.6777;
-185.4000;0.8897;0.6701;
-185.1000;0.8930;0.6905;
-184.8000;0.8848;0.6803;
-184.5000;0.8930;0.6981;
-184.2000;0.8946;0.7057;
-183.9000;0.8938;0.7134;
-183.6000;0.8938;0.7185;
-183.3000;0.8921;0.7185;
-183.0000;0.8954;0.7236;
-182.7000;0.8930;0.7083;
-182.4000;0.8913;0.7006;
-182.1000;0.8930;0.7032;
-181.8000;0.8954;0.7006;
-181.5000;0.8946;0.7108;
-181.2000;0.8938;0.7134;
-180.9000;0.8946;0.7134;
-180.6000;0.8962;0.7159;
-180.3000;0.8946;0.7083;
-180.0000;0.8930;0.7057;
-179.7000;0.8889;0.6879;
-179.4000;0.8921;0.6905;
-179.1000;0.8954;0.6981;
-178.8000;0.8962;0.7108;
-178.5000;0.8938;0.7006;
-178.2000;0.8938;0.6981;
-177.9000;0.8954;0.7032;
-177.6000;0.8946;0.7057;
-177.3000;0.8938;0.7032;
-177.0000;0.8938;0.7006;
-176.7000;0.8930;0.7006;
-176.4000;0.8938;0.7057;
-176.1000;0.8946;0.7032;
-175.8000;0.8930;0.6955;
-175.5000;0.8938;0.6905;
-175.2000;0.8946;0.7006;
-174.9000;0.8930;0.6955;
-174.6000;0.8946;0.7006;
-174.3000;0.8938;0.6981;
-174.0000;0.8864;0.6854;
-173.7000;0.8962;0.7083;
-173.4000;0.8921;0.7006;
-173.1000;0.8921;0.6905;
-172.8000;0.8921;0.6854;
-172.5000;0.8938;0.6879;
-172.2000;0.8946;0.6828;
-171.9000;0.8930;0.6879;
-171.6000;0.8873;0.6726;
-171.3000;0.8930;0.6777;
-171.0000;0.8987;0.6981;
-170.7000;0.8930;0.6930;
-170.4000;0.8938;0.7032;
-170.1000;0.8946;0.7108;
-169.8000;0.8946;0.7108;
-169.5000;0.8840;0.6777;
-169.2000;0.8938;0.7083;
-168.9000;0.8946;0.7159;
-168.6000;0.8930;0.7185;
-168.3000;0.8930;0.7185;
-168.0000;0.8938;0.7210;
-167.7000;0.8864;0.6981;
-167.4000;0.8930;0.7236;
-167.1000;0.8938;0.7134;
-166.8000;0.8938;0.7159;
-166.5000;0.8930;0.7057;
-166.2000;0.8938;0.7108;
-165.9000;0.8913;0.7006;
-165.6000;0.8946;0.7083;
-165.3000;0.8946;0.7108;
-165.0000;0.8946;0.7108;
-164.7000;0.8946;0.7108;
-164.4000;0.8930;0.7006;
-164.1000;0.8921;0.7083;
-163.8000;0.8938;0.7159;
-163.5000;0.8938;0.7185;
-163.2000;0.8930;0.7159;
-162.9000;0.8913;0.6981;
-162.6000;0.8938;0.7236;
-162.3000;0.8930;0.7236;
-162.0000;0.8995;0.7440;
-161.7000;0.8938;0.7312;
-161.4000;0.8946;0.7465;
-161.1000;0.8938;0.7465;
-160.8000;0.8938;0.7338;
-160.5000;0.8913;0.7261;
-160.2000;0.8938;0.7338;
-159.9000;0.8954;0.7312;
-159.6000;0.8930;0.7236;
-159.3000;0.8889;0.7134;
-159.0000;0.8946;0.7185;
-158.7000;0.8954;0.7185;
-158.4000;0.8930;0.7083;
-158.1000;0.8921;0.7108;
-157.8000;0.8930;0.7185;
-157.5000;0.8938;0.7108;
-157.2000;0.8962;0.7185;
-156.9000;0.8938;0.7057;
-156.6000;0.8930;0.7032;
-156.3000;0.8921;0.6955;
-156.0000;0.8930;0.7006;
-155.7000;0.8938;0.7006;
-155.4000;0.8946;0.7185;
-155.1000;0.8930;0.7185;
-154.8000;0.8938;0.7185;
-154.5000;0.8938;0.7159;
-154.2000;0.8921;0.7210;
-153.9000;0.8930;0.7210;
-153.6000;0.8930;0.7134;
-153.3000;0.8938;0.7083;
-153.0000;0.8938;0.7108;
-152.7000;0.8921;0.7057;
-152.4000;0.8938;0.7057;
-152.1000;0.8930;0.6981;
-151.8000;0.8921;0.6955;
-151.5000;0.8921;0.6981;
-151.2000;0.8938;0.7032;
-150.9000;0.8930;0.7159;
-150.6000;0.8930;0.7185;
-150.3000;0.8938;0.7210;
-150.0000;0.8938;0.7134;
-149.7000;0.8970;0.7210;
-149.4000;0.8946;0.7108;
-149.1000;0.8938;0.7083;
-148.8000;0.8921;0.7032;
-148.5000;0.8913;0.6930;
-148.2000;0.8954;0.6981;
-147.9000;0.8946;0.7032;
-147.6000;0.8921;0.7057;
-147.3000;0.8954;0.7159;
-147.0000;0.8946;0.7108;
-146.7000;0.8946;0.7057;
-146.4000;0.8995;0.7159;
-146.1000;0.8938;0.7032;
-145.8000;0.8954;0.7185;
-145.5000;0.8946;0.7185;
-145.2000;0.8938;0.7159;
-144.9000;0.8930;0.7134;
-144.6000;0.8962;0.7210;
-144.3000;0.8970;0.7287;
-144.0000;0.8970;0.7261;
-143.7000;0.8946;0.7159;
-143.4000;0.8954;0.7159;
-143.1000;0.8954;0.7134;
-142.8000;0.8970;0.7210;
-142.5000;0.8930;0.7032;
-142.2000;0.8921;0.7083;
-141.9000;0.8962;0.7083;
-141.6000;0.8938;0.6981;
-141.3000;0.8946;0.7057;
-141.0000;0.8946;0.7032;
-140.7000;0.8938;0.7032;
-140.4000;0.8946;0.7057;
-140.1000;0.8946;0.7108;
-139.8000;0.8938;0.7083;
-139.5000;0.8921;0.6955;
-139.2000;0.8930;0.7159;
-138.9000;0.8938;0.7159;
-138.6000;0.8938;0.7134;
-138.3000;0.8946;0.7134;
-138.0000;0.8930;0.7057;
-137.7000;0.8938;0.7108;
-137.4000;0.8930;0.7083;
-137.1000;0.8938;0.7083;
-136.8000;0.8938;0.7083;
-136.5000;0.8946;0.7057;
-136.2000;0.8938;0.7108;
-135.9000;0.8913;0.7108;
-135.6000;0.8954;0.7210;
-135.3000;0.8954;0.7210;
-135.0000;0.8930;0.7159;
-134.7000;0.8938;0.7159;
-134.4000;0.8946;0.7210;
-134.1000;0.8938;0.7185;
-133.8000;0.8938;0.7261;
-133.5000;0.8930;0.7159;
-133.2000;0.8954;0.7261;
-132.9000;0.9027;0.7363;
-132.6000;0.8921;0.7032;
-132.3000;0.8938;0.6981;
-132.0000;0.8946;0.6930;
-131.7000;0.8962;0.6955;
-131.4000;0.8938;0.6955;
-131.1000;0.8930;0.7083;
-130.8000;0.8954;0.7261;
-130.5000;0.8946;0.7210;
-130.2000;0.8946;0.7134;
-129.9000;0.8930;0.7057;
-129.6000;0.8938;0.7108;
-129.3000;0.8954;0.7134;
-129.0000;0.8938;0.7185;
-128.7000;0.8938;0.7134;
-128.4000;0.8938;0.7236;
-128.1000;0.8930;0.7287;
-127.8000;0.8930;0.7261;
-127.5000;0.8921;0.7210;
-127.2000;0.8921;0.7134;
-126.9000;0.8930;0.7083;
-126.6000;0.8930;0.7134;
-126.3000;0.8930;0.7210;
-126.0000;0.8970;0.7338;
-125.7000;0.8938;0.7261;
-125.4000;0.8938;0.7210;
-125.1000;0.8938;0.7185;
-124.8000;0.8995;0.7338;
-124.5000;0.8954;0.7236;
-124.2000;0.8938;0.7363;
-123.9000;0.8938;0.7312;
-123.6000;0.8946;0.7287;
-123.3000;0.8921;0.7134;
-123.0000;0.8938;0.7261;
-122.7000;0.8962;0.7440;
-122.4000;0.8921;0.7389;
-122.1000;0.8913;0.7338;
-121.8000;0.8930;0.7338;
-121.5000;0.8905;0.7261;
-121.2000;0.8921;0.7363;
-120.9000;0.8921;0.7236;
-120.6000;0.8946;0.7312;
-120.3000;0.8962;0.7465;
-120.0000;0.8938;0.7312;
-119.7000;0.8946;0.7312;
-119.4000;0.8954;0.7338;
-119.1000;0.8938;0.7338;
-118.8000;0.9027;0.7516;
-118.5000;0.8938;0.7261;
-118.2000;0.8930;0.7134;
-117.9000;0.8946;0.7134;
-117.6000;0.8954;0.7108;
-117.3000;0.8938;0.7083;
-117.0000;0.8938;0.7210;
-116.7000;0.8930;0.7210;
-116.4000;0.8962;0.7363;
-116.1000;0.8954;0.7236;
-115.8000;0.8921;0.7134;
-115.5000;0.8921;0.7057;
-115.2000;0.8938;0.7134;
-114.9000;0.8962;0.7159;
-114.6000;0.8930;0.6981;
-114.3000;0.8930;0.6981;
-114.0000;0.8938;0.7083;
-113.7000;0.8938;0.7134;
-113.4000;0.8938;0.7261;
-113.1000;0.8938;0.7236;
-112.8000;0.8938;0.7236;
-112.5000;0.8921;0.7185;
-112.2000;0.8873;0.7032;
-111.9000;0.9019;0.7465;
-111.6000;0.8897;0.7159;
-111.3000;0.8930;0.7261;
-111.0000;0.8930;0.7261;
-110.7000;0.8930;0.7261;
-110.4000;0.8921;0.7236;
-110.1000;0.8946;0.7312;
-109.8000;0.9027;0.7618;
-109.5000;0.8946;0.7440;
-109.2000;0.8954;0.7440;
-108.9000;0.8930;0.7363;
-108.6000;0.8962;0.7440;
-108.3000;0.8946;0.7414;
-108.0000;0.8930;0.7287;
-107.7000;0.8962;0.7338;
-107.4000;0.8978;0.7312;
-107.1000;0.8930;0.7185;
-106.8000;0.8930;0.7287;
-106.5000;0.8938;0.7236;
-106.2000;0.8954;0.7236;
-105.9000;0.8905;0.7083;
-105.6000;0.8930;0.7210;
-105.3000;0.8930;0.7236;
-105.0000;0.8946;0.7312;
-104.7000;0.8954;0.7414;
-104.4000;0.8905;0.7210;
-104.1000;0.8930;0.7236;
-103.8000;0.8987;0.7312;
-103.5000;0.8913;0.7108;
-103.2000;0.8938;0.7083;
-102.9000;0.8938;0.7134;
-102.6000;0.8921;0.7057;
-102.3000;0.8930;0.7057;
-102.0000;0.8946;0.7108;
-101.7000;0.8930;0.7083;
-101.4000;0.8970;0.7210;
-101.1000;0.8946;0.7134;
-100.8000;0.8938;0.7159;
-100.5000;0.8946;0.7287;
-100.2000;0.8905;0.7108;
-99.9000;0.8954;0.7210;
-99.6000;0.8938;0.7083;
-99.3000;0.8930;0.7057;
-99.0000;0.8946;0.7083;
-98.7000;0.8954;0.7108;
-98.4000;0.8930;0.7006;
-98.1000;0.8962;0.7032;
-97.8000;0.8913;0.6905;
-97.5000;0.8930;0.7032;
-97.2000;0.8913;0.7006;
-96.9000;0.8930;0.6981;
-96.6000;0.8930;0.7006;
-96.3000;0.8921;0.7032;
-96.0000;0.8938;0.7057;
-95.7000;0.8930;0.7083;
-95.4000;0.8930;0.7083;
-95.1000;0.8930;0.7236;
-94.8000;0.8946;0.7338;
-94.5000;0.8905;0.7287;
-94.2000;0.8930;0.7312;
-93.9000;0.8946;0.7287;
-93.6000;0.8930;0.7134;
-93.3000;0.8930;0.7057;
-93.0000;0.8954;0.7159;
-92.7000;0.8921;0.7006;
-92.4000;0.8921;0.7032;
-92.1000;0.8987;0.7159;
-91.8000;0.9019;0.7363;
-91.5000;0.8905;0.7032;
-91.2000;0.8938;0.7083;
-90.9000;0.8946;0.7083;
-90.6000;0.8938;0.6981;
-90.3000;0.8873;0.6879;
-90.0000;0.8938;0.7057;
-89.7000;0.8921;0.7134;
-89.4000;0.8930;0.7134;
-89.1000;0.8930;0.7083;
-88.8000;0.8970;0.7210;
-88.5000;0.8938;0.7261;
-88.2000;0.8938;0.7338;
-87.9000;0.8938;0.7236;
-87.6000;0.8930;0.7338;
-87.3000;0.8930;0.7338;
-87.0000;0.8930;0.7185;
-86.7000;0.8930;0.7159;
-86.4000;0.8897;0.7134;
-86.1000;0.8930;0.7236;
-85.8000;0.8938;0.7236;
-85.5000;0.8921;0.7210;
-85.2000;0.8930;0.7210;
-84.9000;0.8930;0.7236;
-84.6000;0.8881;0.7134;
-84.3000;0.8930;0.7312;
-84.0000;0.8913;0.7287;
-83.7000;0.8938;0.7338;
-83.4000;0.8938;0.7312;
-83.1000;0.8938;0.7312;
-82.8000;0.8930;0.7210;
-82.5000;0.8938;0.7287;
-82.2000;0.8938;0.7312;
-81.9000;0.8938;0.7312;
-81.6000;0.8938;0.7287;
-81.3000;0.8921;0.7159;
-81.0000;0.8938;0.7185;
-80.7000;0.8938;0.7185;
-80.4000;0.8954;0.7210;
-80.1000;0.8946;0.7134;
-79.8000;0.8921;0.7185;
-79.5000;0.8946;0.7287;
-79.2000;0.8938;0.7236;
-78.9000;0.8921;0.7108;
-78.6000;0.8930;0.7134;
-78.3000;0.8930;0.7185;
-78.0000;0.8921;0.7108;
-77.7000;0.8946;0.7185;
-77.4000;0.8938;0.7185;
-77.1000;0.8946;0.7134;
-76.8000;0.8946;0.7159;
-76.5000;0.8938;0.7261;
-76.2000;0.8938;0.7363;
-75.9000;0.8954;0.7389;
-75.6000;0.8946;0.7440;
-75.3000;0.8930;0.7465;
-75.0000;0.8930;0.7440;
-74.7000;0.8938;0.7389;
-74.4000;0.8946;0.7287;
-74.1000;0.8946;0.7236;
-73.8000;0.8946;0.7236;
-73.5000;0.8938;0.7210;
-73.2000;0.8954;0.7210;
-72.9000;0.8962;0.7159;
-72.6000;0.8946;0.7108;
-72.3000;0.9019;0.7261;
-72.0000;0.8954;0.7057;
-71.7000;0.8938;0.7083;
-71.4000;0.8946;0.7134;
-71.1000;0.8930;0.7083;
-70.8000;0.8930;0.7134;
-70.5000;0.8938;0.7057;
-70.2000;0.8930;0.7057;
-69.9000;0.8954;0.7236;
-69.6000;0.8946;0.7287;
-69.3000;0.9019;0.7490;
-69.0000;0.8921;0.7210;
-68.7000;0.8930;0.7312;
-68.4000;0.8954;0.7363;
-68.1000;0.8938;0.7261;
-67.8000;0.8921;0.7287;
-67.5000;0.8954;0.7261;
-67.2000;0.8962;0.7210;
-66.9000;0.8962;0.7312;
-66.6000;0.8930;0.7261;
-66.3000;0.8938;0.7287;
-66.0000;0.8905;0.7210;
-65.7000;0.8938;0.7312;
-65.4000;0.8921;0.7185;
-65.1000;0.8930;0.7108;
-64.8000;0.8946;0.7261;
-64.5000;0.8946;0.7236;
-64.2000;0.8962;0.7261;
-63.9000;0.8946;0.7159;
-63.6000;0.8921;0.7108;
-63.3000;0.8938;0.7083;
-63.0000;0.8938;0.7057;
-62.7000;0.8930;0.7032;
-62.4000;0.8913;0.6981;
-62.1000;0.8938;0.7057;
-61.8000;0.8938;0.7083;
-61.5000;0.8930;0.7057;
-61.2000;0.8930;0.7057;
-60.9000;0.8938;0.7006;
-60.6000;0.8938;0.6981;
-60.3000;0.8913;0.6981;
-60.0000;0.8897;0.6930;
-59.7000;0.8930;0.6930;
-59.4000;0.8938;0.6955;
-59.1000;0.8978;0.7210;
-58.8000;0.8938;0.7083;
-58.5000;0.8873;0.7006;
-58.2000;0.8938;0.7185;
-57.9000;0.8954;0.7236;
-57.6000;0.8856;0.6930;
-57.3000;0.8954;0.7236;
-57.0000;0.8930;0.7210;
-56.7000;0.8930;0.7108;
-56.4000;0.8938;0.7057;
-56.1000;0.8921;0.7057;
-55.8000;0.8930;0.7108;
-55.5000;0.8930;0.7032;
-55.2000;0.8938;0.7006;
-54.9000;0.8946;0.6879;
-54.6000;0.8930;0.6828;
-54.3000;0.8930;0.6854;
-54.0000;0.8930;0.6955;
-53.7000;0.8930;0.7057;
-53.4000;0.8930;0.7083;
-53.1000;0.8938;0.7210;
-52.8000;0.8930;0.7236;
-52.5000;0.8889;0.7032;
-52.2000;0.8938;0.7261;
-51.9000;0.8938;0.7236;
-51.6000;0.8930;0.7236;
-51.3000;0.8889;0.7032;
-51.0000;0.8930;0.7134;
-50.7000;0.8938;0.7032;
-50.4000;0.8913;0.6981;
-50.1000;0.8930;0.7083;
-49.8000;0.8938;0.7108;
-49.5000;0.8938;0.7185;
-49.2000;0.8938;0.7261;
-48.9000;0.8962;0.7185;
-48.6000;0.8938;0.7108;
-48.3000;0.8921;0.7032;
-48.0000;0.8881;0.6879;
-47.7000;0.8946;0.7032;
-47.4000;0.8938;0.7083;
-47.1000;0.8962;0.7108;
-46.8000;0.8913;0.7032;
-46.5000;0.8946;0.7134;
-46.2000;0.8930;0.7083;
-45.9000;0.8946;0.7134;
-45.6000;0.8930;0.7134;
-45.3000;0.8930;0.7108;
-45.0000;0.8864;0.6930;
-44.7000;0.8921;0.7159;
-44.4000;0.8938;0.7159;
-44.1000;0.8938;0.7108;
-43.8000;0.8930;0.7057;
-43.5000;0.8938;0.7006;
-43.2000;0.8905;0.6905;
-42.9000;0.8930;0.6981;
-42.6000;0.8938;0.7057;
-42.3000;0.8954;0.7185;
-42.0000;0.8930;0.7032;
-41.7000;0.8938;0.7083;
-41.4000;0.8930;0.7057;
-41.1000;0.8930;0.7057;
-40.8000;0.8921;0.7032;
-40.5000;0.8930;0.6981;
-40.2000;0.8938;0.6955;
-39.9000;0.8938;0.6981;
-39.6000;0.8938;0.6955;
-39.3000;0.8938;0.6879;
-39.0000;0.8946;0.6777;
-38.7000;0.8987;0.6879;
-38.4000;0.8938;0.6854;
-38.1000;0.8938;0.6905;
-37.8000;0.8921;0.6803;
-37.5000;0.8913;0.6803;
-37.2000;0.8930;0.6777;
-36.9000;0.8921;0.6828;
-36.6000;0.8946;0.6879;
-36.3000;0.8938;0.6930;
-36.0000;0.8930;0.7032;
-35.7000;0.8930;0.7032;
-35.4000;0.8930;0.7006;
-35.1000;0.8930;0.7006;
-34.8000;0.8946;0.7006;
-34.5000;0.8881;0.6879;
-34.2000;0.8921;0.6930;
-33.9000;0.8921;0.7057;
-33.6000;0.8938;0.7134;
-33.3000;0.8938;0.7185;
-33.0000;0.8913;0.7134;
-32.7000;0.8930;0.7134;
-32.4000;0.8921;0.7108;
-32.1000;0.8930;0.7134;
-31.8000;0.8930;0.7210;
-31.5000;0.8946;0.7210;
-31.2000;0.8946;0.7210;
-30.9000;0.8930;0.7159;
-30.6000;0.8921;0.7134;
-30.3000;0.8921;0.7159;
-30.0000;0.8930;0.7210;
-29.7000;0.8921;0.7185;
-29.4000;0.8938;0.7159;
-29.1000;0.8938;0.7108;
-28.8000;0.8930;0.7108;
-28.5000;0.8987;0.7185;
-28.2000;0.8954;0.7108;
-27.9000;0.8930;0.7083;
-27.6000;0.8930;0.7032;
-27.3000;0.8930;0.7057;
-27.0000;0.8930;0.7083;
-26.7000;0.8946;0.7159;
-26.4000;0.8954;0.7159;
-26.1000;0.8938;0.6981;
-25.8000;0.8938;0.6981;
-25.5000;0.8938;0.6854;
-25.2000;0.8930;0.6777;
-24.9000;0.8946;0.6777;
-24.6000;0.8946;0.6752;
-24.3000;0.8930;0.6726;
-24.0000;0.8978;0.6930;
-23.7000;0.8921;0.6803;
-23.4000;0.8946;0.6854;
-23.1000;0.8938;0.6981;
-22.8000;0.8905;0.6828;
-22.5000;0.8913;0.6930;
-22.2000;0.8921;0.7032;
-21.9000;0.8938;0.7032;
-21.6000;0.8930;0.7032;
-21.3000;0.8962;0.7032;
-21.0000;0.8954;0.7108;
-20.7000;0.8921;0.7032;
-20.4000;0.8921;0.7032;
-20.1000;0.8921;0.7006;
-19.8000;0.8881;0.6854;
-19.5000;0.8930;0.7083;
-19.2000;0.8930;0.7057;
-18.9000;0.8921;0.7057;
-18.6000;0.8938;0.7083;
-18.3000;0.8946;0.7032;
-18.0000;0.8946;0.7032;
-17.7000;0.8921;0.6955;
-17.4000;0.8938;0.7057;
-17.1000;0.8946;0.7159;
-16.8000;0.8921;0.7057;
-16.5000;0.8946;0.7057;
-16.2000;0.8938;0.7006;
-15.9000;0.8954;0.7083;
-15.6000;0.8930;0.6981;
-15.3000;0.8954;0.7006;
-15.0000;0.8930;0.6930;
-14.7000;0.8938;0.6905;
-14.4000;0.8921;0.6930;
-14.1000;0.8930;0.6930;
-13.8000;0.8930;0.6930;
-13.5000;0.8938;0.7006;
-13.2000;0.8954;0.7057;
-12.9000;0.8978;0.7134;
-12.6000;0.8962;0.7083;
-12.3000;0.8921;0.6981;
-12.0000;0.8921;0.6930;
-11.7000;0.8930;0.6930;
-11.4000;0.8930;0.6955;
-11.1000;0.8913;0.6905;
-10.8000;0.8930;0.6905;
-10.5000;0.8954;0.7032;
-10.2000;0.8921;0.6955;
-9.9000;0.8873;0.6777;
-9.6000;0.8938;0.6930;
-9.3000;0.8938;0.6981;
-9.0000;0.8987;0.7057;
-8.7000;0.8930;0.6930;
-8.4000;0.8946;0.7006;
-8.1000;0.8954;0.6981;
-7.8000;0.8938;0.6905;
-7.5000;0.8946;0.6955;
-7.2000;0.8938;0.7006;
-6.9000;0.8938;0.6930;
-6.6000;0.8946;0.6930;
-6.3000;0.8921;0.6854;
-6.0000;0.8930;0.6879;
-5.7000;0.8921;0.6879;
-5.4000;0.8938;0.6930;
-5.1000;0.8930;0.6930;
-4.8000;0.8921;0.6955;
-4.5000;0.8938;0.7057;
-4.2000;0.8930;0.7032;
-3.9000;0.8938;0.6955;
-3.6000;0.8938;0.6955;
-3.3000;0.8921;0.6955;
-3.0000;0.8962;0.7134;
-2.7000;0.8954;0.7134;
-2.4000;0.8930;0.7057;
-2.1000;0.8946;0.7032;
-1.8000;0.8930;0.6930;
-1.5000;0.8946;0.6981;
-1.2000;0.8938;0.6905;
-0.9000;0.8921;0.6879;
-0.6000;0.8930;0.7032;
-0.3000;0.8938;0.7032;
0.0000;0.8938;0.7032;
0.3000;0.8954;0.6854;
0.6000;0.9052;0.7185;
0.9000;0.9076;0.7490;
1.2000;0.9109;0.7771;
1.5000;0.9141;0.7975;
1.8000;0.9198;0.8178;
2.1000;0.9239;0.8408;
2.4000;0.9214;0.8459;
2.7000;0.9223;0.8586;
3.0000;0.9231;0.8688;
3.3000;0.9231;0.8790;
3.6000;0.9263;0.8892;
3.9000;0.9247;0.8917;
4.2000;0.9271;0.8943;
4.5000;0.9263;0.8994;
4.8000;0.9263;0.8968;
5.1000;0.9263;0.9045;
5.4000;0.9280;0.9096;
5.7000;0.9337;0.9096;
6.0000;0.9296;0.9045;
6.3000;0.9296;0.9045;
6.6000;0.9288;0.9045;
6.9000;0.9312;0.9096;
7.2000;0.9304;0.9172;
7.5000;0.9312;0.9198;
7.8000;0.9304;0.9198;
8.1000;0.9271;0.9147;
8.4000;0.9288;0.9248;
8.7000;0.9320;0.9223;
9.0000;0.9312;0.9172;
9.3000;0.9320;0.9121;
9.6000;0.9312;0.9070;
9.9000;0.9288;0.9070;
10.2000;0.9320;0.9121;
10.5000;0.9304;0.9096;
10.8000;0.9328;0.9121;
11.1000;0.9304;0.9070;
11.4000;0.9361;0.9147;
11.7000;0.9328;0.9172;
12.0000;0.9328;0.9198;
12.3000;0.9312;0.9198;
12.6000;0.9328;0.9325;
12.9000;0.9312;0.9274;
13.2000;0.9271;0.9198;
13.5000;0.9312;0.9248;
13.8000;0.9320;0.9223;
14.1000;0.9337;0.9172;
14.4000;0.9312;0.9147;
14.7000;0.9337;0.9147;
15.0000;0.9345;0.9096;
15.3000;0.9328;0.9198;
15.6000;0.9312;0.9325;
15.9000;0.9328;0.9376;
16.2000;0.9345;0.9376;
16.5000;0.9369;0.9325;
16.8000;0.9328;0.9248;
17.1000;0.9328;0.9223;
17.4000;0.9337;0.9248;
17.7000;0.9328;0.9350;
18.0000;0.9320;0.9299;
18.3000;0.9345;0.9299;
18.6000;0.9345;0.9274;
18.9000;0.9369;0.9325;
19.2000;0.9353;0.9274;
19.5000;0.9328;0.9248;
19.8000;0.9320;0.9325;
20.1000;0.9345;0.9401;
20.4000;0.9337;0.9427;
20.7000;0.9320;0.9478;
21.0000;0.9328;0.9452;
21.3000;0.9320;0.9427;
21.6000;0.9394;0.9580;
21.9000;0.9320;0.9376;
22.2000;0.9345;0.9376;
22.5000;0.9353;0.9376;
22.8000;0.9345;0.9274;
23.1000;0.9337;0.9274;
23.4000;0.9337;0.9325;
23.7000;0.9320;0.9223;
24.0000;0.9369;0.9147;
24.3000;0.9320;0.9147;
24.6000;0.9337;0.9223;
24.9000;0.9337;0.9223;
25.2000;0.9353;0.9223;
25.5000;0.9328;0.9223;
25.8000;0.9345;0.9198;
26.1000;0.9369;0.9248;
26.4000;0.9296;0.9223;
26.7000;0.9312;0.9299;
27.0000;0.9312;0.9299;
27.3000;0.9320;0.9325;
27.6000;0.9345;0.9299;
27.9000;0.9345;0.9350;
28.2000;0.9328;0.9376;
28.5000;0.9345;0.9376;
28.8000;0.9320;0.9299;
29.1000;0.9361;0.9376;
29.4000;0.9328;0.9325;
29.7000;0.9328;0.9223;
30.0000;0.9353;0.9274;
30.3000;0.9353;0.9299;
30.6000;0.9353;0.9274;
30.9000;0.9328;0.9325;
31.2000;0.9337;0.9401;
31.5000;0.9345;0.9299;
31.8000;0.9337;0.9198;
32.1000;0.9337;0.9198;
32.4000;0.9337;0.9248;
32.7000;0.9353;0.9274;
33.0000;0.9337;0.9248;
33.3000;0.9337;0.9274;
33.6000;0.9337;0.9299;
33.9000;0.9361;0.9401;
34.2000;0.9312;0.9223;
34.5000;0.9337;0.9248;
34.8000;0.9320;0.9274;
35.1000;0.9345;0.9299;
35.4000;0.9337;0.9223;
35.7000;0.9320;0.9198;
36.0000;0.9320;0.9096;
36.3000;0.9345;0.9147;
36.6000;0.9328;0.9070;
36.9000;0.9328;0.9096;
37.2000;0.9353;0.9223;
37.5000;0.9328;0.9198;
37.8000;0.9361;0.9401;
38.1000;0.9345;0.9427;
38.4000;0.9345;0.9478;
38.7000;0.9337;0.9503;
39.0000;0.9345;0.9478;
39.3000;0.9345;0.9401;
39.6000;0.9337;0.9401;
39.9000;0.9337;0.9478;
40.2000;0.9328;0.9452;
40.5000;0.9312;0.9325;
40.8000;0.9369;0.9503;
41.1000;0.9328;0.9350;
41.4000;0.9328;0.9274;
41.7000;0.9337;0.9248;
42.0000;0.9345;0.9198;
42.3000;0.9320;0.9147;
42.6000;0.9304;0.9121;
42.9000;0.9288;0.9172;
43.2000;0.9304;0.9325;
43.5000;0.9320;0.9350;
43.8000;0.9328;0.9325;
44.1000;0.9337;0.9325;
44.4000;0.9328;0.9248;
44.7000;0.9345;0.9274;
45.0000;0.9345;0.9248;
45.3000;0.9304;0.9223;
45.6000;0.9345;0.9325;
45.9000;0.9337;0.9147;
46.2000;0.9320;0.9121;
46.5000;0.9345;0.9198;
46.8000;0.9320;0.9172;
47.1000;0.9337;0.9248;
47.4000;0.9328;0.9248;
47.7000;0.9320;0.9248;
48.0000;0.9345;0.9350;
48.3000;0.9337;0.9248;
48.6000;0.9345;0.9350;
48.9000;0.9320;0.9325;
49.2000;0.9328;0.9376;
49.5000;0.9328;0.9299;
49.8000;0.9320;0.9223;
50.1000;0.9337;0.9325;
50.4000;0.9320;0.9299;
50.7000;0.9337;0.9350;
51.0000;0.9312;0.9325;
51.3000;0.9328;0.9325;
51.6000;0.9312;0.9274;
51.9000;0.9320;0.9223;
52.2000;0.9320;0.9248;
52.5000;0.9337;0.9223;
52.8000;0.9328;0.9198;
53.1000;0.9328;0.9198;
53.4000;0.9361;0.9248;
53.7000;0.9320;0.9172;
54.0000;0.9337;0.9223;
54.3000;0.9353;0.9299;
54.6000;0.9337;0.9223;
54.9000;0.9337;0.9248;
55.2000;0.9320;0.9172;
55.5000;0.9369;0.9299;
55.8000;0.9320;0.9172;
56.1000;0.9320;0.9198;
56.4000;0.9296;0.9223;
56.7000;0.9320;0.9172;
57.0000;0.9328;0.9121;
57.3000;0.9328;0.9070;
57.6000;0.9312;0.9019;
57.9000;0.9328;0.9070;
58.2000;0.9345;0.9019;
58.5000;0.9345;0.9045;
58.8000;0.9328;0.9096;
59.1000;0.9328;0.9147;
59.4000;0.9271;0.8943;
59.7000;0.9345;0.9198;
60.0000;0.9320;0.9198;
60.3000;0.9312;0.9274;
60.6000;0.9320;0.9350;
60.9000;0.9402;0.9656;
61.2000;0.9337;0.9427;
61.5000;0.9328;0.9401;
61.8000;0.9296;0.9299;
62.1000;0.9345;0.9299;
62.4000;0.9304;0.9274;
62.7000;0.9345;0.9325;
63.0000;0.9320;0.9223;
63.3000;0.9304;0.9198;
63.6000;0.9337;0.9299;
63.9000;0.9312;0.9248;
64.2000;0.9304;0.9172;
64.5000;0.9280;0.9147;
64.8000;0.9369;0.9452;
65.1000;0.9304;0.9350;
65.4000;0.9288;0.9299;
65.7000;0.9312;0.9350;
66.0000;0.9320;0.9299;
66.3000;0.9304;0.9198;
66.6000;0.9369;0.9376;
66.9000;0.9345;0.9248;
67.2000;0.9345;0.9274;
67.5000;0.9328;0.9172;
67.8000;0.9328;0.9223;
68.1000;0.9328;0.9248;
68.4000;0.9337;0.9198;
68.7000;0.9312;0.9198;
69.0000;0.9312;0.9223;
69.3000;0.9304;0.9198;
69.6000;0.9328;0.9198;
69.9000;0.9320;0.9198;
70.2000;0.9328;0.9172;
70.5000;0.9296;0.9096;
70.8000;0.9288;0.9147;
71.1000;0.9304;0.9198;
71.4000;0.9304;0.9172;
71.7000;0.9353;0.9299;
72.0000;0.9320;0.9248;
72.3000;0.9304;0.9121;
72.6000;0.9328;0.9248;
72.9000;0.9312;0.9299;
73.2000;0.9353;0.9529;
73.5000;0.9320;0.9299;
73.8000;0.9320;0.9299;
74.1000;0.9288;0.9198;
74.4000;0.9337;0.9198;
74.7000;0.9288;0.9198;
75.0000;0.9320;0.9274;
75.3000;0.9304;0.9198;
75.6000;0.9320;0.9274;
75.9000;0.9304;0.9299;
76.2000;0.9312;0.9299;
76.5000;0.9304;0.9172;
76.8000;0.9304;0.9198;
77.1000;0.9304;0.9223;
77.4000;0.9337;0.9274;
77.7000;0.9337;0.9223;
78.0000;0.9304;0.9223;
78.3000;0.9337;0.9147;
78.6000;0.9328;0.9172;
78.9000;0.9320;0.9274;
79.2000;0.9328;0.9325;
79.5000;0.9328;0.9325;
79.8000;0.9312;0.9274;
80.1000;0.9320;0.9248;
80.4000;0.9337;0.9274;
80.7000;0.9320;0.9299;
81.0000;0.9288;0.9172;
81.3000;0.9296;0.9198;
81.6000;0.9280;0.9198;
81.9000;0.9288;0.9248;
82.2000;0.9312;0.9325;
82.5000;0.9304;0.9325;
82.8000;0.9304;0.9325;
83.1000;0.9296;0.9299;
83.4000;0.9280;0.9274;
83.7000;0.9328;0.9274;
84.0000;0.9369;0.9350;
84.3000;0.9288;0.9274;
84.6000;0.9304;0.9248;
84.9000;0.9320;0.9274;
85.2000;0.9320;0.9198;
85.5000;0.9312;0.9198;
85.8000;0.9288;0.9223;
86.1000;0.9320;0.9325;
86.4000;0.9312;0.9401;
86.7000;0.9304;0.9248;
87.0000;0.9304;0.9198;
87.3000;0.9312;0.9198;
87.6000;0.9328;0.9299;
87.9000;0.9304;0.9198;
88.2000;0.9312;0.9223;
88.5000;0.9304;0.9274;
88.8000;0.9328;0.9427;
89.1000;0.9312;0.9452;
89.4000;0.9304;0.9427;
89.7000;0.9328;0.9478;
90.0000;0.9328;0.9503;
90.3000;0.9320;0.9427;
90.6000;0.9312;0.9350;
90.9000;0.9304;0.9350;
91.2000;0.9353;0.9427;
91.5000;0.9312;0.9325;
91.8000;0.9312;0.9299;
92.1000;0.9296;0.9121;
92.4000;0.9328;0.9325;
92.7000;0.9304;0.9248;
93.0000;0.9296;0.9274;
93.3000;0.9288;0.9147;
93.6000;0.9320;0.9223;
93.9000;0.9320;0.9248;
94.2000;0.9320;0.9248;
94.5000;0.9328;0.9299;
94.8000;0.9296;0.9325;
95.1000;0.9337;0.9452;
95.4000;0.9304;0.9452;
95.7000;0.9304;0.9427;
96.0000;0.9337;0.9452;
96.3000;0.9304;0.9401;
96.6000;0.9312;0.9452;
96.9000;0.9296;0.9325;
97.2000;0.9304;0.9401;
97.5000;0.9353;0.9580;
97.8000;0.9304;0.9478;
98.1000;0.9312;0.9529;
98.4000;0.9304;0.9529;
98.7000;0.9304;0.9478;
99.0000;0.9328;0.9427;
99.3000;0.9296;0.9274;
99.6000;0.9280;0.9198;
99.9000;0.9288;0.9223;
100.2000;0.9328;0.9350;
100.5000;0.9320;0.9325;
100.8000;0.9312;0.9274;
101.1000;0.9296;0.9198;
101.4000;0.9296;0.9172;
101.7000;0.9312;0.9198;
102.0000;0.9296;0.9223;
102.3000;0.9280;0.9172;
102.6000;0.9296;0.9248;
102.9000;0.9304;0.9248;
103.2000;0.9312;0.9325;
103.5000;0.9312;0.9325;
103.8000;0.9304;0.9299;
104.1000;0.9296;0.9350;
104.4000;0.9223;0.9147;
104.7000;0.9304;0.9350;
105.0000;0.9296;0.9401;
105.3000;0.9304;0.9478;
105.6000;0.9328;0.9503;
105.9000;0.9280;0.9427;
106.2000;0.9312;0.9427;
106.5000;0.9304;0.9452;
106.8000;0.9304;0.9401;
107.1000;0.9214;0.9198;
107.4000;0.9280;0.9350;
107.7000;0.9280;0.9299;
108.0000;0.9304;0.9401;
108.3000;0.9304;0.9401;
108.6000;0.9304;0.9427;
108.9000;0.9296;0.9376;
109.2000;0.9304;0.9427;
109.5000;0.9296;0.9376;
109.8000;0.9288;0.9350;
110.1000;0.9288;0.9401;
110.4000;0.9296;0.9401;
110.7000;0.9320;0.9478;
111.0000;0.9288;0.9401;
111.3000;0.9296;0.9350;
111.6000;0.9288;0.9223;
111.9000;0.9312;0.9274;
112.2000;0.9296;0.9299;
112.5000;0.9271;0.9248;
112.8000;0.9280;0.9274;
113.1000;0.9304;0.9248;
113.4000;0.9312;0.9223;
113.7000;0.9288;0.9172;
114.0000;0.9304;0.9172;
114.3000;0.9288;0.9223;
114.6000;0.9320;0.9299;
114.9000;0.9304;0.9350;
115.2000;0.9328;0.9427;
115.5000;0.9288;0.9401;
115.8000;0.9312;0.9350;
116.1000;0.9288;0.9299;
116.4000;0.9296;0.9376;
116.7000;0.9288;0.9427;
117.0000;0.9296;0.9452;
117.3000;0.9247;0.9248;
117.6000;0.9312;0.9325;
117.9000;0.9296;0.9376;
118.2000;0.9312;0.9452;
118.5000;0.9288;0.9478;
118.8000;0.9296;0.9529;
119.1000;0.9288;0.9452;
119.4000;0.9288;0.9401;
119.7000;0.9288;0.9401;
120.0000;0.9280;0.9478;
120.3000;0.9288;0.9452;
120.6000;0.9288;0.9452;
120.9000;0.9312;0.9427;
121.2000;0.9288;0.9478;
121.5000;0.9280;0.9478;
121.8000;0.9288;0.9478;
122.1000;0.9288;0.9478;
122.4000;0.9280;0.9427;
122.7000;0.9263;0.9274;
123.0000;0.9280;0.9376;
123.3000;0.9296;0.9503;
123.6000;0.9304;0.9554;
123.9000;0.9288;0.9605;
124.2000;0.9288;0.9554;
124.5000;0.9296;0.9554;
124.8000;0.9304;0.9554;
125.1000;0.9288;0.9478;
125.4000;0.9296;0.9478;
125.7000;0.9304;0.9478;
126.0000;0.9296;0.9427;
126.3000;0.9288;0.9401;
126.6000;0.9296;0.9376;
126.9000;0.9312;0.9325;
127.2000;0.9296;0.9376;
127.5000;0.9288;0.9376;
127.8000;0.9280;0.9401;
128.1000;0.9345;0.9503;
128.4000;0.9280;0.9325;
128.7000;0.9288;0.9350;
129.0000;0.9280;0.9274;
129.3000;0.9271;0.9223;
129.6000;0.9296;0.9248;
129.9000;0.9288;0.9299;
130.2000;0.9271;0.9299;
130.5000;0.9271;0.9350;
130.8000;0.9296;0.9452;
131.1000;0.9263;0.9299;
131.4000;0.9280;0.9350;
131.7000;0.9296;0.9401;
132.0000;0.9247;0.9325;
132.3000;0.9296;0.9452;
132.6000;0.9288;0.9376;
132.9000;0.9271;0.9325;
133.2000;0.9280;0.9223;
133.5000;0.9280;0.9198;
133.8000;0.9271;0.9172;
134.1000;0.9263;0.9198;
134.4000;0.9304;0.9427;
134.7000;0.9271;0.9376;
135.0000;0.9288;0.9427;
135.3000;0.9304;0.9325;
135.6000;0.9296;0.9350;
135.9000;0.9304;0.9401;
136.2000;0.9312;0.9427;
136.5000;0.9271;0.9401;
136.8000;0.9296;0.9478;
137.1000;0.9296;0.9478;
137.4000;0.9271;0.9401;
137.7000;0.9312;0.9452;
138.0000;0.9271;0.9376;
138.3000;0.9247;0.9350;
138.6000;0.9263;0.9427;
138.9000;0.9296;0.9452;
139.2000;0.9263;0.9350;
139.5000;0.9296;0.9401;
139.8000;0.9288;0.9376;
140.1000;0.9312;0.9427;
140.4000;0.9312;0.9427;
140.7000;0.9280;0.9274;
141.0000;0.9288;0.9325;
141.3000;0.9304;0.9325;
141.6000;0.9304;0.9299;
141.9000;0.9288;0.9274;
142.2000;0.9288;0.9376;
142.5000;0.9271;0.9376;
142.8000;0.9304;0.9401;
143.1000;0.9288;0.9427;
143.4000;0.9263;0.9350;
143.7000;0.9231;0.9401;
144.0000;0.9271;0.9401;
144.3000;0.9288;0.9427;
144.6000;0.9280;0.9478;
144.9000;0.9271;0.9401;
145.2000;0.9263;0.9452;
145.5000;0.9271;0.9427;
145.8000;0.9271;0.9325;
146.1000;0.9280;0.9350;
146.4000;0.9288;0.9401;
146.7000;0.9288;0.9325;
147.0000;0.9304;0.9401;
147.3000;0.9271;0.9401;
147.6000;0.9296;0.9503;
147.9000;0.9280;0.9529;
148.2000;0.9280;0.9529;
148.5000;0.9296;0.9503;
148.8000;0.9296;0.9478;
149.1000;0.9304;0.9478;
149.4000;0.9288;0.9248;
149.7000;0.9280;0.9223;
150.0000;0.9280;0.9350;
150.3000;0.9271;0.9376;
150.6000;0.9280;0.9427;
150.9000;0.9271;0.9427;
151.2000;0.9288;0.9503;
151.5000;0.9271;0.9529;
151.8000;0.9271;0.9554;
152.1000;0.9304;0.9631;
152.4000;0.9263;0.9656;
152.7000;0.9288;0.9733;
153.0000;0.9280;0.9758;
153.3000;0.9288;0.9733;
153.6000;0.9288;0.9656;
153.9000;0.9280;0.9529;
154.2000;0.9288;0.9605;
154.5000;0.9296;0.9605;
154.8000;0.9296;0.9580;
155.1000;0.9271;0.9478;
155.4000;0.9271;0.9529;
155.7000;0.9271;0.9503;
156.0000;0.9247;0.9478;
156.3000;0.9280;0.9478;
156.6000;0.9263;0.9529;
156.9000;0.9239;0.9427;
157.2000;0.9255;0.9452;
157.5000;0.9337;0.9631;
157.8000;0.9280;0.9554;
158.1000;0.9231;0.9427;
158.4000;0.9280;0.9503;
158.7000;0.9280;0.9580;
159.0000;0.9271;0.9554;
159.3000;0.9271;0.9529;
159.6000;0.9263;0.9478;
159.9000;0.9206;0.9198;
160.2000;0.9280;0.9452;
160.5000;0.9214;0.9325;
160.8000;0.9280;0.9503;
161.1000;0.9280;0.9452;
161.4000;0.9288;0.9452;
161.7000;0.9345;0.9529;
162.0000;0.9280;0.9376;
162.3000;0.9296;0.9376;
162.6000;0.9304;0.9401;
162.9000;0.9280;0.9427;
163.2000;0.9271;0.9401;
163.5000;0.9263;0.9452;
163.8000;0.9280;0.9427;
164.1000;0.9296;0.9376;
164.4000;0.9271;0.9325;
164.7000;0.9263;0.9376;
165.0000;0.9263;0.9376;
165.3000;0.9255;0.9427;
165.6000;0.9280;0.9503;
165.9000;0.9263;0.9529;
166.2000;0.9280;0.9554;
166.5000;0.9280;0.9478;
166.8000;0.9288;0.9452;
167.1000;0.9288;0.9427;
167.4000;0.9280;0.9376;
167.7000;0.9288;0.9452;
168.0000;0.9296;0.9554;
168.3000;0.9280;0.9478;
168.6000;0.9255;0.9427;
168.9000;0.9271;0.9427;
169.2000;0.9198;0.9223;
169.5000;0.9271;0.9401;
169.8000;0.9247;0.9325;
170.1000;0.9280;0.9452;
170.4000;0.9271;0.9452;
170.7000;0.9280;0.9452;
171.0000;0.9263;0.9376;
171.3000;0.9271;0.9401;
171.6000;0.9271;0.9350;
171.9000;0.9296;0.9427;
172.2000;0.9271;0.9401;
172.5000;0.9271;0.9427;
172.8000;0.9280;0.9503;
173.1000;0.9288;0.9503;
173.4000;0.9263;0.9427;
173.7000;0.9271;0.9350;
174.0000;0.9280;0.9350;
174.3000;0.9271;0.9299;
174.6000;0.9280;0.9401;
174.9000;0.9288;0.9401;
175.2000;0.9288;0.9427;
175.5000;0.9288;0.9478;
175.8000;0.9280;0.9427;
176.1000;0.9304;0.9554;
176.4000;0.9280;0.9529;
176.7000;0.9280;0.9529;
177.0000;0.9231;0.9325;
177.3000;0.9271;0.9452;
177.6000;0.9288;0.9452;
177.9000;0.9255;0.9478;
178.2000;0.9271;0.9554;
178.5000;0.9255;0.9503;
178.8000;0.9239;0.9452;
179.1000;0.9288;0.9554;
179.4000;0.9288;0.9605;
179.7000;0.9288;0.9605;
180.0000;0.9223;0.9427;
180.3000;0.9263;0.9478;
180.6000;0.9263;0.9529;
180.9000;0.9312;0.9631;
181.2000;0.9263;0.9580;
181.5000;0.9263;0.9452;
181.8000;0.9271;0.9427;
182.1000;0.9280;0.9350;
182.4000;0.9280;0.9376;
182.7000;0.9214;0.9248;
183.0000;0.9263;0.9452;
183.3000;0.9280;0.9478;
183.6000;0.9231;0.9376;
183.9000;0.9271;0.9452;
184.2000;0.9271;0.9452;
184.5000;0.9280;0.9427;
184.8000;0.9271;0.9452;
185.1000;0.9255;0.9478;
185.4000;0.9263;0.9427;
185.7000;0.9271;0.9350;
186.0000;0.9271;0.9350;
186.3000;0.9263;0.9376;
186.6000;0.9271;0.9376;
186.9000;0.9280;0.9401;
187.2000;0.9271;0.9350;
187.5000;0.9280;0.9350;
187.8000;0.9280;0.9376;
188.1000;0.9271;0.9274;
188.4000;0.9280;0.9350;
188.7000;0.9271;0.9401;
189.0000;0.9255;0.9401;
189.3000;0.9263;0.9376;
189.6000;0.9271;0.9401;
189.9000;0.9271;0.9376;
190.2000;0.9312;0.9529;
190.5000;0.9247;0.9376;
190.8000;0.9271;0.9427;
191.1000;0.9271;0.9427;
191.4000;0.9263;0.9503;
191.7000;0.9271;0.9503;
192.0000;0.9296;0.9529;
192.3000;0.9280;0.9427;
192.6000;0.9271;0.9325;
192.9000;0.9263;0.9223;
193.2000;0.9255;0.9172;
193.5000;0.9231;0.9147;
193.8000;0.9263;0.9223;
194.1000;0.9247;0.9198;
194.4000;0.9263;0.9121;
194.7000;0.9280;0.9147;
195.0000;0.9280;0.9172;
195.3000;0.9255;0.9172;
195.6000;0.9263;0.9172;
195.9000;0.9271;0.9198;
196.2000;0.9271;0.9223;
196.5000;0.9255;0.9172;
196.8000;0.9271;0.9223;
197.1000;0.9255;0.9274;
197.4000;0.9263;0.9299;
197.7000;0.9271;0.9299;
198.0000;0.9263;0.9274;
198.3000;0.9263;0.9248;
198.6000;0.9247;0.9248;
198.9000;0.9288;0.9299;
199.2000;0.9255;0.9299;
199.5000;0.9247;0.9350;
199.8000;0.9271;0.9452;
200.1000;0.9231;0.9299;
200.4000;0.9263;0.9427;
200.7000;0.9263;0.9376;
201.0000;0.9280;0.9503;
201.3000;0.9255;0.9427;
201.6000;0.9255;0.9376;
201.9000;0.9271;0.9401;
202.2000;0.9296;0.9401;
202.5000;0.9263;0.9223;
202.8000;0.9271;0.9274;
203.1000;0.9263;0.9172;
203.4000;0.9271;0.9223;
203.7000;0.9247;0.9172;
204.0000;0.9280;0.9299;
204.3000;0.9271;0.9248;
204.6000;0.9255;0.9299;
204.9000;0.9263;0.9325;
205.2000;0.9263;0.9274;
205.5000;0.9255;0.9325;
205.8000;0.9304;0.9452;
206.1000;0.9263;0.9350;
206.4000;0.9255;0.9427;
206.7000;0.9304;0.9503;
207.0000;0.9263;0.9350;
207.3000;0.9263;0.9401;
207.6000;0.9263;0.9478;
207.9000;0.9320;0.9580;
208.2000;0.9353;0.9580;
208.5000;0.9263;0.9299;
208.8000;0.9280;0.9427;
209.1000;0.9263;0.9427;
209.4000;0.9255;0.9452;
209.7000;0.9263;0.9427;
210.0000;0.9255;0.9350;
210.3000;0.9247;0.9299;
210.6000;0.9255;0.9350;
210.9000;0.9263;0.9376;
211.2000;0.9280;0.9401;
211.5000;0.9255;0.9427;
211.8000;0.9263;0.9478;
212.1000;0.9328;0.9656;
212.4000;0.9255;0.9478;
212.7000;0.9263;0.9350;
213.0000;0.9263;0.9350;
213.3000;0.9255;0.9452;
213.6000;0.9312;0.9605;
213.9000;0.9263;0.9478;
214.2000;0.9255;0.9478;
214.5000;0.9320;0.9656;
214.8000;0.9280;0.9529;
215.1000;0.9263;0.9503;
215.4000;0.9263;0.9529;
215.7000;0.9255;0.9529;
216.0000;0.9263;0.9554;
216.3000;0.9255;0.9427;
216.6000;0.9263;0.9401;
216.9000;0.9255;0.9401;
217.2000;0.9263;0.9503;
217.5000;0.9239;0.9529;
217.8000;0.9255;0.9554;
218.1000;0.9271;0.9605;
218.4000;0.9288;0.9554;
218.7000;0.9255;0.9452;
219.0000;0.9280;0.9452;
219.3000;0.9263;0.9350;
219.6000;0.9263;0.9248;
219.9000;0.9214;0.9172;
220.2000;0.9263;0.9248;
220.5000;0.9231;0.9198;
220.8000;0.9255;0.9223;
221.1000;0.9182;0.9070;
221.4000;0.9271;0.9299;
221.7000;0.9263;0.9198;
222.0000;0.9255;0.9198;
222.3000;0.9255;0.9274;
222.6000;0.9231;0.9223;
222.9000;0.9182;0.9070;
223.2000;0.9247;0.9376;
223.5000;0.9247;0.9325;
223.8000;0.9255;0.9248;
224.1000;0.9271;0.9299;
224.4000;0.9239;0.9223;
224.7000;0.9247;0.9274;
225.0000;0.9263;0.9376;
225.3000;0.9263;0.9401;
225.6000;0.9263;0.9401;
225.9000;0.9239;0.9401;
226.2000;0.9247;0.9376;
226.5000;0.9247;0.9401;
226.8000;0.9255;0.9401;
227.1000;0.9255;0.9452;
227.4000;0.9263;0.9427;
227.7000;0.9263;0.9427;
228.0000;0.9263;0.9401;
228.3000;0.9239;0.9274;
228.6000;0.9255;0.9350;
228.9000;0.9247;0.9427;
229.2000;0.9296;0.9529;
229.5000;0.9255;0.9427;
229.8000;0.9206;0.9452;
230.1000;0.9174;0.9350;
230.4000;0.9255;0.9605;
230.7000;0.9247;0.9554;
231.0000;0.9239;0.9503;
231.3000;0.9263;0.9503;
231.6000;0.9239;0.9427;
231.9000;0.9271;0.9452;
232.2000;0.9255;0.9401;
232.5000;0.9231;0.9350;
232.8000;0.9263;0.9427;
233.1000;0.9255;0.9350;
233.4000;0.9206;0.9248;
233.7000;0.9239;0.9274;
234.0000;0.9255;0.9274;
234.3000;0.9255;0.9376;
234.6000;0.9280;0.9376;
234.9000;0.9255;0.9248;
235.2000;0.9247;0.9299;
235.5000;0.9206;0.9198;
235.8000;0.9247;0.9350;
236.1000;0.9263;0.9299;
236.4000;0.9263;0.9274;
236.7000;0.9296;0.9350;
237.0000;0.9255;0.9401;
237.3000;0.9271;0.9350;
237.6000;0.9271;0.9350;
237.9000;0.9263;0.9325;
238.2000;0.9182;0.9019;
238.5000;0.9255;0.9325;
238.8000;0.9320;0.9427;
239.1000;0.9247;0.9274;
239.4000;0.9271;0.9299;
239.7000;0.9255;0.9299;
240.0000;0.9247;0.9248;
240.3000;0.9263;0.9376;
240.6000;0.9255;0.9401;
240.9000;0.9255;0.9452;
241.2000;0.9263;0.9580;
241.5000;0.9255;0.9529;
241.8000;0.9255;0.9452;
242.1000;0.9255;0.9376;
242.4000;0.9263;0.9401;
242.7000;0.9247;0.9452;
243.0000;0.9255;0.9580;
243.3000;0.9255;0.9529;
243.6000;0.9247;0.9452;
243.9000;0.9255;0.9478;
244.2000;0.9239;0.9580;
244.5000;0.9263;0.9554;
244.8000;0.9247;0.9529;
245.1000;0.9223;0.9478;
245.4000;0.9263;0.9503;
245.7000;0.9247;0.9503;
246.0000;0.9206;0.9427;
246.3000;0.9231;0.9478;
246.6000;0.9239;0.9529;
246.9000;0.9247;0.9554;
247.2000;0.9247;0.9452;
247.5000;0.9247;0.9376;
247.8000;0.9247;0.9376;
248.1000;0.9263;0.9376;
248.4000;0.9255;0.9478;
248.7000;0.9296;0.9529;
249.0000;0.9255;0.9350;
249.3000;0.9263;0.9401;
249.6000;0.9280;0.9401;
249.9000;0.9271;0.9376;
250.2000;0.9280;0.9452;
250.5000;0.9271;0.9401;
250.8000;0.9239;0.9376;
251.1000;0.9263;0.9299;
251.4000;0.9239;0.9325;
251.7000;0.9239;0.9274;
252.0000;0.9255;0.9325;
252.3000;0.9214;0.9274;
252.6000;0.9239;0.9350;
252.9000;0.9239;0.9376;
253.2000;0.9239;0.9325;
253.5000;0.9255;0.9274;
253.8000;0.9247;0.9299;
254.1000;0.9296;0.9401;
254.4000;0.9247;0.9350;
254.7000;0.9182;0.9172;
255.0000;0.9255;0.9452;
255.3000;0.9223;0.9299;
255.6000;0.9255;0.9401;
255.9000;0.9255;0.9503;
256.2000;0.9280;0.9529;
256.5000;0.9247;0.9427;
256.8000;0.9271;0.9503;
257.1000;0.9255;0.9529;
257.4000;0.9255;0.9503;
257.7000;0.9231;0.9478;
258.0000;0.9247;0.9452;
258.3000;0.9255;0.9503;
258.6000;0.9255;0.9580;
258.9000;0.9263;0.9503;
259.2000;0.9263;0.9478;
259.5000;0.9255;0.9605;
259.8000;0.9288;0.9605;
260.1000;0.9255;0.9580;
260.4000;0.9239;0.9503;
260.7000;0.9239;0.9529;
261.0000;0.9255;0.9529;
261.3000;0.9247;0.9427;
261.6000;0.9247;0.9401;
261.9000;0.9247;0.9427;
262.2000;0.9239;0.9478;
262.5000;0.9255;0.9427;
262.8000;0.9304;0.9478;
263.1000;0.9255;0.9376;
263.4000;0.9255;0.9427;
263.7000;0.9255;0.9503;
264.0000;0.9255;0.9580;
264.3000;0.9247;0.9554;
264.6000;0.9263;0.9529;
264.9000;0.9247;0.9478;
265.2000;0.9255;0.9452;
265.5000;0.9247;0.9452;
265.8000;0.9247;0.9427;
266.1000;0.9263;0.9427;
266.4000;0.9263;0.9376;
266.7000;0.9255;0.9325;
267.0000;0.9263;0.9376;
267.3000;0.9263;0.9376;
267.6000;0.9255;0.9325;
267.9000;0.9255;0.9325;
268.2000;0.9255;0.9401;
268.5000;0.9182;0.9223;
268.8000;0.9263;0.9401;
269.1000;0.9231;0.9325;
269.4000;0.9239;0.9376;
269.7000;0.9263;0.9427;
270.0000;0.9263;0.9478;
270.3000;0.9255;0.9478;
270.6000;0.9239;0.9401;
270.9000;0.9247;0.9452;
271.2000;0.9255;0.9452;
271.5000;0.9247;0.9452;
271.8000;0.9239;0.9427;
272.1000;0.9247;0.9401;
272.4000;0.9271;0.9503;
272.7000;0.9263;0.9478;
273.0000;0.9247;0.9350;
273.3000;0.9239;0.9427;
273.6000;0.9255;0.9401;
273.9000;0.9223;0.9325;
274.2000;0.9247;0.9452;
274.5000;0.9304;0.9605;
274.8000;0.9255;0.9401;
275.1000;0.9255;0.9427;
275.4000;0.9263;0.9452;
275.7000;0.9263;0.9503;
276.0000;0.9255;0.9452;
276.3000;0.9247;0.9376;
276.6000;0.9149;0.9172;
276.9000;0.9247;0.9376;
277.2000;0.9223;0.9427;
277.5000;0.9263;0.9554;
277.8000;0.9263;0.9631;
278.1000;0.9239;0.9631;
278.4000;0.9255;0.9656;
278.7000;0.9263;0.9554;
279.0000;0.9247;0.9503;
279.3000;0.9239;0.9478;
279.6000;0.9247;0.9427;
279.9000;0.9239;0.9299;
280.2000;0.9206;0.9172;
280.5000;0.9231;0.9350;
280.8000;0.9231;0.9350;
281.1000;0.9247;0.9401;
281.4000;0.9239;0.9427;
281.7000;0.9223;0.9350;
282.0000;0.9255;0.9529;
282.3000;0.9206;0.9427;
282.6000;0.9239;0.9580;
282.9000;0.9247;0.9580;
283.2000;0.9312;0.9733;
283.5000;0.9247;0.9554;
283.8000;0.9247;0.9580;
284.1000;0.9255;0.9554;
284.4000;0.9255;0.9580;
284.7000;0.9223;0.9554;
285.0000;0.9247;0.9631;
285.3000;0.9296;0.9758;
285.6000;0.9239;0.9554;
285.9000;0.9231;0.9580;
286.2000;0.9231;0.9580;
286.5000;0.9231;0.9554;
286.8000;0.9247;0.9529;
287.1000;0.9231;0.9529;
287.4000;0.9247;0.9554;
287.7000;0.9247;0.9529;
288.0000;0.9247;0.9529;
288.3000;0.9231;0.9452;
288.6000;0.9239;0.9478;
288.9000;0.9255;0.9452;
289.2000;0.9223;0.9427;
289.5000;0.9247;0.9478;
289.8000;0.9247;0.9452;
290.1000;0.9263;0.9605;
290.4000;0.9263;0.9656;
290.7000;0.9247;0.9682;
291.0000;0.9239;0.9554;
291.3000;0.9239;0.9529;
291.6000;0.9247;0.9580;
291.9000;0.9239;0.9605;
292.2000;0.9239;0.9707;
292.5000;0.9239;0.9682;
292.8000;0.9231;0.9656;
293.1000;0.9255;0.9733;
293.4000;0.9271;0.9860;
293.7000;0.9255;0.9733;
294.0000;0.9255;0.9682;
294.3000;0.9271;0.9707;
294.6000;0.9198;0.9631;
294.9000;0.9231;0.9784;
295.2000;0.9239;0.9809;
295.5000;0.9271;0.9885;
295.8000;0.9223;0.9758;
296.1000;0.9247;0.9758;
296.4000;0.9247;0.9707;
296.7000;0.9247;0.9682;
297.0000;0.9223;0.9631;
297.3000;0.9239;0.9682;
297.6000;0.9206;0.9656;
297.9000;0.9263;0.9758;
298.2000;0.9231;0.9656;
298.5000;0.9214;0.9605;
298.8000;0.9231;0.9605;
299.1000;0.9239;0.9605;
299.4000;0.9255;0.9707;
299.7000;0.9271;0.9860;
300.0000;0.9247;0.9758;
300.3000;0.9255;0.9784;
300.6000;0.9239;0.9707;
300.9000;0.9263;0.9758;
301.2000;0.9304;0.9834;
301.5000;0.9288;0.9733;
301.8000;0.9247;0.9758;
302.1000;0.9247;0.9784;
302.4000;0.9223;0.9784;
302.7000;0.9214;0.9707;
303.0000;0.9231;0.9733;
303.3000;0.9247;0.9809;
303.6000;0.9247;0.9758;
303.9000;0.9239;0.9758;
304.2000;0.9247;0.9758;
304.5000;0.9263;0.9809;
304.8000;0.9239;0.9733;
305.1000;0.9223;0.9605;
305.4000;0.9304;0.9834;
305.7000;0.9239;0.9580;
306.0000;0.9247;0.9554;
306.3000;0.9231;0.9503;
306.6000;0.9255;0.9554;
306.9000;0.9247;0.9580;
307.2000;0.9239;0.9427;
307.5000;0.9231;0.9299;
307.8000;0.9239;0.9274;
308.1000;0.9231;0.9274;
308.4000;0.9247;0.9274;
308.7000;0.9239;0.9350;
309.0000;0.9247;0.9325;
309.3000;0.9247;0.9325;
309.6000;0.9247;0.9299;
309.9000;0.9231;0.9274;
310.2000;0.9239;0.9248;
310.5000;0.9247;0.9223;
310.8000;0.9239;0.9223;
311.1000;0.9223;0.9248;
311.4000;0.9190;0.9172;
311.7000;0.9231;0.9198;
312.0000;0.9239;0.9299;
312.3000;0.9214;0.9274;
312.6000;0.9231;0.9350;
312.9000;0.9223;0.9401;
313.2000;0.9231;0.9401;
313.5000;0.9239;0.9350;
313.8000;0.9231;0.9248;
314.1000;0.9239;0.9248;
314.4000;0.9280;0.9350;
314.7000;0.9239;0.9299;
315.0000;0.9206;0.9198;
315.3000;0.9239;0.9274;
315.6000;0.9239;0.9223;
315.9000;0.9255;0.9401;
316.2000;0.9223;0.9376;
316.5000;0.9247;0.9376;
316.8000;0.9239;0.9299;
317.1000;0.9247;0.9325;
317.4000;0.9239;0.9350;
317.7000;0.9239;0.9325;
318.0000;0.9239;0.9350;
318.3000;0.9231;0.9376;
318.6000;0.9239;0.9325;
318.9000;0.9231;0.9325;
319.2000;0.9231;0.9274;
319.5000;0.9231;0.9274;
319.8000;0.9247;0.9401;
320.1000;0.9223;0.9401;
320.4000;0.9214;0.9299;
320.7000;0.9158;0.9223;
321.0000;0.9214;0.9427;
321.3000;0.9296;0.9580;
321.6000;0.9231;0.9325;
321.9000;0.9223;0.9299;
322.2000;0.9247;0.9325;
322.5000;0.9231;0.9223;
322.8000;0.9239;0.9223;
323.1000;0.9223;0.9172;
323.4000;0.9239;0.9248;
323.7000;0.9247;0.9350;
324.0000;0.9239;0.9299;
324.3000;0.9223;0.9299;
324.6000;0.9231;0.9325;
324.9000;0.9247;0.9401;
325.2000;0.9247;0.9376;
325.5000;0.9304;0.9401;
325.8000;0.9247;0.9198;
326.1000;0.9239;0.9248;
326.4000;0.9247;0.9274;
326.7000;0.9223;0.9376;
327.0000;0.9239;0.9350;
327.3000;0.9239;0.9274;
327.6000;0.9247;0.9248;
327.9000;0.9231;0.9121;
328.2000;0.9239;0.9070;
328.5000;0.9239;0.9096;
328.8000;0.9239;0.9096;
329.1000;0.9231;0.9096;
329.4000;0.9223;0.9172;
329.7000;0.9231;0.9223;
330.0000;0.9231;0.9325;
330.3000;0.9247;0.9478;
330.6000;0.9247;0.9401;
330.9000;0.9239;0.9427;
331.2000;0.9223;0.9401;
331.5000;0.9239;0.9376;
331.8000;0.9231;0.9401;
332.1000;0.9214;0.9427;
332.4000;0.9247;0.9529;
332.7000;0.9239;0.9580;
333.0000;0.9223;0.9452;
333.3000;0.9288;0.9656;
333.6000;0.9231;0.9580;
333.9000;0.9239;0.9580;
334.2000;0.9231;0.9580;
334.5000;0.9231;0.9529;
334.8000;0.9239;0.9529;
335.1000;0.9231;0.9503;
335.4000;0.9239;0.9452;
335.7000;0.9247;0.9376;
336.0000;0.9247;0.9325;
336.3000;0.9247;0.9325;
336.6000;0.9304;0.9350;
336.9000;0.9239;0.9248;
337.2000;0.9239;0.9172;
337.5000;0.9239;0.9121;
337.8000;0.9214;0.9070;
338.1000;0.9198;0.9019;
338.4000;0.9223;0.8994;
338.7000;0.9255;0.9121;
339.0000;0.9255;0.9172;
339.3000;0.9255;0.9172;
339.6000;0.9231;0.9172;
339.9000;0.9247;0.9350;
340.2000;0.9239;0.9350;
340.5000;0.9247;0.9325;
340.8000;0.9247;0.9376;
341.1000;0.9231;0.9376;
341.4000;0.9206;0.9376;
341.7000;0.9231;0.9478;
342.0000;0.9198;0.9427;
342.3000;0.9223;0.9529;
342.6000;0.9247;0.9529;
342.9000;0.9280;0.9529;
343.2000;0.9158;0.9198;
343.5000;0.9231;0.9452;
343.8000;0.9223;0.9427;
344.1000;0.9239;0.9401;
344.4000;0.9214;0.9376;
344.7000;0.9223;0.9452;
345.0000;0.9231;0.9529;
345.3000;0.9239;0.9580;
345.6000;0.9255;0.9529;
345.9000;0.9239;0.9503;
346.2000;0.9255;0.9452;
346.5000;0.9271;0.9554;
346.8000;0.9247;0.9401;
347.1000;0.9223;0.9325;
347.4000;0.9247;0.9427;
347.7000;0.9247;0.9401;
348.0000;0.9239;0.9401;
348.3000;0.9214;0.9376;
348.6000;0.9231;0.9427;
348.9000;0.9223;0.9427;
349.2000;0.9231;0.9376;
349.5000;0.9214;0.9248;
349.8000;0.9239;0.9274;
350.1000;0.9239;0.9325;
350.4000;0.9247;0.9376;
350.7000;0.9239;0.9401;
351.0000;0.9214;0.9299;
351.3000;0.9231;0.9376;
351.6000;0.9223;0.9427;
351.9000;0.9239;0.9503;
352.2000;0.9214;0.9503;
352.5000;0.9239;0.9605;
352.8000;0.9223;0.9631;
353.1000;0.9231;0.9529;
353.4000;0.9247;0.9580;
353.7000;0.9223;0.9427;
354.0000;0.9239;0.9529;
354.3000;0.9206;0.9427;
354.6000;0.9206;0.9401;
354.9000;0.9214;0.9401;
355.2000;0.9182;0.9401;
355.5000;0.9223;0.9554;
355.8000;0.9231;0.9554;
356.1000;0.9214;0.9452;
356.4000;0.9231;0.9452;
356.7000;0.9223;0.9350;
357.0000;0.9239;0.9376;
357.3000;0.9247;0.9503;
357.6000;0.9223;0.9401;
357.9000;0.9231;0.9401;
358.2000;0.9182;0.9299;
358.5000;0.9206;0.9452;
358.8000;0.9239;0.9529;
359.1000;0.9214;0.9503;
359.4000;0.9231;0.9529;
359.7000;0.9296;0.9631;
360.0000;0.9214;0.9529;
360.3000;0.9263;0.9605;
360.6000;0.9320;0.9809;
360.9000;0.9239;0.9605;
361.2000;0.9198;0.9452;
361.5000;0.9214;0.9427;
361.8000;0.9214;0.9478;
362.1000;0.9239;0.9605;
362.4000;0.9214;0.9605;
362.7000;0.9214;0.9631;
363.0000;0.9231;0.9605;
363.3000;0.9247;0.9682;
363.6000;0.9206;0.9733;
363.9000;0.9223;0.9784;
364.2000;0.9239;0.9784;
364.5000;0.9214;0.9682;
364.8000;0.9198;0.9554;
365.1000;0.9214;0.9529;
365.4000;0.9214;0.9503;
365.7000;0.9206;0.9478;
366.0000;0.9206;0.9427;
366.3000;0.9223;0.9452;
366.6000;0.9231;0.9452;
366.9000;0.9223;0.9452;
367.2000;0.9247;0.9554;
367.5000;0.9166;0.9299;
367.8000;0.9231;0.9376;
368.1000;0.9214;0.9325;
368.4000;0.9239;0.9427;
368.7000;0.9198;0.9325;
369.0000;0.9239;0.9529;
369.3000;0.9214;0.9452;
369.6000;0.9214;0.9427;
369.9000;0.9263;0.9503;
370.2000;0.9231;0.9427;
370.5000;0.9247;0.9427;
370.8000;0.9223;0.9427;
371.1000;0.9223;0.9452;
371.4000;0.9231;0.9427;
371.7000;0.9247;0.9478;
372.0000;0.9296;0.9656;
372.3000;0.9231;0.9529;
372.6000;0.9223;0.9401;
372.9000;0.9231;0.9478;
373.2000;0.9231;0.9503;
373.5000;0.9174;0.9325;
373.8000;0.9214;0.9401;
374.1000;0.9206;0.9248;
374.4000;0.9214;0.9350;
374.7000;0.9231;0.9427;
375.0000;0.9223;0.9401;
375.3000;0.9223;0.9376;
375.6000;0.9247;0.9452;
375.9000;0.9239;0.9452;
376.2000;0.9231;0.9529;
376.5000;0.9231;0.9503;
376.8000;0.9223;0.9554;
377.1000;0.9214;0.9554;
377.4000;0.9239;0.9605;
377.7000;0.9214;0.9580;
378.0000;0.9231;0.9605;
378.3000;0.9206;0.9529;
378.6000;0.9231;0.9605;
378.9000;0.9206;0.9529;
379.2000;0.9239;0.9631;
379.5000;0.9198;0.9580;
379.8000;0.9239;0.9631;
380.1000;0.9214;0.9656;
380.4000;0.9206;0.9656;
380.7000;0.9206;0.9682;
381.0000;0.9206;0.9631;
381.3000;0.9206;0.9478;
381.6000;0.9231;0.9529;
381.9000;0.9231;0.9503;
382.2000;0.9223;0.9452;
382.5000;0.9239;0.9401;
382.8000;0.9214;0.9427;
383.1000;0.9231;0.9554;
383.4000;0.9214;0.9529;
383.7000;0.9206;0.9503;
384.0000;0.9214;0.9529;
384.3000;0.9214;0.9503;
384.6000;0.9198;0.9427;
384.9000;0.9231;0.9529;
385.2000;0.9271;0.9580;
385.5000;0.9214;0.9452;
385.8000;0.9223;0.9350;
386.1000;0.9239;0.9325;
386.4000;0.9231;0.9376;
386.7000;0.9288;0.9554;
387.0000;0.9214;0.9452;
387.3000;0.9231;0.9478;
387.6000;0.9206;0.9427;
387.9000;0.9190;0.9325;
388.2000;0.9223;0.9401;
388.5000;0.9247;0.9503;
388.8000;0.9223;0.9529;
389.1000;0.9206;0.9427;
389.4000;0.9214;0.9401;
389.7000;0.9206;0.9350;
390.0000;0.9182;0.9223;
390.3000;0.9206;0.9376;
390.6000;0.9231;0.9427;
390.9000;0.9214;0.9350;
391.2000;0.9206;0.9325;
391.5000;0.9231;0.9376;
391.8000;0.9231;0.9325;
392.1000;0.9214;0.9223;
392.4000;0.9214;0.9325;
392.7000;0.9182;0.9299;
393.0000;0.9280;0.9401;
393.3000;0.9214;0.9325;
393.6000;0.9214;0.9198;
393.9000;0.9182;0.9121;
394.2000;0.9206;0.9274;
394.5000;0.9190;0.9248;
394.8000;0.9214;0.9299;
395.1000;0.9206;0.9299;
395.4000;0.9206;0.9299;
395.7000;0.9198;0.9274;
396.0000;0.9206;0.9350;
396.3000;0.9182;0.9223;
396.6000;0.9198;0.9274;
396.9000;0.9206;0.9248;
397.2000;0.9231;0.9427;
397.5000;0.9223;0.9401;
397.8000;0.9223;0.9401;
398.1000;0.9206;0.9376;
398.4000;0.9223;0.9325;
398.7000;0.9198;0.9248;
399.0000;0.9206;0.9248;
399.3000;0.9214;0.9325;
399.6000;0.9214;0.9198;
399.9000;0.9214;0.9198;
400.2000;0.9223;0.9325;
400.5000;0.9174;0.9274;
400.8000;0.9214;0.9350;
401.1000;0.9231;0.9401;
401.4000;0.9247;0.9503;
401.7000;0.9223;0.9427;
402.0000;0.9206;0.9452;
402.3000;0.9214;0.9529;
402.6000;0.9214;0.9529;
402.9000;0.9223;0.9605;
403.2000;0.9231;0.9605;
403.5000;0.9206;0.9529;
403.8000;0.9231;0.9478;
404.1000;0.9214;0.9401;
404.4000;0.9239;0.9401;
404.7000;0.9223;0.9376;
405.0000;0.9206;0.9401;
405.3000;0.9223;0.9452;
405.6000;0.9190;0.9401;
405.9000;0.9198;0.9452;
406.2000;0.9214;0.9605;
406.5000;0.9271;0.9758;
406.8000;0.9198;0.9554;
407.1000;0.9206;0.9503;
407.4000;0.9206;0.9503;
407.7000;0.9223;0.9529;
408.0000;0.9206;0.9554;
408.3000;0.9304;0.9758;
408.6000;0.9182;0.9427;
408.9000;0.9206;0.9503;
409.2000;0.9231;0.9554;
409.5000;0.9182;0.9503;
409.8000;0.9206;0.9478;
410.1000;0.9166;0.9376;
410.4000;0.9206;0.9427;
410.7000;0.9206;0.9427;
411.0000;0.9214;0.9554;
411.3000;0.9239;0.9554;
411.6000;0.9263;0.9580;
411.9000;0.9223;0.9478;
412.2000;0.9214;0.9529;
412.5000;0.9206;0.9401;
412.8000;0.9223;0.9376;
413.1000;0.9182;0.9325;
413.4000;0.9190;0.9325;
413.7000;0.9214;0.9350;
414.0000;0.9198;0.9376;
414.3000;0.9206;0.9350;
414.6000;0.9214;0.9350;
414.9000;0.9214;0.9325;
415.2000;0.9182;0.9198;
415.5000;0.9231;0.9427;
415.8000;0.9214;0.9401;
416.1000;0.9206;0.9401;
416.4000;0.9198;0.9401;
416.7000;0.9223;0.9325;
417.0000;0.9206;0.9299;
417.3000;0.9223;0.9427;
417.6000;0.9206;0.9478;
417.9000;0.9166;0.9325;
418.2000;0.9206;0.9427;
418.5000;0.9190;0.9401;
418.8000;0.9182;0.9401;
419.1000;0.9206;0.9503;
419.4000;0.9231;0.9503;
419.7000;0.9214;0.9478;
420.0000;0.9198;0.9401;
420.3000;0.9182;0.9401;
420.6000;0.9223;0.9580;
420.9000;0.9198;0.9529;
421.2000;0.9198;0.9605;
421.5000;0.9198;0.9605;
421.8000;0.9206;0.9554;
422.1000;0.9190;0.9452;
422.4000;0.9198;0.9478;
422.7000;0.9206;0.9554;
423.0000;0.9214;0.9478;
423.3000;0.9223;0.9554;
423.6000;0.9198;0.9529;
423.9000;0.9198;0.9580;
424.2000;0.9149;0.9452;
424.5000;0.9247;0.9631;
424.8000;0.9206;0.9478;
425.1000;0.9214;0.9478;
425.4000;0.9158;0.9376;
425.7000;0.9223;0.9580;
426.0000;0.9223;0.9554;
426.3000;0.9263;0.9682;
426.6000;0.9239;0.9682;
426.9000;0.9223;0.9605;
427.2000;0.9239;0.9605;
427.5000;0.9198;0.9503;
427.8000;0.9214;0.9605;
428.1000;0.9223;0.9707;
428.4000;0.9206;0.9682;
428.7000;0.9223;0.9580;
429.0000;0.9198;0.9478;
429.3000;0.9271;0.9605;
429.6000;0.9231;0.9427;
429.9000;0.9223;0.9376;
430.2000;0.9190;0.9223;
430.5000;0.9231;0.9299;
430.8000;0.9214;0.9376;
431.1000;0.9214;0.9350;
431.4000;0.9182;0.9223;
431.7000;0.9182;0.9299;
432.0000;0.9223;0.9427;
432.3000;0.9214;0.9376;
432.6000;0.9223;0.9452;
432.9000;0.9206;0.9350;
433.2000;0.9231;0.9452;
433.5000;0.9206;0.9452;
433.8000;0.9214;0.9427;
434.1000;0.9231;0.9350;
434.4000;0.9214;0.9325;
434.7000;0.9214;0.9223;
435.0000;0.9214;0.9223;
435.3000;0.9206;0.9198;
435.6000;0.9206;0.9198;
435.9000;0.9174;0.9147;
436.2000;0.9206;0.9198;
436.5000;0.9198;0.9198;
436.8000;0.9214;0.9299;
437.1000;0.9214;0.9350;
437.4000;0.9231;0.9478;
437.7000;0.9206;0.9452;
438.0000;0.9206;0.9350;
438.3000;0.9223;0.9401;
438.6000;0.9206;0.9427;
438.9000;0.9182;0.9350;
439.2000;0.9190;0.9427;
439.5000;0.9214;0.9529;
439.8000;0.9206;0.9529;
440.1000;0.9206;0.9478;
440.4000;0.9206;0.9478;
440.7000;0.9223;0.9427;
441.0000;0.9214;0.9376;
441.3000;0.9214;0.9274;
441.6000;0.9158;0.9147;
441.9000;0.9214;0.9198;
442.2000;0.9206;0.9223;
442.5000;0.9198;0.9248;
442.8000;0.9206;0.9274;
443.1000;0.9214;0.9325;
443.4000;0.9214;0.9350;
443.7000;0.9206;0.9427;
444.0000;0.9198;0.9376;
444.3000;0.9206;0.9350;
444.6000;0.9214;0.9503;
444.9000;0.9206;0.9478;
445.2000;0.9206;0.9376;
445.5000;0.9223;0.9452;
445.8000;0.9206;0.9452;
446.1000;0.9214;0.9427;
446.4000;0.9223;0.9427;
446.7000;0.9223;0.9401;
447.0000;0.9231;0.9452;
447.3000;0.9231;0.9452;
447.6000;0.9223;0.9503;
447.9000;0.9214;0.9503;
448.2000;0.9206;0.9554;
448.5000;0.9304;0.9733;
448.8000;0.9214;0.9478;
449.1000;0.9214;0.9427;
449.4000;0.9166;0.9350;
449.7000;0.9223;0.9452;
450.0000;0.9214;0.9452;
450.3000;0.9198;0.9478;
450.6000;0.9206;0.9478;
450.9000;0.9198;0.9478;
451.2000;0.9198;0.9452;
451.5000;0.9198;0.9452;
451.8000;0.9174;0.9427;
452.1000;0.9190;0.9478;
452.4000;0.9198;0.9427;
452.7000;0.9190;0.9350;
453.0000;0.9190;0.9350;
453.3000;0.9206;0.9325;
453.6000;0.9214;0.9299;
453.9000;0.9206;0.9248;
454.2000;0.9198;0.9223;
454.5000;0.9206;0.9274;
454.8000;0.9182;0.9096;
455.1000;0.9158;0.9070;
455.4000;0.9190;0.9248;
455.7000;0.9198;0.9376;
456.0000;0.9190;0.9376;
456.3000;0.9198;0.9376;
456.6000;0.9182;0.9325;
456.9000;0.9182;0.9325;
457.2000;0.9198;0.9350;
457.5000;0.9214;0.9401;
457.8000;0.9239;0.9503;
458.1000;0.9198;0.9401;
458.4000;0.9214;0.9478;
458.7000;0.9206;0.9452;
459.0000;0.9214;0.9427;
459.3000;0.9198;0.9376;
459.6000;0.9206;0.9452;
459.9000;0.9214;0.9478;
460.2000;0.9190;0.9529;
460.5000;0.9198;0.9580;
460.8000;0.9206;0.9605;
461.1000;0.9182;0.9554;
461.4000;0.9223;0.9580;
461.7000;0.9206;0.9529;
462.0000;0.9198;0.9529;
462.3000;0.9206;0.9503;
462.6000;0.9190;0.9452;
462.9000;0.9198;0.9529;
463.2000;0.9214;0.9554;
463.5000;0.9263;0.9631;
463.8000;0.9125;0.9274;
464.1000;0.9206;0.9376;
464.4000;0.9206;0.9376;
464.7000;0.9198;0.9401;
465.0000;0.9214;0.9401;
465.3000;0.9280;0.9554;
465.6000;0.9198;0.9325;
465.9000;0.9206;0.9376;
466.2000;0.9280;0.9452;
466.5000;0.9206;0.9248;
466.8000;0.9206;0.9325;
467.1000;0.9190;0.9299;
467.4000;0.9182;0.9274;
467.7000;0.9198;0.9299;
468.0000;0.9223;0.9325;
468.3000;0.9190;0.9376;
468.6000;0.9206;0.9427;
468.9000;0.9206;0.9554;
469.2000;0.9214;0.9554;
469.5000;0.9206;0.9529;
469.8000;0.9206;0.9503;
470.1000;0.9214;0.9478;
470.4000;0.9206;0.9529;
470.7000;0.9198;0.9478;
471.0000;0.9206;0.9427;
471.3000;0.9214;0.9401;
471.6000;0.9206;0.9376;
471.9000;0.9198;0.9376;
472.2000;0.9206;0.9478;
472.5000;0.9198;0.9401;
472.8000;0.9206;0.9452;
473.1000;0.9182;0.9427;
473.4000;0.9166;0.9248;
473.7000;0.9190;0.9401;
474.0000;0.9206;0.9350;
474.3000;0.9149;0.9325;
474.6000;0.9198;0.9274;
474.9000;0.9190;0.9274;
475.2000;0.9206;0.9248;
475.5000;0.9198;0.9248;
475.8000;0.9198;0.9274;
476.1000;0.9198;0.9274;
476.4000;0.9206;0.9376;
476.7000;0.9206;0.9401;
477.0000;0.9206;0.9401;
477.3000;0.9206;0.9223;
477.6000;0.9214;0.9223;
477.9000;0.9198;0.9223;
478.2000;0.9280;0.9452;
478.5000;0.9190;0.9274;
478.8000;0.9223;0.9376;
479.1000;0.9223;0.9452;
479.4000;0.9206;0.9529;
479.7000;0.9190;0.9503;
480.0000;0.9198;0.9452;
480.3000;0.9206;0.9478;
480.6000;0.9182;0.9401;
480.9000;0.9182;0.9350;
481.2000;0.9206;0.9427;
481.5000;0.9239;0.9478;
481.8000;0.9182;0.9401;
482.1000;0.9198;0.9376;
482.4000;0.9174;0.9325;
482.7000;0.9190;0.9452;
483.0000;0.9198;0.9478;
483.3000;0.9206;0.9452;
483.6000;0.9182;0.9325;
483.9000;0.9166;0.9172;
484.2000;0.9214;0.9376;
484.5000;0.9149;0.9223;
484.8000;0.9190;0.9325;
485.1000;0.9296;0.9707;
485.4000;0.9190;0.9529;
485.7000;0.9166;0.9478;
486.0000;0.9190;0.9427;
486.3000;0.9182;0.9325;
486.6000;0.9239;0.9503;
486.9000;0.9158;0.9299;
487.2000;0.9190;0.9452;
487.5000;0.9198;0.9529;
487.8000;0.9214;0.9554;
488.1000;0.9223;0.9605;
488.4000;0.9174;0.9529;
488.7000;0.9190;0.9554;
489.0000;0.9206;0.9478;
489.3000;0.9223;0.9554;
489.6000;0.9190;0.9478;
489.9000;0.9182;0.9452;
490.2000;0.9198;0.9401;
490.5000;0.9206;0.9427;
490.8000;0.9198;0.9376;
491.1000;0.9223;0.9401;
491.4000;0.9190;0.9274;
491.7000;0.9198;0.9299;
492.0000;0.9133;0.9121;
492.3000;0.9166;0.9223;
492.6000;0.9198;0.9350;
492.9000;0.9198;0.9325;
493.2000;0.9214;0.9427;
493.5000;0.9198;0.9401;
493.8000;0.9198;0.9376;
494.1000;0.9174;0.9325;
494.4000;0.9223;0.9427;
494.7000;0.9206;0.9452;
495.0000;0.9214;0.9401;
495.3000;0.9206;0.9401;
495.6000;0.9223;0.9376;
495.9000;0.9239;0.9478;
496.2000;0.9190;0.9452;
496.5000;0.9190;0.9401;
496.8000;0.9198;0.9452;
497.1000;0.9190;0.9478;
497.4000;0.9206;0.9478;
497.7000;0.9198;0.9478;
498.0000;0.9198;0.9452;
498.3000;0.9223;0.9529;
498.6000;0.9247;0.9554;
498.9000;0.9190;0.9427;
499.2000;0.9198;0.9529;
499.5000;0.9166;0.9503;
499.8000;0.9190;0.9503;
500.1000;0.9198;0.9478;
500.4000;0.9280;0.9631;
500.7000;0.9198;0.9452;
501.0000;0.9198;0.9452;
501.3000;0.9182;0.9452;
501.6000;0.9182;0.9478;
501.9000;0.9182;0.9427;
502.2000;0.9149;0.9299;
502.5000;0.9223;0.9478;
502.8000;0.9182;0.9427;
503.1000;0.9182;0.9376;
503.4000;0.9190;0.9299;
503.7000;0.9198;0.9248;
504.0000;0.9214;0.9274;
504.3000;0.9182;0.9274;
504.6000;0.9206;0.9401;
504.9000;0.9206;0.9452;
505.2000;0.9206;0.9452;
505.5000;0.9214;0.9452;
505.8000;0.9198;0.9529;
506.1000;0.9190;0.9631;
506.4000;0.9166;0.9503;
506.7000;0.9190;0.9478;
507.0000;0.9198;0.9529;
507.3000;0.9198;0.9580;
507.6000;0.9190;0.9631;
507.9000;0.9190;0.9631;
508.2000;0.9198;0.9656;
508.5000;0.9141;0.9376;
508.8000;0.9198;0.9427;
509.1000;0.9190;0.9376;
509.4000;0.9182;0.9401;
509.7000;0.9174;0.9274;
510.0000;0.9182;0.9325;
510.3000;0.9174;0.9248;
510.6000;0.9149;0.9147;
510.9000;0.9223;0.9299;
511.2000;0.9198;0.9274;
511.5000;0.9206;0.9350;
511.8000;0.9182;0.9223;
512.1000;0.9174;0.9274;
512.4000;0.9214;0.9427;
512.7000;0.9198;0.9376;
513.0000;0.9190;0.9401;
513.3000;0.9190;0.9401;
513.6000;0.9198;0.9427;
513.9000;0.9198;0.9350;
514.2000;0.9198;0.9325;
514.5000;0.9190;0.9274;
514.8000;0.9206;0.9350;
515.1000;0.9206;0.9401;
515.4000;0.9182;0.9503;
515.7000;0.9190;0.9478;
516.0000;0.9190;0.9452;
516.3000;0.9149;0.9325;
516.6000;0.9190;0.9376;
516.9000;0.9190;0.9376;
517.2000;0.9190;0.9325;
517.5000;0.9214;0.9401;
517.8000;0.9198;0.9350;
518.1000;0.9182;0.9427;
518.4000;0.9190;0.9478;
518.7000;0.9198;0.9554;
519.0000;0.9198;0.9554;
519.3000;0.9190;0.9529;
519.6000;0.9174;0.9554;
519.9000;0.9190;0.9631;
520.2000;0.9166;0.9529;
520.5000;0.9182;0.9554;
520.8000;0.9182;0.9503;
521.1000;0.9182;0.9452;
521.4000;0.9149;0.9401;
521.7000;0.9166;0.9503;
522.0000;0.9158;0.9554;
522.3000;0.9206;0.9707;
522.6000;0.9223;0.9605;
522.9000;0.9190;0.9478;
523.2000;0.9214;0.9503;
523.5000;0.9190;0.9478;
523.8000;0.9174;0.9503;
524.1000;0.9190;0.9605;
524.4000;0.9206;0.9682;
524.7000;0.9190;0.9656;
525.0000;0.9190;0.9631;
525.3000;0.9190;0.9605;
525.6000;0.9206;0.9631;
525.9000;0.9190;0.9554;
526.2000;0.9125;0.9350;
526.5000;0.9214;0.9529;
526.8000;0.9190;0.9427;
527.1000;0.9190;0.9529;
527.4000;0.9158;0.9554;
527.7000;0.9280;0.9911;
528.0000;0.9182;0.9631;
528.3000;0.9182;0.9503;
528.6000;0.9182;0.9478;
528.9000;0.9190;0.9376;
529.2000;0.9198;0.9452;
529.5000;0.9182;0.9401;
529.8000;0.9182;0.9452;
530.1000;0.9198;0.9452;
530.4000;0.9206;0.9452;
530.7000;0.9182;0.9401;
531.0000;0.9206;0.9427;
531.3000;0.9206;0.9529;
531.6000;0.9190;0.9529;
531.9000;0.9174;0.9529;
532.2000;0.9149;0.9452;
532.5000;0.9190;0.9478;
532.8000;0.9198;0.9452;
533.1000;0.9125;0.9274;
533.4000;0.9174;0.9427;
533.7000;0.9198;0.9605;
534.0000;0.9198;0.9605;
534.3000;0.9190;0.9503;
534.6000;0.9198;0.9529;
534.9000;0.9190;0.9605;
535.2000;0.9190;0.9554;
535.5000;0.9206;0.9554;
535.8000;0.9182;0.9554;
536.1000;0.9182;0.9554;
536.4000;0.9190;0.9554;
536.7000;0.9190;0.9503;
537.0000;0.9166;0.9350;
537.3000;0.9174;0.9325;
537.6000;0.9190;0.9325;
537.9000;0.9174;0.9427;
538.2000;0.9174;0.9376;
538.5000;0.9182;0.9376;
538.8000;0.9158;0.9427;
539.1000;0.9263;0.9733;
539.4000;0.9223;0.9631;
539.7000;0.9174;0.9503;
540.0000;0.9198;0.9529;
540.3000;0.9190;0.9503;
540.6000;0.9182;0.9452;
540.9000;0.9166;0.9350;
541.2000;0.9190;0.9452;
541.5000;0.9198;0.9478;
541.8000;0.9182;0.9401;
542.1000;0.9182;0.9376;
542.4000;0.9190;0.9376;
542.7000;0.9190;0.9427;
543.0000;0.9198;0.9376;
543.3000;0.9198;0.9325;
543.6000;0.9190;0.9299;
543.9000;0.9190;0.9274;
544.2000;0.9182;0.9376;
544.5000;0.9190;0.9427;
544.8000;0.9158;0.9299;
545.1000;0.9174;0.9350;
545.4000;0.9182;0.9376;
545.7000;0.9190;0.9376;
546.0000;0.9174;0.9401;
546.3000;0.9141;0.9427;
546.6000;0.9190;0.9554;
546.9000;0.9174;0.9427;
547.2000;0.9174;0.9427;
547.5000;0.9190;0.9452;
547.8000;0.9158;0.9401;
548.1000;0.9198;0.9427;
548.4000;0.9166;0.9376;
548.7000;0.9174;0.9401;
549.0000;0.9182;0.9376;
549.3000;0.9190;0.9452;
549.6000;0.9231;0.9554;
549.9000;0.9190;0.9478;
550.2000;0.9182;0.9554;
550.5000;0.9206;0.9554;
550.8000;0.9182;0.9478;
551.1000;0.9198;0.9452;
551.4000;0.9190;0.9478;
551.7000;0.9206;0.9478;
552.0000;0.9198;0.9452;
552.3000;0.9206;0.9401;
552.6000;0.9198;0.9554;
552.9000;0.9190;0.9529;
553.2000;0.9182;0.9529;
553.5000;0.9198;0.9554;
553.8000;0.9182;0.9503;
554.1000;0.9198;0.9554;
554.4000;0.9206;0.9580;
554.7000;0.9198;0.9656;
555.0000;0.9158;0.9529;
555.3000;0.9182;0.9554;
555.6000;0.9190;0.9580;
555.9000;0.9182;0.9605;
556.2000;0.9149;0.9503;
556.5000;0.9166;0.9554;
556.8000;0.9190;0.9529;
557.1000;0.9247;0.9707;
557.4000;0.9166;0.9529;
557.7000;0.9174;0.9529;
558.0000;0.9158;0.9580;
558.3000;0.9166;0.9478;
558.6000;0.9174;0.9605;
558.9000;0.9182;0.9529;
559.2000;0.9174;0.9503;
559.5000;0.9182;0.9554;
559.8000;0.9182;0.9631;
560.1000;0.9182;0.9631;
560.4000;0.9190;0.9707;
560.7000;0.9166;0.9656;
561.0000;0.9190;0.9733;
561.3000;0.9182;0.9707;
561.6000;0.9182;0.9707;
561.9000;0.9174;0.9631;
562.2000;0.9190;0.9682;
562.5000;0.9182;0.9656;
562.8000;0.9190;0.9605;
563.1000;0.9198;0.9478;
563.4000;0.9182;0.9427;
563.7000;0.9182;0.9427;
564.0000;0.9198;0.9401;
564.3000;0.9182;0.9274;
564.6000;0.9190;0.9248;
564.9000;0.9190;0.9299;
565.2000;0.9190;0.9223;
565.5000;0.9190;0.9198;
565.8000;0.9190;0.9248;
566.1000;0.9206;0.9299;
566.4000;0.9198;0.9325;
566.7000;0.9190;0.9299;
567.0000;0.9182;0.9223;
567.3000;0.9198;0.9223;
567.6000;0.9174;0.9198;
567.9000;0.9166;0.9274;
568.2000;0.9182;0.9427;
568.5000;0.9190;0.9427;
568.8000;0.9174;0.9401;
569.1000;0.9158;0.9427;
569.4000;0.9174;0.9580;
569.7000;0.9182;0.9554;
570.0000;0.9174;0.9605;
570.3000;0.9182;0.9478;
570.6000;0.9174;0.9427;
570.9000;0.9182;0.9427;
571.2000;0.9182;0.9529;
571.5000;0.9158;0.9478;
571.8000;0.9174;0.9529;
572.1000;0.9174;0.9554;
572.4000;0.9182;0.9529;
572.7000;0.9198;0.9580;
573.0000;0.9206;0.9554;
573.3000;0.9198;0.9554;
573.6000;0.9198;0.9580;
573.9000;0.9182;0.9529;
574.2000;0.9198;0.9503;
574.5000;0.9190;0.9452;
574.8000;0.9198;0.9427;
575.1000;0.9158;0.9401;
575.4000;0.9182;0.9452;
575.7000;0.9166;0.9376;
576.0000;0.9149;0.9274;
576.3000;0.9214;0.9503;
576.6000;0.9190;0.9478;
576.9000;0.9182;0.9503;
577.2000;0.9182;0.9452;
577.5000;0.9158;0.9452;
577.8000;0.9158;0.9350;
578.1000;0.9182;0.9376;
578.4000;0.9198;0.9401;
578.7000;0.9149;0.9325;
579.0000;0.9149;0.9248;
579.3000;0.9166;0.9325;
579.6000;0.9158;0.9401;
579.9000;0.9133;0.9376;
580.2000;0.9190;0.9427;
580.5000;0.9133;0.9248;
580.8000;0.9166;0.9401;
581.1000;0.9190;0.9427;
581.4000;0.9174;0.9503;
581.7000;0.9117;0.9376;
582.0000;0.9166;0.9554;
582.3000;0.9166;0.9529;
582.6000;0.9149;0.9427;
582.9000;0.9166;0.9427;
583.2000;0.9174;0.9503;
583.5000;0.9182;0.9427;
583.8000;0.9166;0.9376;
584.1000;0.9182;0.9427;
584.4000;0.9190;0.9350;
584.7000;0.9206;0.9325;
585.0000;0.9206;0.9299;
585.3000;0.9198;0.9248;
585.6000;0.9190;0.9198;
585.9000;0.9190;0.9121;
586.2000;0.9190;0.9198;
586.5000;0.9190;0.9172;
586.8000;0.9190;0.9121;
587.1000;0.9190;0.9121;
587.4000;0.9190;0.9070;
587.7000;0.9166;0.9045;
588.0000;0.9174;0.9019;
588.3000;0.9174;0.9096;
588.6000;0.9166;0.9147;
588.9000;0.9182;0.9147;
589.2000;0.9190;0.9121;
589.5000;0.9174;0.9147;
589.8000;0.9190;0.9198;
590.1000;0.9198;0.9223;
590.4000;0.9174;0.9274;
590.7000;0.9190;0.9299;
591.0000;0.9174;0.9223;
591.3000;0.9190;0.9248;
591.6000;0.9182;0.9248;
591.9000;0.9174;0.9299;
592.2000;0.9149;0.9198;
592.5000;0.9149;0.9274;
592.8000;0.9174;0.9299;
593.1000;0.9166;0.9147;
593.4000;0.9174;0.9121;
593.7000;0.9166;0.9070;
594.0000;0.9158;0.8994;
594.3000;0.9182;0.8968;
594.6000;0.9182;0.8917;
594.9000;0.9190;0.8917;
595.2000;0.9182;0.9019;
595.5000;0.9182;0.9019;
595.8000;0.9247;0.9147;
596.1000;0.9182;0.8968;
596.4000;0.9190;0.9096;
596.7000;0.9166;0.9045;
597.0000;0.9182;0.9045;
597.3000;0.9190;0.9096;
597.6000;0.9182;0.9070;
597.9000;0.9182;0.9019;
598.2000;0.9166;0.9096;
598.5000;0.9174;0.9147;
598.8000;0.9182;0.9172;
599.1000;0.9182;0.9223;
599.4000;0.9198;0.9350;
599.7000;0.9158;0.9299;
600.0000;0.9158;0.9325;
600.3000;0.9174;0.9325;
600.6000;0.9125;0.9045;
600.9000;0.9092;0.8892;
601.2000;0.9044;0.8739;
601.5000;0.9003;0.8662;
601.8000;0.8938;0.8357;
602.1000;0.8856;0.8127;
602.4000;0.8783;0.7949;
602.7000;0.8734;0.7796;
603.0000;0.8661;0.7618;
603.3000;0.8571;0.7490;
603.6000;0.8523;0.7516;
603.9000;0.8482;0.7465;
604.2000;0.8433;0.7389;
604.5000;0.8392;0.7338;
604.8000;0.8335;0.7159;
605.1000;0.8311;0.7108;
605.4000;0.8278;0.7057;
605.7000;0.8230;0.6955;
606.0000;0.8254;0.7083;
606.3000;0.8140;0.6854;
606.6000;0.8124;0.6752;
606.9000;0.8050;0.6573;
607.2000;0.8059;0.6573;
607.5000;0.8034;0.6471;
607.8000;0.8018;0.6420;
608.1000;0.7985;0.6420;
608.4000;0.7945;0.6344;
608.7000;0.7904;0.6420;
609.0000;0.7896;0.6497;
609.3000;0.7888;0.6497;
609.6000;0.7855;0.6369;
609.9000;0.7814;0.6344;
610.2000;0.7806;0.6319;
610.5000;0.7790;0.6268;
610.8000;0.7766;0.6344;
611.1000;0.7741;0.6217;
611.4000;0.7725;0.6242;
611.7000;0.7709;0.6242;
612.0000;0.7692;0.6217;
612.3000;0.7627;0.6140;
612.6000;0.7635;0.6369;
612.9000;0.7652;0.6420;
613.2000;0.7627;0.6369;
613.5000;0.7570;0.6268;
613.8000;0.7570;0.6319;
614.1000;0.7578;0.6319;
614.4000;0.7562;0.6242;
614.7000;0.7554;0.6191;
615.0000;0.7530;0.6140;
615.3000;0.7513;0.6166;
615.6000;0.7497;0.6140;
615.9000;0.7464;0.6089;
616.2000;0.7489;0.6166;
616.5000;0.7464;0.6064;
616.8000;0.7473;0.6140;
617.1000;0.7440;0.6089;
617.4000;0.7407;0.6089;
617.7000;0.7407;0.6089;
618.0000;0.7391;0.6064;
618.3000;0.7391;0.6115;
618.6000;0.7391;0.6166;
618.9000;0.7383;0.6344;
619.2000;0.7359;0.6293;
619.5000;0.7432;0.6548;
619.8000;0.7334;0.6268;
620.1000;0.7342;0.6344;
620.4000;0.7334;0.6344;
620.7000;0.7334;0.6369;
621.0000;0.7318;0.6369;
621.3000;0.7293;0.6293;
621.6000;0.7253;0.6268;
621.9000;0.7253;0.6319;
622.2000;0.7269;0.6319;
622.5000;0.7261;0.6319;
622.8000;0.7269;0.6242;
623.1000;0.7261;0.6217;
623.4000;0.7253;0.6293;
623.7000;0.7293;0.6522;
624.0000;0.7188;0.6319;
624.3000;0.7212;0.6522;
624.6000;0.7196;0.6522;
624.9000;0.7179;0.6548;
625.2000;0.7179;0.6497;
625.5000;0.7188;0.6497;
625.8000;0.7204;0.6471;
626.1000;0.7163;0.6446;
626.4000;0.7131;0.6319;
626.7000;0.7147;0.6369;
627.0000;0.7155;0.6369;
627.3000;0.7139;0.6395;
627.6000;0.7131;0.6319;
627.9000;0.7131;0.6293;
628.2000;0.7106;0.6319;
628.5000;0.7106;0.6319;
628.8000;0.7090;0.6293;
629.1000;0.7082;0.6191;
629.4000;0.7114;0.6293;
629.7000;0.7098;0.6166;
630.0000;0.7082;0.6089;
630.3000;0.7074;0.6038;
630.6000;0.7082;0.6140;
630.9000;0.7066;0.6089;
631.2000;0.7066;0.6089;
631.5000;0.7033;0.6064;
631.8000;0.7041;0.6089;
632.1000;0.7041;0.6166;
632.4000;0.7074;0.6268;
632.7000;0.7033;0.6089;
633.0000;0.7049;0.6191;
633.3000;0.7017;0.6038;
633.6000;0.7017;0.6038;
633.9000;0.7041;0.6064;
634.2000;0.6992;0.6038;
634.5000;0.7057;0.6242;
634.8000;0.7000;0.6115;
635.1000;0.6992;0.6064;
635.4000;0.6992;0.6166;
635.7000;0.6984;0.6140;
636.0000;0.6968;0.6064;
636.3000;0.6943;0.5962;
636.6000;0.6968;0.5987;
636.9000;0.6960;0.6013;
637.2000;0.6968;0.6089;
637.5000;0.6952;0.6064;
637.8000;0.6943;0.6115;
638.1000;0.6943;0.6140;
638.4000;0.6927;0.6089;
638.7000;0.6943;0.6038;
639.0000;0.6919;0.6064;
639.3000;0.6895;0.6064;
639.6000;0.6935;0.5987;
639.9000;0.6903;0.5860;
640.2000;0.6911;0.5860;
640.5000;0.6870;0.5860;
640.8000;0.6927;0.6089;
641.1000;0.6895;0.5987;
641.4000;0.6838;0.5885;
641.7000;0.6854;0.5962;
642.0000;0.6862;0.5936;
642.3000;0.6862;0.5962;
642.6000;0.6862;0.5885;
642.9000;0.6862;0.5860;
643.2000;0.6846;0.5860;
643.5000;0.6862;0.5936;
643.8000;0.6854;0.6013;
644.1000;0.6854;0.6064;
644.4000;0.6846;0.6013;
644.7000;0.6829;0.6089;
645.0000;0.6846;0.6166;
645.3000;0.6838;0.6166;
645.6000;0.6829;0.6217;
645.9000;0.6838;0.6242;
646.2000;0.6838;0.6242;
646.5000;0.6829;0.6166;
646.8000;0.6805;0.6268;
647.1000;0.6805;0.6344;
647.4000;0.6789;0.6319;
647.7000;0.6805;0.6319;
648.0000;0.6781;0.6319;
648.3000;0.6789;0.6242;
648.6000;0.6781;0.6140;
648.9000;0.6797;0.6140;
649.2000;0.6772;0.6064;
649.5000;0.6764;0.6089;
649.8000;0.6772;0.6191;
650.1000;0.6781;0.6191;
650.4000;0.6748;0.6191;
650.7000;0.6781;0.6217;
651.0000;0.6756;0.6242;
651.3000;0.6756;0.6191;
651.6000;0.6764;0.6242;
651.9000;0.6740;0.6191;
652.2000;0.6740;0.6166;
652.5000;0.6740;0.6166;
652.8000;0.6756;0.6115;
653.1000;0.6740;0.6115;
653.4000;0.6707;0.5962;
653.7000;0.6732;0.6013;
654.0000;0.6716;0.5987;
654.3000;0.6732;0.6013;
654.6000;0.6732;0.5962;
654.9000;0.6716;0.5962;
655.2000;0.6724;0.6013;
655.5000;0.6716;0.5987;
655.8000;0.6707;0.6064;
656.1000;0.6699;0.6115;
656.4000;0.6699;0.6140;
656.7000;0.6691;0.6166;
657.0000;0.6683;0.6166;
657.3000;0.6707;0.6217;
657.6000;0.6683;0.6140;
657.9000;0.6667;0.6217;
658.2000;0.6707;0.6369;
658.5000;0.6650;0.6369;
658.8000;0.6675;0.6420;
659.1000;0.6667;0.6369;
659.4000;0.6659;0.6319;
659.7000;0.6650;0.6217;
660.0000;0.6650;0.6191;
660.3000;0.6650;0.6064;
660.6000;0.6634;0.5936;
660.9000;0.6626;0.5936;
661.2000;0.6642;0.5962;
661.5000;0.6642;0.6038;
661.8000;0.6650;0.6089;
662.1000;0.6634;0.6115;
662.4000;0.6634;0.6191;
662.7000;0.6650;0.6217;
663.0000;0.6610;0.6166;
663.3000;0.6659;0.6369;
663.6000;0.6642;0.6293;
663.9000;0.6602;0.6166;
664.2000;0.6610;0.6293;
664.5000;0.6602;0.6242;
664.8000;0.6626;0.6395;
665.1000;0.6593;0.6344;
665.4000;0.6610;0.6344;
665.7000;0.6593;0.6242;
666.0000;0.6585;0.6268;
666.3000;0.6610;0.6420;
666.6000;0.6634;0.6446;
666.9000;0.6585;0.6344;
667.2000;0.6602;0.6319;
667.5000;0.6585;0.6293;
667.8000;0.6602;0.6217;
668.1000;0.6553;0.6166;
668.4000;0.6553;0.6115;
668.7000;0.6553;0.6089;
669.0000;0.6553;0.6217;
669.3000;0.6577;0.6344;
669.6000;0.6577;0.6268;
669.9000;0.6569;0.6319;
670.2000;0.6553;0.6319;
670.5000;0.6553;0.6344;
670.8000;0.6561;0.6344;
671.1000;0.6561;0.6395;
671.4000;0.6520;0.6344;
671.7000;0.6528;0.6344;
672.0000;0.6536;0.6344;
672.3000;0.6520;0.6293;
672.6000;0.6512;0.6217;
672.9000;0.6536;0.6319;
673.2000;0.6496;0.6166;
673.5000;0.6520;0.6191;
673.8000;0.6520;0.6166;
674.1000;0.6528;0.6217;
674.4000;0.6528;0.6191;
674.7000;0.6528;0.6166;
675.0000;0.6528;0.6140;
675.3000;0.6504;0.6064;
675.6000;0.6512;0.6089;
675.9000;0.6512;0.5987;
676.2000;0.6496;0.5962;
676.5000;0.6512;0.6064;
676.8000;0.6520;0.6089;
677.1000;0.6504;0.6140;
677.4000;0.6496;0.6140;
677.7000;0.6488;0.6064;
678.0000;0.6479;0.6115;
678.3000;0.6512;0.6191;
678.6000;0.6488;0.6038;
678.9000;0.6479;0.6089;
679.2000;0.6455;0.6064;
679.5000;0.6512;0.6293;
679.8000;0.6479;0.6115;
680.1000;0.6471;0.6115;
680.4000;0.6455;0.6089;
680.7000;0.6512;0.6140;
681.0000;0.6463;0.6064;
681.3000;0.6471;0.6013;
681.6000;0.6431;0.5860;
681.9000;0.6447;0.5936;
682.2000;0.6439;0.5987;
682.5000;0.6447;0.5936;
682.8000;0.6455;0.5885;
683.1000;0.6439;0.5911;
683.4000;0.6455;0.5962;
683.7000;0.6439;0.5885;
684.0000;0.6431;0.5885;
684.3000;0.6431;0.5936;
684.6000;0.6447;0.5962;
684.9000;0.6431;0.6038;
685.2000;0.6431;0.6089;
685.5000;0.6431;0.6064;
685.8000;0.6431;0.6064;
686.1000;0.6431;0.6038;
686.4000;0.6414;0.5987;
686.7000;0.6504;0.6268;
687.0000;0.6439;0.6089;
687.3000;0.6422;0.6115;
687.6000;0.6463;0.6293;
687.9000;0.6406;0.6140;
688.2000;0.6406;0.6319;
688.5000;0.6398;0.6217;
688.8000;0.6398;0.6242;
689.1000;0.6406;0.6217;
689.4000;0.6398;0.6369;
689.7000;0.6390;0.6369;
690.0000;0.6390;0.6319;
690.3000;0.6390;0.6293;
690.6000;0.6406;0.6268;
690.9000;0.6390;0.6166;
691.2000;0.6382;0.6140;
691.5000;0.6382;0.6064;
691.8000;0.6382;0.6140;
692.1000;0.6398;0.6115;
692.4000;0.6406;0.6191;
692.7000;0.6414;0.6166;
693.0000;0.6382;0.6166;
693.3000;0.6414;0.6140;
693.6000;0.6374;0.5962;
693.9000;0.6357;0.5962;
694.2000;0.6374;0.6064;
694.5000;0.6382;0.6089;
694.8000;0.6365;0.6217;
695.1000;0.6292;0.6064;
695.4000;0.6374;0.6140;
695.7000;0.6276;0.5936;
696.0000;0.6357;0.6166;
696.3000;0.6309;0.6140;
696.6000;0.6341;0.6140;
696.9000;0.6349;0.6166;
697.2000;0.6382;0.6268;
697.5000;0.6349;0.6115;
697.8000;0.6341;0.6089;
698.1000;0.6390;0.6268;
698.4000;0.6333;0.6140;
698.7000;0.6341;0.6089;
699.0000;0.6341;0.6166;
699.3000;0.6341;0.6166;
699.6000;0.6325;0.6140;
699.9000;0.6333;0.6217;
700.2000;0.6284;0.6191;
700.5000;0.6309;0.6242;
700.8000;0.6309;0.6166;
701.1000;0.6317;0.6191;
701.4000;0.6292;0.6140;
701.7000;0.6317;0.6140;
702.0000;0.6325;0.6115;
702.3000;0.6309;0.6064;
702.6000;0.6268;0.5911;
702.9000;0.6317;0.6038;
703.2000;0.6300;0.6064;
703.5000;0.6309;0.6140;
703.8000;0.6317;0.6166;
704.1000;0.6284;0.6166;
704.4000;0.6276;0.6217;
704.7000;0.6309;0.6268;
705.0000;0.6309;0.6268;
705.3000;0.6300;0.6319;
705.6000;0.6317;0.6420;
705.9000;0.6309;0.6395;
706.2000;0.6300;0.6293;
706.5000;0.6284;0.6268;
706.8000;0.6268;0.6191;
707.1000;0.6300;0.6191;
707.4000;0.6292;0.6140;
707.7000;0.6292;0.6089;
708.0000;0.6276;0.6013;
708.3000;0.6276;0.5987;
708.6000;0.6284;0.5962;
708.9000;0.6284;0.5962;
709.2000;0.6268;0.5860;
709.5000;0.6276;0.5834;
709.8000;0.6268;0.5911;
710.1000;0.6276;0.5962;
710.4000;0.6341;0.6217;
710.7000;0.6252;0.6013;
711.0000;0.6292;0.6140;
711.3000;0.6243;0.6038;
711.6000;0.6252;0.6013;
711.9000;0.6252;0.5962;
712.2000;0.6260;0.6038;
712.5000;0.6243;0.6140;
712.8000;0.6260;0.6191;
713.1000;0.6252;0.6217;
713.4000;0.6243;0.6140;
713.7000;0.6268;0.6217;
714.0000;0.6235;0.6166;
714.3000;0.6260;0.6166;
714.6000;0.6235;0.6115;
714.9000;0.6276;0.6191;
715.2000;0.6235;0.6089;
715.5000;0.6235;0.6166;
715.8000;0.6227;0.6089;
716.1000;0.6203;0.6013;
716.4000;0.6219;0.6115;
716.7000;0.6227;0.6115;
717.0000;0.6178;0.6013;
717.3000;0.6243;0.6191;
717.6000;0.6260;0.6217;
717.9000;0.6227;0.6191;
718.2000;0.6211;0.6140;
718.5000;0.6227;0.6166;
718.8000;0.6219;0.6089;
719.1000;0.6227;0.6064;
719.4000;0.6186;0.5962;
719.7000;0.6138;0.5911;
720.0000;0.6211;0.6191;
720.3000;0.6219;0.6191;
720.6000;0.6195;0.6191;
720.9000;0.6186;0.6140;
721.2000;0.6170;0.6064;
721.5000;0.6211;0.6166;
721.8000;0.6203;0.6013;
722.1000;0.6186;0.5987;
722.4000;0.6195;0.6013;
722.7000;0.6203;0.6013;
723.0000;0.6203;0.6064;
723.3000;0.6203;0.6013;
723.6000;0.6195;0.5911;
723.9000;0.6227;0.6064;
724.2000;0.6203;0.6089;
724.5000;0.6195;0.6089;
724.8000;0.6186;0.6191;
725.1000;0.6195;0.6217;
725.4000;0.6195;0.6166;
725.7000;0.6195;0.6140;
726.0000;0.6186;0.6064;
726.3000;0.6195;0.6089;
726.6000;0.6203;0.6115;
726.9000;0.6178;0.6115;
727.2000;0.6203;0.6191;
727.5000;0.6186;0.6191;
727.8000;0.6195;0.6268;
728.1000;0.6219;0.6242;
728.4000;0.6195;0.6242;
728.7000;0.6162;0.6191;
729.0000;0.6195;0.6293;
729.3000;0.6186;0.6319;
729.6000;0.6178;0.6319;
729.9000;0.6178;0.6395;
730.2000;0.6186;0.6369;
730.5000;0.6162;0.6319;
730.8000;0.6170;0.6293;
731.1000;0.6178;0.6293;
731.4000;0.6162;0.6293;
731.7000;0.6162;0.6217;
732.0000;0.6186;0.6191;
732.3000;0.6162;0.6115;
732.6000;0.6203;0.6217;
732.9000;0.6178;0.6191;
733.2000;0.6170;0.6242;
733.5000;0.6178;0.6242;
733.8000;0.6154;0.6191;
734.1000;0.6154;0.6064;
734.4000;0.6195;0.6217;
734.7000;0.6186;0.6242;
735.0000;0.6146;0.6242;
735.3000;0.6146;0.6166;
735.6000;0.6146;0.6217;
735.9000;0.6178;0.6319;
736.2000;0.6138;0.6242;
736.5000;0.6243;0.6573;
736.8000;0.6211;0.6548;
737.1000;0.6162;0.6369;
737.4000;0.6162;0.6395;
737.7000;0.6146;0.6268;
738.0000;0.6235;0.6446;
738.3000;0.6186;0.6369;
738.6000;0.6146;0.6242;
738.9000;0.6138;0.6191;
739.2000;0.6170;0.6344;
739.5000;0.6162;0.6217;
739.8000;0.6129;0.6140;
740.1000;0.6064;0.5936;
740.4000;0.6154;0.6166;
740.7000;0.6121;0.6140;
741.0000;0.6105;0.6217;
741.3000;0.6129;0.6166;
741.6000;0.6105;0.6064;
741.9000;0.6154;0.6191;
742.2000;0.6129;0.6089;
742.5000;0.6113;0.5936;
742.8000;0.6105;0.5962;
743.1000;0.6138;0.6115;
743.4000;0.6129;0.6140;
743.7000;0.6121;0.6140;
744.0000;0.6121;0.6166;
744.3000;0.6121;0.6115;
744.6000;0.6129;0.6166;
744.9000;0.6129;0.6064;
745.2000;0.6089;0.5962;
745.5000;0.6121;0.6115;
745.8000;0.6121;0.6166;
746.1000;0.6154;0.6115;
746.4000;0.6097;0.5911;
746.7000;0.6089;0.5911;
747.0000;0.6121;0.6013;
747.3000;0.6105;0.6089;
747.6000;0.6097;0.6013;
747.9000;0.6113;0.6064;
748.2000;0.6129;0.6166;
748.5000;0.6113;0.6166;
748.8000;0.6113;0.6166;
749.1000;0.6121;0.6242;
749.4000;0.6121;0.6242;
749.7000;0.6105;0.6191;
750.0000;0.6121;0.6268;
750.3000;0.6081;0.6344;
750.6000;0.6113;0.6471;
750.9000;0.6097;0.6319;
751.2000;0.6081;0.6217;
751.5000;0.6081;0.6293;
751.8000;0.6105;0.6344;
752.1000;0.6113;0.6446;
752.4000;0.6105;0.6344;
752.7000;0.6105;0.6344;
753.0000;0.6097;0.6369;
753.3000;0.6105;0.6471;
753.6000;0.6081;0.6395;
753.9000;0.6097;0.6344;
754.2000;0.6081;0.6293;
754.5000;0.6072;0.6344;
754.8000;0.6089;0.6369;
755.1000;0.6064;0.6319;
755.4000;0.6072;0.6369;
755.7000;0.6081;0.6471;
756.0000;0.6072;0.6446;
756.3000;0.6072;0.6420;
756.6000;0.6056;0.6395;
756.9000;0.6081;0.6497;
757.2000;0.6064;0.6497;
757.5000;0.6064;0.6522;
757.8000;0.6064;0.6497;
758.1000;0.6072;0.6522;
758.4000;0.6048;0.6471;
758.7000;0.6072;0.6522;
759.0000;0.6089;0.6701;
759.3000;0.6081;0.6726;
759.6000;0.6072;0.6726;
759.9000;0.6089;0.6803;
760.2000;0.6081;0.6752;
760.5000;0.6056;0.6675;
760.8000;0.6064;0.6777;
761.1000;0.6064;0.6752;
761.4000;0.6064;0.6650;
761.7000;0.6072;0.6624;
762.0000;0.6056;0.6548;
762.3000;0.5983;0.6344;
762.6000;0.6072;0.6548;
762.9000;0.6064;0.6573;
763.2000;0.6032;0.6522;
763.5000;0.6064;0.6573;
763.8000;0.6056;0.6522;
764.1000;0.6064;0.6548;
764.4000;0.6048;0.6522;
764.7000;0.6048;0.6548;
765.0000;0.6040;0.6446;
765.3000;0.6056;0.6446;
765.6000;0.6040;0.6395;
765.9000;0.6048;0.6420;
766.2000;0.6032;0.6446;
766.5000;0.6015;0.6369;
766.8000;0.6015;0.6369;
767.1000;0.6064;0.6497;
767.4000;0.5958;0.6140;
767.7000;0.6032;0.6344;
768.0000;0.6032;0.6369;
768.3000;0.6048;0.6471;
768.6000;0.6048;0.6497;
768.9000;0.6032;0.6471;
769.2000;0.5991;0.6446;
769.5000;0.6040;0.6522;
769.8000;0.6048;0.6548;
770.1000;0.6048;0.6522;
770.4000;0.6032;0.6471;
770.7000;0.6048;0.6624;
771.0000;0.6040;0.6497;
771.3000;0.6040;0.6420;
771.6000;0.6032;0.6420;
771.9000;0.6024;0.6471;
772.2000;0.6024;0.6548;
772.5000;0.6089;0.6675;
772.8000;0.6024;0.6446;
773.1000;0.6024;0.6395;
773.4000;0.6032;0.6344;
773.7000;0.6015;0.6395;
774.0000;0.6024;0.6420;
774.3000;0.5991;0.6369;
774.6000;0.6024;0.6471;
774.9000;0.6024;0.6446;
775.2000;0.6040;0.6471;
775.5000;0.6024;0.6395;
775.8000;0.6024;0.6420;
776.1000;0.6024;0.6420;
776.4000;0.6040;0.6573;
776.7000;0.6007;0.6573;
777.0000;0.6024;0.6548;
777.3000;0.6024;0.6599;
777.6000;0.6032;0.6599;
777.9000;0.6015;0.6599;
778.2000;0.6015;0.6650;
778.5000;0.6015;0.6599;
778.8000;0.6024;0.6599;
779.1000;0.5991;0.6599;
779.4000;0.6007;0.6675;
779.7000;0.6015;0.6675;
780.0000;0.6015;0.6624;
780.3000;0.6015;0.6650;
780.6000;0.6024;0.6701;
780.9000;0.5999;0.6599;
781.2000;0.6015;0.6624;
781.5000;0.6024;0.6650;
781.8000;0.5975;0.6548;
782.1000;0.6007;0.6573;
782.4000;0.5999;0.6573;
782.7000;0.5999;0.6548;
783.0000;0.5991;0.6522;
783.3000;0.6007;0.6624;
783.6000;0.6015;0.6650;
783.9000;0.5999;0.6624;
784.2000;0.6032;0.6650;
784.5000;0.5999;0.6573;
784.8000;0.5991;0.6522;
785.1000;0.5983;0.6497;
785.4000;0.5942;0.6293;
785.7000;0.5991;0.6369;
786.0000;0.5950;0.6293;
786.3000;0.5926;0.6268;
786.6000;0.5991;0.6420;
786.9000;0.5999;0.6471;
787.2000;0.5975;0.6344;
787.5000;0.5967;0.6293;
787.8000;0.5983;0.6369;
788.1000;0.5958;0.6268;
788.4000;0.5983;0.6319;
788.7000;0.5999;0.6344;
789.0000;0.5999;0.6319;
789.3000;0.6024;0.6319;
789.6000;0.5967;0.6191;
789.9000;0.5991;0.6268;
790.2000;0.5991;0.6268;
790.5000;0.5999;0.6319;
790.8000;0.5983;0.6268;
791.1000;0.5991;0.6344;
791.4000;0.6007;0.6242;
791.7000;0.6048;0.6395;
792.0000;0.5983;0.6191;
792.3000;0.5975;0.6242;
792.6000;0.5967;0.6344;
792.9000;0.5942;0.6217;
793.2000;0.5991;0.6344;
793.5000;0.5967;0.6395;
793.8000;0.5991;0.6420;
794.1000;0.5983;0.6420;
794.4000;0.5975;0.6420;
794.7000;0.5967;0.6420;
795.0000;0.5975;0.6497;
795.3000;0.5991;0.6497;
795.6000;0.5975;0.6573;
795.9000;0.5967;0.6573;
796.2000;0.5942;0.6446;
796.5000;0.5958;0.6395;
796.8000;0.5975;0.6395;
797.1000;0.5958;0.6395;
797.4000;0.5958;0.6446;
797.7000;0.5950;0.6420;
798.0000;0.5983;0.6446;
798.3000;0.5950;0.6446;
798.6000;0.5950;0.6497;
798.9000;0.5958;0.6446;
799.2000;0.5950;0.6369;
799.5000;0.5958;0.6369;
799.8000;0.5942;0.6395;
800.1000;0.5958;0.6395;
800.4000;0.5983;0.6471;
800.7000;0.5975;0.6471;
801.0000;0.5942;0.6369;
801.3000;0.5967;0.6471;
801.6000;0.5967;0.6548;
801.9000;0.5967;0.6548;
802.2000;0.5958;0.6446;
802.5000;0.5967;0.6420;
802.8000;0.5967;0.6319;
803.1000;0.5926;0.6217;
803.4000;0.5983;0.6344;
803.7000;0.5958;0.6268;
804.0000;0.5967;0.6319;
804.3000;0.5975;0.6344;
804.6000;0.5910;0.6217;
804.9000;0.5942;0.6319;
805.2000;0.5934;0.6369;
805.5000;0.5918;0.6369;
805.8000;0.5885;0.6344;
806.1000;0.5967;0.6573;
806.4000;0.5942;0.6446;
806.7000;0.5942;0.6522;
807.0000;0.5942;0.6497;
807.3000;0.5942;0.6420;
807.6000;0.5934;0.6446;
807.9000;0.5942;0.6446;
808.2000;0.5950;0.6344;
808.5000;0.5934;0.6217;
808.8000;0.5950;0.6191;
809.1000;0.5967;0.6268;
809.4000;0.5926;0.6166;
809.7000;0.5967;0.6293;
810.0000;0.5958;0.6369;
810.3000;0.5950;0.6395;
810.6000;0.5942;0.6497;
810.9000;0.5991;0.6573;
811.2000;0.6040;0.6726;
811.5000;0.5958;0.6369;
811.8000;0.5958;0.6344;
812.1000;0.5991;0.6420;
812.4000;0.5975;0.6420;
812.7000;0.5918;0.6242;
813.0000;0.5942;0.6319;
813.3000;0.5934;0.6369;
813.6000;0.5926;0.6395;
813.9000;0.5950;0.6446;
814.2000;0.5942;0.6471;
814.5000;0.5942;0.6548;
814.8000;0.5950;0.6497;
815.1000;0.5926;0.6446;
815.4000;0.5942;0.6446;
815.7000;0.5958;0.6471;
816.0000;0.5958;0.6497;
816.3000;0.5942;0.6471;
816.6000;0.5885;0.6344;
816.9000;0.5942;0.6446;
817.2000;0.6007;0.6650;
817.5000;0.5942;0.6548;
817.8000;0.5926;0.6548;
818.1000;0.5934;0.6573;
818.4000;0.5934;0.6497;
818.7000;0.5934;0.6420;
819.0000;0.5910;0.6420;
819.3000;0.5934;0.6446;
819.6000;0.5950;0.6497;
819.9000;0.5926;0.6446;
820.2000;0.5910;0.6420;
820.5000;0.5918;0.6471;
820.8000;0.5934;0.6522;
821.1000;0.5934;0.6548;
821.4000;0.5910;0.6522;
821.7000;0.5910;0.6573;
822.0000;0.5942;0.6522;
822.3000;0.5926;0.6497;
822.6000;0.5910;0.6548;
822.9000;0.5934;0.6522;
823.2000;0.5934;0.6446;
823.5000;0.5926;0.6420;
823.8000;0.5942;0.6420;
824.1000;0.5918;0.6344;
824.4000;0.5934;0.6420;
824.7000;0.5942;0.6471;
825.0000;0.5918;0.6420;
825.3000;0.5918;0.6420;
825.6000;0.5918;0.6446;
825.9000;0.5885;0.6293;
826.2000;0.5942;0.6548;
826.5000;0.5926;0.6446;
826.8000;0.5934;0.6420;
827.1000;0.5910;0.6395;
827.4000;0.5869;0.6293;
827.7000;0.5918;0.6471;
828.0000;0.5967;0.6548;
828.3000;0.5910;0.6497;
828.6000;0.5853;0.6319;
828.9000;0.5885;0.6395;
829.2000;0.5893;0.6268;
829.5000;0.5893;0.6293;
829.8000;0.5910;0.6268;
830.1000;0.5910;0.6293;
830.4000;0.5885;0.6268;
830.7000;0.5893;0.6344;
831.0000;0.5918;0.6369;
831.3000;0.5902;0.6395;
831.6000;0.5902;0.6293;
831.9000;0.5885;0.6268;
832.2000;0.5893;0.6268;
832.5000;0.5893;0.6268;
832.8000;0.5861;0.6242;
833.1000;0.5885;0.6242;
833.4000;0.5910;0.6217;
833.7000;0.5910;0.6319;
834.0000;0.5910;0.6369;
834.3000;0.5836;0.6191;
834.6000;0.5918;0.6420;
834.9000;0.5910;0.6395;
835.2000;0.5926;0.6319;
835.5000;0.5902;0.6293;
835.8000;0.5918;0.6319;
836.1000;0.5902;0.6268;
836.4000;0.5902;0.6242;
836.7000;0.5910;0.6369;
837.0000;0.5893;0.6446;
837.3000;0.5918;0.6471;
837.6000;0.5910;0.6471;
837.9000;0.5877;0.6344;
838.2000;0.5877;0.6217;
838.5000;0.5893;0.6319;
838.8000;0.5910;0.6344;
839.1000;0.5893;0.6319;
839.4000;0.5902;0.6344;
839.7000;0.5893;0.6369;
840.0000;0.5918;0.6420;
840.3000;0.5910;0.6344;
840.6000;0.5902;0.6191;
840.9000;0.5885;0.6293;
841.2000;0.5885;0.6344;
841.5000;0.5902;0.6369;
841.8000;0.5902;0.6344;
842.1000;0.5877;0.6293;
842.4000;0.5885;0.6319;
842.7000;0.5869;0.6191;
843.0000;0.5885;0.6191;
843.3000;0.5902;0.6268;
843.6000;0.5893;0.6166;
843.9000;0.5877;0.6242;
844.2000;0.5877;0.6191;
844.5000;0.5796;0.6013;
844.8000;0.5910;0.6344;
845.1000;0.5902;0.6319;
845.4000;0.5893;0.6344;
845.7000;0.5902;0.6369;
846.0000;0.5885;0.6293;
846.3000;0.5958;0.6446;
846.6000;0.5877;0.6319;
846.9000;0.5877;0.6369;
847.2000;0.5877;0.6369;
847.5000;0.5885;0.6369;
847.8000;0.5877;0.6242;
848.1000;0.5885;0.6268;
848.4000;0.5869;0.6319;
848.7000;0.5861;0.6369;
849.0000;0.5877;0.6319;
849.3000;0.5893;0.6369;
849.6000;0.5885;0.6369;
849.9000;0.5926;0.6548;
850.2000;0.5893;0.6548;
850.5000;0.5902;0.6522;
850.8000;0.5893;0.6471;
851.1000;0.5869;0.6471;
851.4000;0.5893;0.6497;
851.7000;0.5902;0.6548;
852.0000;0.5828;0.6369;
852.3000;0.5861;0.6548;
852.6000;0.5861;0.6548;
852.9000;0.5869;0.6675;
853.2000;0.5934;0.6828;
853.5000;0.5877;0.6650;
853.8000;0.5861;0.6522;
854.1000;0.5885;0.6573;
854.4000;0.5877;0.6573;
854.7000;0.5861;0.6624;
855.0000;0.5877;0.6650;
855.3000;0.5869;0.6650;
855.6000;0.5861;0.6522;
855.9000;0.5861;0.6471;
856.2000;0.5885;0.6548;
856.5000;0.5877;0.6548;
856.8000;0.5877;0.6446;
857.1000;0.5861;0.6420;
857.4000;0.5861;0.6420;
857.7000;0.5869;0.6497;
858.0000;0.5877;0.6548;
858.3000;0.5877;0.6599;
858.6000;0.5853;0.6497;
858.9000;0.5861;0.6522;
859.2000;0.5926;0.6701;
859.5000;0.5861;0.6573;
859.8000;0.5861;0.6573;
860.1000;0.5877;0.6675;
860.4000;0.5885;0.6701;
860.7000;0.5885;0.6701;
861.0000;0.5877;0.6599;
861.3000;0.5869;0.6624;
861.6000;0.5885;0.6701;
861.9000;0.5861;0.6701;
862.2000;0.5861;0.6675;
862.5000;0.5836;0.6650;
862.8000;0.5853;0.6650;
863.1000;0.5869;0.6777;
863.4000;0.5869;0.6701;
863.7000;0.5853;0.6624;
864.0000;0.5845;0.6548;
864.3000;0.5853;0.6599;
864.6000;0.5869;0.6497;
864.9000;0.5853;0.6420;
865.2000;0.5869;0.6471;
865.5000;0.5869;0.6395;
865.8000;0.5934;0.6599;
866.1000;0.5845;0.6497;
866.4000;0.5893;0.6701;
866.7000;0.5869;0.6752;
867.0000;0.5845;0.6726;
867.3000;0.5885;0.6777;
867.6000;0.5845;0.6650;
867.9000;0.5861;0.6599;
868.2000;0.5869;0.6624;
868.5000;0.5861;0.6752;
868.8000;0.5869;0.6650;
869.1000;0.5845;0.6548;
869.4000;0.5861;0.6548;
869.7000;0.5828;0.6446;
870.0000;0.5853;0.6471;
870.3000;0.5861;0.6471;
870.6000;0.5861;0.6471;
870.9000;0.5910;0.6650;
871.2000;0.5885;0.6599;
871.5000;0.5869;0.6599;
871.8000;0.5861;0.6522;
872.1000;0.5869;0.6522;
872.4000;0.5853;0.6599;
872.7000;0.5836;0.6548;
873.0000;0.5853;0.6548;
873.3000;0.5853;0.6573;
873.6000;0.5845;0.6573;
873.9000;0.5836;0.6624;
874.2000;0.5845;0.6599;
874.5000;0.5869;0.6701;
874.8000;0.5861;0.6573;
875.1000;0.5861;0.6650;
875.4000;0.5853;0.6701;
875.7000;0.5861;0.6752;
876.0000;0.5845;0.6701;
876.3000;0.5853;0.6752;
876.6000;0.5861;0.6828;
876.9000;0.5861;0.6803;
877.2000;0.5861;0.6828;
877.5000;0.5836;0.6803;
877.8000;0.5853;0.6777;
878.1000;0.5869;0.6726;
878.4000;0.5853;0.6701;
878.7000;0.5836;0.6650;
879.0000;0.5779;0.6471;
879.3000;0.5845;0.6573;
879.6000;0.5853;0.6599;
879.9000;0.5828;0.6522;
880.2000;0.5845;0.6522;
880.5000;0.5845;0.6471;
880.8000;0.5861;0.6497;
881.1000;0.5836;0.6446;
881.4000;0.5861;0.6522;
881.7000;0.5861;0.6522;
882.0000;0.5845;0.6420;
882.3000;0.5845;0.6369;
882.6000;0.5836;0.6293;
882.9000;0.5877;0.6369;
883.2000;0.5836;0.6369;
883.5000;0.5820;0.6369;
883.8000;0.5836;0.6471;
884.1000;0.5853;0.6471;
884.4000;0.5820;0.6420;
884.7000;0.5869;0.6522;
885.0000;0.5853;0.6573;
885.3000;0.5828;0.6497;
885.6000;0.5845;0.6624;
885.9000;0.5861;0.6701;
886.2000;0.5861;0.6650;
886.5000;0.5877;0.6675;
886.8000;0.5820;0.6599;
887.1000;0.5861;0.6701;
887.4000;0.5828;0.6599;
887.7000;0.5828;0.6599;
888.0000;0.5828;0.6548;
888.3000;0.5836;0.6548;
888.6000;0.5845;0.6573;
888.9000;0.5836;0.6573;
889.2000;0.5836;0.6573;
889.5000;0.5861;0.6726;
889.8000;0.5812;0.6599;
890.1000;0.5845;0.6650;
890.4000;0.5845;0.6675;
890.7000;0.5812;0.6650;
891.0000;0.5828;0.6726;
891.3000;0.5845;0.6752;
891.6000;0.5812;0.6522;
891.9000;0.5828;0.6599;
892.2000;0.5845;0.6650;
892.5000;0.5836;0.6777;
892.8000;0.5836;0.6803;
893.1000;0.5828;0.6828;
893.4000;0.5828;0.6828;
893.7000;0.5845;0.6803;
894.0000;0.5877;0.6930;
894.3000;0.5820;0.6803;
894.6000;0.5836;0.6701;
894.9000;0.5845;0.6701;
895.2000;0.5910;0.6854;
895.5000;0.5828;0.6650;
895.8000;0.5812;0.6650;
896.1000;0.5845;0.6752;
896.4000;0.5820;0.6752;
896.7000;0.5869;0.6803;
897.0000;0.5828;0.6752;
897.3000;0.5828;0.6752;
897.6000;0.5845;0.6752;
897.9000;0.5836;0.6854;
898.2000;0.5820;0.6777;
898.5000;0.5836;0.6854;
898.8000;0.5828;0.6828;
899.1000;0.5828;0.6905;
899.4000;0.5836;0.6905;
899.7000;0.5804;0.6777;
900.0000;0.5828;0.6777;
900.3000;0.5836;0.6752;
900.6000;0.5812;0.6650;
900.9000;0.5820;0.6701;
901.2000;0.5820;0.6624;
901.5000;0.5836;0.6752;
901.8000;0.5804;0.6650;
902.1000;0.5853;0.6650;
902.4000;0.5828;0.6497;
902.7000;0.5804;0.6548;
903.0000;0.5828;0.6573;
903.3000;0.5804;0.6599;
903.6000;0.5812;0.6675;
903.9000;0.5828;0.6752;
904.2000;0.5804;0.6752;
904.5000;0.5796;0.6726;
904.8000;0.5812;0.6650;
905.1000;0.5828;0.6675;
905.4000;0.5820;0.6599;
905.7000;0.5820;0.6573;
906.0000;0.5828;0.6573;
906.3000;0.5788;0.6446;
906.6000;0.5820;0.6497;
906.9000;0.5820;0.6471;
907.2000;0.5828;0.6548;
907.5000;0.5836;0.6522;
907.8000;0.5836;0.6599;
908.1000;0.5804;0.6573;
908.4000;0.5820;0.6548;
908.7000;0.5820;0.6624;
909.0000;0.5836;0.6752;
909.3000;0.5820;0.6726;
909.6000;0.5812;0.6726;
909.9000;0.5836;0.6777;
910.2000;0.5828;0.6777;
910.5000;0.5820;0.6752;
910.8000;0.5820;0.6726;
911.1000;0.5804;0.6701;
911.4000;0.5820;0.6675;
911.7000;0.5820;0.6701;
912.0000;0.5812;0.6650;
912.3000;0.5828;0.6701;
912.6000;0.5820;0.6624;
912.9000;0.5812;0.6548;
913.2000;0.5820;0.6573;
913.5000;0.5812;0.6548;
913.8000;0.5869;0.6573;
914.1000;0.5804;0.6395;
914.4000;0.5828;0.6420;
914.7000;0.5714;0.6268;
915.0000;0.5812;0.6522;
915.3000;0.5820;0.6548;
915.6000;0.5804;0.6548;
915.9000;0.5804;0.6573;
916.2000;0.5804;0.6548;
916.5000;0.5820;0.6675;
916.8000;0.5812;0.6624;
917.1000;0.5812;0.6624;
917.4000;0.5788;0.6650;
917.7000;0.5812;0.6675;
918.0000;0.5820;0.6675;
918.3000;0.5812;0.6573;
918.6000;0.5804;0.6446;
918.9000;0.5804;0.6497;
919.2000;0.5804;0.6548;
919.5000;0.5796;0.6446;
919.8000;0.5796;0.6471;
920.1000;0.5812;0.6573;
920.4000;0.5845;0.6726;
920.7000;0.5788;0.6599;
921.0000;0.5788;0.6675;
921.3000;0.5804;0.6726;
921.6000;0.5796;0.6650;
921.9000;0.5804;0.6624;
922.2000;0.5836;0.6675;
922.5000;0.5836;0.6675;
922.8000;0.5788;0.6573;
923.1000;0.5853;0.6752;
923.4000;0.5820;0.6624;
923.7000;0.5853;0.6701;
924.0000;0.5788;0.6446;
924.3000;0.5828;0.6573;
924.6000;0.5845;0.6701;
924.9000;0.5796;0.6573;
925.2000;0.5828;0.6573;
925.5000;0.5763;0.6446;
925.8000;0.5739;0.6420;
926.1000;0.5804;0.6599;
926.4000;0.5779;0.6624;
926.7000;0.5796;0.6675;
927.0000;0.5812;0.6701;
927.3000;0.5836;0.6777;
927.6000;0.5788;0.6573;
927.9000;0.5820;0.6777;
928.2000;0.5845;0.6777;
928.5000;0.5804;0.6752;
928.8000;0.5836;0.6752;
929.1000;0.5828;0.6752;
929.4000;0.5804;0.6650;
929.7000;0.5796;0.6624;
930.0000;0.5820;0.6726;
930.3000;0.5779;0.6650;
930.6000;0.5812;0.6752;
930.9000;0.5804;0.6752;
931.2000;0.5804;0.6573;
931.5000;0.5812;0.6650;
931.8000;0.5820;0.6854;
932.1000;0.5804;0.6828;
932.4000;0.5812;0.6828;
932.7000;0.5796;0.6777;
933.0000;0.5747;0.6599;
933.3000;0.5779;0.6675;
933.6000;0.5796;0.6777;
933.9000;0.5771;0.6777;
934.2000;0.5779;0.6752;
934.5000;0.5788;0.6752;
934.8000;0.5755;0.6752;
935.1000;0.5788;0.6701;
935.4000;0.5796;0.6650;
935.7000;0.5796;0.6650;
936.0000;0.5804;0.6803;
936.3000;0.5788;0.6752;
936.6000;0.5755;0.6599;
936.9000;0.5788;0.6726;
937.2000;0.5788;0.6624;
937.5000;0.5812;0.6624;
937.8000;0.5779;0.6573;
938.1000;0.5779;0.6675;
938.4000;0.5804;0.6624;
938.7000;0.5755;0.6395;
939.0000;0.5779;0.6522;
939.3000;0.5763;0.6522;
939.6000;0.5796;0.6650;
939.9000;0.5804;0.6624;
940.2000;0.5788;0.6624;
940.5000;0.5820;0.6752;
940.8000;0.5771;0.6752;
941.1000;0.5747;0.6803;
941.4000;0.5779;0.6752;
941.7000;0.5796;0.6803;
942.0000;0.5779;0.6752;
942.3000;0.5771;0.6624;
942.6000;0.5788;0.6701;
942.9000;0.5779;0.6599;
943.2000;0.5788;0.6573;
943.5000;0.5779;0.6548;
943.8000;0.5763;0.6522;
944.1000;0.5788;0.6548;
944.4000;0.5796;0.6599;
944.7000;0.5812;0.6573;
945.0000;0.5788;0.6675;
945.3000;0.5796;0.6777;
945.6000;0.5788;0.6675;
945.9000;0.5779;0.6752;
946.2000;0.5788;0.6701;
946.5000;0.5804;0.6726;
946.8000;0.5779;0.6650;
947.1000;0.5804;0.6599;
947.4000;0.5779;0.6599;
947.7000;0.5804;0.6624;
948.0000;0.5788;0.6522;
948.3000;0.5779;0.6522;
948.6000;0.5779;0.6599;
948.9000;0.5755;0.6497;
949.2000;0.5771;0.6548;
949.5000;0.5771;0.6650;
949.8000;0.5861;0.6955;
950.1000;0.5771;0.6701;
950.4000;0.5779;0.6726;
950.7000;0.5771;0.6752;
951.0000;0.5788;0.6854;
951.3000;0.5836;0.6905;
951.6000;0.5779;0.6726;
951.9000;0.5779;0.6726;
952.2000;0.5788;0.6675;
952.5000;0.5788;0.6624;
952.8000;0.5788;0.6548;
953.1000;0.5755;0.6420;
953.4000;0.5779;0.6497;
953.7000;0.5788;0.6548;
954.0000;0.5771;0.6420;
954.3000;0.5779;0.6573;
954.6000;0.5788;0.6675;
954.9000;0.5788;0.6624;
955.2000;0.5788;0.6599;
955.5000;0.5771;0.6573;
955.8000;0.5771;0.6624;
956.1000;0.5747;0.6624;
956.4000;0.5788;0.6777;
956.7000;0.5755;0.6726;
957.0000;0.5788;0.6777;
957.3000;0.5731;0.6599;
957.6000;0.5796;0.6777;
957.9000;0.5779;0.6803;
958.2000;0.5788;0.6752;
958.5000;0.5820;0.6930;
958.8000;0.5812;0.6803;
959.1000;0.5796;0.6752;
959.4000;0.5771;0.6573;
959.7000;0.5731;0.6471;
960.0000;0.5779;0.6548;
960.3000;0.5788;0.6573;
960.6000;0.5755;0.6548;
960.9000;0.5771;0.6650;
961.2000;0.5771;0.6599;
961.5000;0.5836;0.6752;
961.8000;0.5755;0.6548;
962.1000;0.5788;0.6624;
962.4000;0.5771;0.6624;
962.7000;0.5779;0.6650;
963.0000;0.5812;0.6650;
963.3000;0.5788;0.6650;
963.6000;0.5788;0.6650;
963.9000;0.5788;0.6675;
964.2000;0.5755;0.6650;
964.5000;0.5755;0.6701;
964.8000;0.5788;0.6803;
965.1000;0.5763;0.6803;
965.4000;0.5771;0.6854;
965.7000;0.5763;0.6828;
966.0000;0.5771;0.6701;
966.3000;0.5779;0.6777;
966.6000;0.5779;0.6777;
966.9000;0.5779;0.6854;
967.2000;0.5788;0.6930;
967.5000;0.5804;0.6981;
967.8000;0.5779;0.6879;
968.1000;0.5779;0.6905;
968.4000;0.5779;0.6905;
968.7000;0.5771;0.6854;
969.0000;0.5771;0.6879;
969.3000;0.5796;0.6981;
969.6000;0.5779;0.6905;
969.9000;0.5788;0.6905;
970.2000;0.5788;0.6803;
970.5000;0.5788;0.6854;
970.8000;0.5788;0.6828;
971.1000;0.5763;0.6726;
971.4000;0.5771;0.6675;
971.7000;0.5771;0.6752;
972.0000;0.5779;0.6726;
972.3000;0.5763;0.6726;
972.6000;0.5779;0.6879;
972.9000;0.5755;0.6828;
973.2000;0.5763;0.6803;
973.5000;0.5747;0.6624;
973.8000;0.5739;0.6624;
974.1000;0.5763;0.6650;
974.4000;0.5722;0.6471;
974.7000;0.5763;0.6573;
975.0000;0.5771;0.6599;
975.3000;0.5763;0.6650;
975.6000;0.5755;0.6650;
975.9000;0.5714;0.6548;
976.2000;0.5747;0.6599;
976.5000;0.5755;0.6573;
976.8000;0.5771;0.6573;
977.1000;0.5747;0.6522;
977.4000;0.5788;0.6548;
977.7000;0.5731;0.6395;
978.0000;0.5788;0.6650;
978.3000;0.5763;0.6701;
978.6000;0.5755;0.6752;
978.9000;0.5747;0.6675;
979.2000;0.5763;0.6752;
979.5000;0.5763;0.6752;
979.8000;0.5747;0.6624;
980.1000;0.5755;0.6573;
980.4000;0.5779;0.6573;
980.7000;0.5755;0.6471;
981.0000;0.5747;0.6497;
981.3000;0.5763;0.6497;
981.6000;0.5779;0.6624;
981.9000;0.5788;0.6675;
982.2000;0.5812;0.6726;
982.5000;0.5731;0.6446;
982.8000;0.5779;0.6522;
983.1000;0.5853;0.6752;
983.4000;0.5755;0.6599;
983.7000;0.5731;0.6522;
984.0000;0.5755;0.6624;
984.3000;0.5706;0.6471;
984.6000;0.5771;0.6624;
984.9000;0.5731;0.6548;
985.2000;0.5779;0.6675;
985.5000;0.5763;0.6650;
985.8000;0.5755;0.6624;
986.1000;0.5812;0.6726;
986.4000;0.5771;0.6624;
986.7000;0.5779;0.6650;
987.0000;0.5779;0.6650;
987.3000;0.5747;0.6548;
987.6000;0.5747;0.6522;
987.9000;0.5763;0.6573;
988.2000;0.5771;0.6624;
988.5000;0.5755;0.6599;
988.8000;0.5779;0.6650;
989.1000;0.5755;0.6624;
989.4000;0.5747;0.6701;
989.7000;0.5763;0.6701;
990.0000;0.5771;0.6701;
990.3000;0.5755;0.6599;
990.6000;0.5763;0.6599;
990.9000;0.5747;0.6573;
991.2000;0.5763;0.6573;
991.5000;0.5747;0.6522;
991.8000;0.5739;0.6471;
992.1000;0.5755;0.6471;
992.4000;0.5747;0.6395;
992.7000;0.5755;0.6522;
993.0000;0.5763;0.6548;
993.3000;0.5755;0.6471;
993.6000;0.5828;0.6599;
993.9000;0.5763;0.6369;
994.2000;0.5706;0.6217;
994.5000;0.5755;0.6395;
994.8000;0.5763;0.6471;
995.1000;0.5739;0.6420;
995.4000;0.5731;0.6471;
995.7000;0.5747;0.6548;
996.0000;0.5755;0.6548;
996.3000;0.5771;0.6650;
996.6000;0.5739;0.6548;
996.9000;0.5796;0.6650;
997.2000;0.5820;0.6675;
997.5000;0.5739;0.6548;
997.8000;0.5722;0.6395;
998.1000;0.5755;0.6522;
998.4000;0.5788;0.6599;
998.7000;0.5747;0.6573;
999.0000;0.5755;0.6650;
999.3000;0.5690;0.6420;
999.6000;0.5763;0.6701;
999.9000;0.5755;0.6650;
1000.2000;0.5796;0.6726;
1000.5000;0.5731;0.6548;
1000.8000;0.5722;0.6420;
1001.1000;0.5747;0.6497;
1001.4000;0.5755;0.6497;
1001.7000;0.5747;0.6471;
1002.0000;0.5763;0.6420;
1002.3000;0.5755;0.6548;
1002.6000;0.5739;0.6420;
1002.9000;0.5763;0.6624;
1003.2000;0.5779;0.6726;
1003.5000;0.5747;0.6675;
1003.8000;0.5739;0.6726;
1004.1000;0.5755;0.6777;
1004.4000;0.5763;0.6752;
1004.7000;0.5788;0.6752;
1005.0000;0.5739;0.6675;
1005.3000;0.5739;0.6752;
1005.6000;0.5739;0.6803;
1005.9000;0.5747;0.6854;
1006.2000;0.5731;0.6854;
1006.5000;0.5739;0.6879;
1006.8000;0.5763;0.6930;
1007.1000;0.5755;0.6981;
1007.4000;0.5755;0.6905;
1007.7000;0.5739;0.6854;
1008.0000;0.5747;0.6803;
1008.3000;0.5779;0.6879;
1008.6000;0.5747;0.6828;
1008.9000;0.5836;0.6981;
1009.2000;0.5731;0.6701;
1009.5000;0.5714;0.6752;
1009.8000;0.5755;0.6879;
1010.1000;0.5763;0.6752;
1010.4000;0.5747;0.6701;
1010.7000;0.5747;0.6650;
1011.0000;0.5739;0.6650;
1011.3000;0.5755;0.6726;
1011.6000;0.5739;0.6701;
1011.9000;0.5739;0.6726;
1012.2000;0.5731;0.6624;
1012.5000;0.5747;0.6522;
1012.8000;0.5739;0.6471;
1013.1000;0.5714;0.6471;
1013.4000;0.5747;0.6522;
1013.7000;0.5747;0.6624;
1014.0000;0.5739;0.6599;
1014.3000;0.5739;0.6675;
1014.6000;0.5747;0.6701;
1014.9000;0.5771;0.6675;
1015.2000;0.5755;0.6650;
1015.5000;0.5722;0.6599;
1015.8000;0.5722;0.6471;
1016.1000;0.5739;0.6573;
1016.4000;0.5755;0.6624;
1016.7000;0.5739;0.6548;
1017.0000;0.5771;0.6599;
1017.3000;0.5747;0.6599;
1017.6000;0.5747;0.6701;
1017.9000;0.5739;0.6650;
1018.2000;0.5771;0.6624;
1018.5000;0.5755;0.6573;
1018.8000;0.5763;0.6650;
1019.1000;0.5714;0.6624;
1019.4000;0.5722;0.6777;
1019.7000;0.5755;0.6854;
1020.0000;0.5747;0.6905;
1020.3000;0.5722;0.6650;
1020.6000;0.5739;0.6701;
1020.9000;0.5731;0.6599;
1021.2000;0.5739;0.6650;
1021.5000;0.5747;0.6650;
1021.8000;0.5747;0.6726;
1022.1000;0.5755;0.6828;
1022.4000;0.5706;0.6828;
1022.7000;0.5714;0.6777;
1023.0000;0.5739;0.6803;
1023.3000;0.5763;0.6777;
1023.6000;0.5755;0.6803;
1023.9000;0.5820;0.6981;
1024.2000;0.5714;0.6573;
1024.5000;0.5755;0.6675;
1024.8000;0.5731;0.6650;
1025.1000;0.5731;0.6675;
1025.4000;0.5722;0.6548;
1025.7000;0.5739;0.6624;
1026.0000;0.5755;0.6599;
1026.3000;0.5747;0.6599;
1026.6000;0.5747;0.6548;
1026.9000;0.5747;0.6548;
1027.2000;0.5747;0.6573;
1027.5000;0.5739;0.6548;
1027.8000;0.5747;0.6573;
1028.1000;0.5739;0.6624;
1028.4000;0.5739;0.6701;
1028.7000;0.5747;0.6752;
1029.0000;0.5763;0.6777;
1029.3000;0.5731;0.6650;
1029.6000;0.5739;0.6599;
1029.9000;0.5731;0.6599;
1030.2000;0.5722;0.6548;
1030.5000;0.5747;0.6471;
1030.8000;0.5731;0.6446;
1031.1000;0.5755;0.6471;
1031.4000;0.5747;0.6522;
1031.7000;0.5722;0.6446;
1032.0000;0.5731;0.6573;
1032.3000;0.5747;0.6548;
1032.6000;0.5755;0.6548;
1032.9000;0.5747;0.6446;
1033.2000;0.5722;0.6395;
1033.5000;0.5722;0.6420;
1033.8000;0.5722;0.6573;
1034.1000;0.5739;0.6599;
1034.4000;0.5722;0.6573;
1034.7000;0.5739;0.6701;
1035.0000;0.5755;0.6701;
1035.3000;0.5755;0.6675;
1035.6000;0.5731;0.6675;
1035.9000;0.5706;0.6650;
1036.2000;0.5739;0.6803;
1036.5000;0.5739;0.6701;
1036.8000;0.5690;0.6573;
1037.1000;0.5739;0.6650;
1037.4000;0.5731;0.6675;
1037.7000;0.5706;0.6650;
1038.0000;0.5722;0.6701;
1038.3000;0.5731;0.6650;
1038.6000;0.5674;0.6420;
1038.9000;0.5731;0.6599;
1039.2000;0.5755;0.6675;
1039.5000;0.5747;0.6624;
1039.8000;0.5779;0.6675;
1040.1000;0.5747;0.6573;
1040.4000;0.5747;0.6675;
1040.7000;0.5739;0.6675;
1041.0000;0.5747;0.6726;
1041.3000;0.5698;0.6675;
1041.6000;0.5731;0.6752;
1041.9000;0.5731;0.6701;
1042.2000;0.5722;0.6701;
1042.5000;0.5739;0.6752;
1042.8000;0.5722;0.6650;
1043.1000;0.5714;0.6752;
1043.4000;0.5739;0.6854;
1043.7000;0.5706;0.6854;
1044.0000;0.5779;0.7032;
1044.3000;0.5747;0.6955;
1044.6000;0.5731;0.7032;
1044.9000;0.5714;0.6930;
1045.2000;0.5755;0.7006;
1045.5000;0.5731;0.7006;
1045.8000;0.5731;0.6930;
1046.1000;0.5747;0.6879;
1046.4000;0.5731;0.6803;
1046.7000;0.5731;0.6650;
1047.0000;0.5731;0.6624;
1047.3000;0.5722;0.6675;
1047.6000;0.5739;0.6650;
1047.9000;0.5722;0.6650;
1048.2000;0.5706;0.6573;
1048.5000;0.5714;0.6599;
1048.8000;0.5722;0.6701;
1049.1000;0.5722;0.6650;
1049.4000;0.5714;0.6624;
1049.7000;0.5739;0.6624;
1050.0000;0.5731;0.6701;
1050.3000;0.5731;0.6650;
1050.6000;0.5747;0.6701;
1050.9000;0.5722;0.6701;
1051.2000;0.5690;0.6752;
1051.5000;0.5706;0.6752;
1051.8000;0.5731;0.6828;
1052.1000;0.5747;0.6803;
1052.4000;0.5674;0.6624;
1052.7000;0.5706;0.6752;
1053.0000;0.5722;0.6752;
1053.3000;0.5706;0.6650;
1053.6000;0.5755;0.6675;
1053.9000;0.5739;0.6573;
1054.2000;0.5731;0.6599;
1054.5000;0.5779;0.6752;
1054.8000;0.5739;0.6522;
1055.1000;0.5739;0.6522;
1055.4000;0.5820;0.6752;
1055.7000;0.5812;0.6752;
1056.0000;0.5722;0.6548;
1056.3000;0.5739;0.6471;
1056.6000;0.5731;0.6471;
1056.9000;0.5755;0.6650;
1057.2000;0.5739;0.6752;
1057.5000;0.5657;0.6471;
1057.8000;0.5731;0.6701;
1058.1000;0.5739;0.6828;
1058.4000;0.5747;0.6879;
1058.7000;0.5714;0.6726;
1059.0000;0.5739;0.6828;
1059.3000;0.5731;0.6726;
1059.6000;0.5706;0.6675;
1059.9000;0.5747;0.6752;
1060.2000;0.5747;0.6624;
1060.5000;0.5739;0.6471;
1060.8000;0.5690;0.6395;
1061.1000;0.5731;0.6573;
1061.4000;0.5731;0.6675;
1061.7000;0.5722;0.6803;
1062.0000;0.5731;0.6879;
1062.3000;0.5731;0.6854;
1062.6000;0.5706;0.6905;
1062.9000;0.5706;0.6854;
1063.2000;0.5722;0.6930;
1063.5000;0.5731;0.6828;
1063.8000;0.5731;0.6726;
1064.1000;0.5722;0.6650;
1064.4000;0.5731;0.6624;
1064.7000;0.5747;0.6650;
1065.0000;0.5747;0.6624;
1065.3000;0.5739;0.6471;
1065.6000;0.5747;0.6573;
1065.9000;0.5739;0.6650;
1066.2000;0.5731;0.6573;
1066.5000;0.5706;0.6573;
1066.8000;0.5731;0.6701;
1067.1000;0.5698;0.6675;
1067.4000;0.5714;0.6726;
1067.7000;0.5722;0.6599;
1068.0000;0.5714;0.6573;
1068.3000;0.5731;0.6675;
1068.6000;0.5747;0.6777;
1068.9000;0.5747;0.6803;
1069.2000;0.5731;0.6752;
1069.5000;0.5755;0.6803;
1069.8000;0.5747;0.6675;
1070.1000;0.5731;0.6599;
1070.4000;0.5771;0.6624;
1070.7000;0.5739;0.6650;
1071.0000;0.5739;0.6701;
1071.3000;0.5739;0.6726;
1071.6000;0.5722;0.6726;
1071.9000;0.5731;0.6752;
1072.2000;0.5739;0.6854;
1072.5000;0.5722;0.6777;
1072.8000;0.5722;0.6803;
1073.1000;0.5714;0.6828;
1073.4000;0.5665;0.6624;
1073.7000;0.5722;0.6752;
1074.0000;0.5714;0.6650;
1074.3000;0.5714;0.6752;
1074.6000;0.5714;0.6803;
1074.9000;0.5722;0.6803;
1075.2000;0.5714;0.6803;
1075.5000;0.5722;0.6828;
1075.8000;0.5722;0.6752;
1076.1000;0.5731;0.6803;
1076.4000;0.5755;0.6803;
1076.7000;0.5763;0.6803;
1077.0000;0.5731;0.6803;
1077.3000;0.5731;0.6726;
1077.6000;0.5763;0.6905;
1077.9000;0.5714;0.6675;
1078.2000;0.5706;0.6573;
1078.5000;0.5608;0.6395;
1078.8000;0.5722;0.6701;
1079.1000;0.5706;0.6624;
1079.4000;0.5706;0.6624;
1079.7000;0.5714;0.6624;
1080.0000;0.5706;0.6599;
1080.3000;0.5698;0.6573;
1080.6000;0.5706;0.6599;
1080.9000;0.5722;0.6650;
1081.2000;0.5722;0.6624;
1081.5000;0.5706;0.6548;
1081.8000;0.5731;0.6675;
1082.1000;0.5706;0.6701;
1082.4000;0.5731;0.6675;
1082.7000;0.5722;0.6624;
1083.0000;0.5706;0.6650;
1083.3000;0.5706;0.6675;
1083.6000;0.5706;0.6726;
1083.9000;0.5706;0.6726;
1084.2000;0.5706;0.6675;
1084.5000;0.5722;0.6701;
1084.8000;0.5731;0.6777;
1085.1000;0.5714;0.6701;
1085.4000;0.5706;0.6624;
1085.7000;0.5722;0.6726;
1086.0000;0.5731;0.6854;
1086.3000;0.5722;0.6828;
1086.6000;0.5690;0.6650;
1086.9000;0.5722;0.6701;
1087.2000;0.5731;0.6701;
1087.5000;0.5674;0.6624;
1087.8000;0.5714;0.6650;
1088.1000;0.5690;0.6548;
1088.4000;0.5722;0.6650;
1088.7000;0.5706;0.6599;
1089.0000;0.5714;0.6624;
1089.3000;0.5698;0.6624;
1089.6000;0.5722;0.6726;
1089.9000;0.5731;0.6675;
1090.2000;0.5706;0.6624;
1090.5000;0.5665;0.6471;
1090.8000;0.5731;0.6675;
1091.1000;0.5722;0.6599;
1091.4000;0.5731;0.6573;
1091.7000;0.5763;0.6675;
1092.0000;0.5714;0.6599;
1092.3000;0.5706;0.6573;
1092.6000;0.5763;0.6752;
1092.9000;0.5682;0.6497;
1093.2000;0.5747;0.6675;
1093.5000;0.5698;0.6548;
1093.8000;0.5722;0.6599;
1094.1000;0.5731;0.6650;
1094.4000;0.5739;0.6701;
1094.7000;0.5731;0.6701;
1095.0000;0.5722;0.6777;
1095.3000;0.5731;0.6803;
1095.6000;0.5739;0.6803;
1095.9000;0.5731;0.6828;
1096.2000;0.5739;0.6854;
1096.5000;0.5747;0.6777;
1096.8000;0.5714;0.6624;
1097.1000;0.5690;0.6573;
1097.4000;0.5771;0.6752;
1097.7000;0.5731;0.6624;
1098.0000;0.5731;0.6573;
1098.3000;0.5706;0.6548;
1098.6000;0.5698;0.6573;
1098.9000;0.5714;0.6650;
1099.2000;0.5674;0.6522;
1099.5000;0.5731;0.6624;
1099.8000;0.5698;0.6548;
1100.1000;0.5731;0.6599;
1100.4000;0.5665;0.6446;
1100.7000;0.5722;0.6573;
1101.0000;0.5690;0.6624;
1101.3000;0.5690;0.6675;
1101.6000;0.5722;0.6777;
1101.9000;0.5690;0.6624;
1102.2000;0.5698;0.6726;
1102.5000;0.5714;0.6777;
1102.8000;0.5706;0.6803;
1103.1000;0.5698;0.6777;
1103.4000;0.5706;0.6803;
1103.7000;0.5682;0.6752;
1104.0000;0.5731;0.6854;
1104.3000;0.5698;0.6650;
1104.6000;0.5706;0.6650;
1104.9000;0.5714;0.6650;
1105.2000;0.5682;0.6497;
1105.5000;0.5722;0.6650;
1105.8000;0.5714;0.6599;
1106.1000;0.5706;0.6599;
1106.4000;0.5706;0.6599;
1106.7000;0.5714;0.6701;
1107.0000;0.5714;0.6650;
1107.3000;0.5706;0.6752;
1107.6000;0.5722;0.6828;
1107.9000;0.5706;0.6854;
1108.2000;0.5698;0.6803;
1108.5000;0.5698;0.6828;
1108.8000;0.5706;0.6828;
1109.1000;0.5788;0.7057;
1109.4000;0.5722;0.6930;
1109.7000;0.5722;0.6930;
1110.0000;0.5674;0.6701;
1110.3000;0.5747;0.6879;
1110.6000;0.5714;0.6854;
1110.9000;0.5714;0.6828;
1111.2000;0.5714;0.6828;
1111.5000;0.5706;0.6854;
1111.8000;0.5714;0.6854;
1112.1000;0.5755;0.6930;
1112.4000;0.5722;0.6854;
1112.7000;0.5698;0.6777;
1113.0000;0.5698;0.6701;
1113.3000;0.5714;0.6726;
1113.6000;0.5706;0.6701;
1113.9000;0.5690;0.6726;
1114.2000;0.5665;0.6650;
1114.5000;0.5706;0.6803;
1114.8000;0.5690;0.6701;
1115.1000;0.5698;0.6701;
1115.4000;0.5625;0.6497;
1115.7000;0.5674;0.6650;
1116.0000;0.5706;0.6701;
1116.3000;0.5690;0.6701;
1116.6000;0.5641;0.6522;
1116.9000;0.5698;0.6701;
1117.2000;0.5714;0.6650;
1117.5000;0.5698;0.6573;
1117.8000;0.5682;0.6471;
1118.1000;0.5714;0.6522;
1118.4000;0.5722;0.6446;
1118.7000;0.5682;0.6319;
1119.0000;0.5665;0.6319;
1119.3000;0.5706;0.6522;
1119.6000;0.5714;0.6548;
1119.9000;0.5690;0.6471;
1120.2000;0.5682;0.6497;
1120.5000;0.5706;0.6573;
1120.8000;0.5698;0.6599;
1121.1000;0.5714;0.6522;
1121.4000;0.5706;0.6522;
1121.7000;0.5706;0.6599;
1122.0000;0.5698;0.6573;
1122.3000;0.5706;0.6573;
1122.6000;0.5698;0.6573;
1122.9000;0.5714;0.6573;
1123.2000;0.5698;0.6497;
1123.5000;0.5714;0.6522;
1123.8000;0.5665;0.6420;
1124.1000;0.5779;0.6777;
1124.4000;0.5698;0.6650;
1124.7000;0.5755;0.6777;
1125.0000;0.5698;0.6599;
1125.3000;0.5714;0.6599;
1125.6000;0.5722;0.6675;
1125.9000;0.5649;0.6599;
1126.2000;0.5714;0.6803;
1126.5000;0.5706;0.6752;
1126.8000;0.5731;0.6828;
1127.1000;0.5690;0.6726;
1127.4000;0.5706;0.6675;
1127.7000;0.5706;0.6701;
1128.0000;0.5682;0.6624;
1128.3000;0.5682;0.6497;
1128.6000;0.5698;0.6573;
1128.9000;0.5698;0.6599;
1129.2000;0.5698;0.6548;
1129.5000;0.5698;0.6573;
1129.8000;0.5714;0.6522;
1130.1000;0.5706;0.6471;
1130.4000;0.5698;0.6446;
1130.7000;0.5674;0.6268;
1131.0000;0.5706;0.6395;
1131.3000;0.5714;0.6548;
1131.6000;0.5674;0.6497;
1131.9000;0.5698;0.6599;
1132.2000;0.5706;0.6624;
1132.5000;0.5690;0.6548;
1132.8000;0.5747;0.6726;
1133.1000;0.5690;0.6599;
1133.4000;0.5722;0.6701;
1133.7000;0.5714;0.6701;
1134.0000;0.5698;0.6573;
1134.3000;0.5674;0.6446;
1134.6000;0.5690;0.6497;
1134.9000;0.5714;0.6497;
1135.2000;0.5763;0.6522;
1135.5000;0.5682;0.6420;
1135.8000;0.5698;0.6497;
1136.1000;0.5690;0.6471;
1136.4000;0.5690;0.6522;
1136.7000;0.5682;0.6599;
1137.0000;0.5706;0.6675;
1137.3000;0.5706;0.6675;
1137.6000;0.5706;0.6548;
1137.9000;0.5698;0.6548;
1138.2000;0.5698;0.6624;
1138.5000;0.5714;0.6675;
1138.8000;0.5698;0.6599;
1139.1000;0.5657;0.6522;
1139.4000;0.5665;0.6573;
1139.7000;0.5690;0.6650;
1140.0000;0.5698;0.6726;
1140.3000;0.5682;0.6624;
1140.6000;0.5698;0.6752;
1140.9000;0.5682;0.6752;
1141.2000;0.5698;0.6854;
1141.5000;0.5690;0.6803;
1141.8000;0.5682;0.6777;
1142.1000;0.5698;0.6803;
1142.4000;0.5698;0.6752;
1142.7000;0.5690;0.6726;
1143.0000;0.5682;0.6624;
1143.3000;0.5706;0.6599;
1143.6000;0.5706;0.6599;
1143.9000;0.5714;0.6675;
1144.2000;0.5706;0.6624;
1144.5000;0.5706;0.6624;
1144.8000;0.5755;0.6701;
1145.1000;0.5714;0.6548;
1145.4000;0.5698;0.6548;
1145.7000;0.5690;0.6650;
1146.0000;0.5706;0.6650;
1146.3000;0.5714;0.6726;
1146.6000;0.5698;0.6752;
1146.9000;0.5706;0.6726;
1147.2000;0.5739;0.6701;
1147.5000;0.5641;0.6471;
1147.8000;0.5682;0.6624;
1148.1000;0.5690;0.6726;
1148.4000;0.5714;0.6777;
1148.7000;0.5592;0.6522;
1149.0000;0.5714;0.6854;
1149.3000;0.5731;0.6930;
1149.6000;0.5698;0.6828;
1149.9000;0.5706;0.6879;
1150.2000;0.5690;0.6777;
1150.5000;0.5698;0.6854;
1150.8000;0.5698;0.6828;
1151.1000;0.5674;0.6675;
1151.4000;0.5690;0.6752;
1151.7000;0.5698;0.6828;
1152.0000;0.5722;0.6828;
1152.3000;0.5698;0.6726;
1152.6000;0.5714;0.6726;
1152.9000;0.5698;0.6650;
1153.2000;0.5690;0.6599;
1153.5000;0.5706;0.6599;
1153.8000;0.5714;0.6675;
1154.1000;0.5706;0.6650;
1154.4000;0.5698;0.6624;
1154.7000;0.5698;0.6624;
1155.0000;0.5706;0.6599;
1155.3000;0.5706;0.6675;
1155.6000;0.5690;0.6726;
1155.9000;0.5682;0.6548;
1156.2000;0.5698;0.6573;
1156.5000;0.5714;0.6726;
1156.8000;0.5682;0.6675;
1157.1000;0.5698;0.6752;
1157.4000;0.5706;0.6726;
1157.7000;0.5706;0.6803;
1158.0000;0.5706;0.6803;
1158.3000;0.5682;0.6930;
1158.6000;0.5682;0.6930;
1158.9000;0.5690;0.7006;
1159.2000;0.5690;0.6981;
1159.5000;0.5682;0.6930;
1159.8000;0.5682;0.7032;
1160.1000;0.5698;0.7108;
1160.4000;0.5722;0.7083;
1160.7000;0.5698;0.7083;
1161.0000;0.5682;0.7032;
1161.3000;0.5714;0.7159;
1161.6000;0.5722;0.7083;
1161.9000;0.5706;0.7057;
1162.2000;0.5690;0.7057;
1162.5000;0.5714;0.7032;
1162.8000;0.5706;0.6930;
1163.1000;0.5698;0.6803;
1163.4000;0.5706;0.6879;
1163.7000;0.5698;0.6879;
1164.0000;0.5698;0.6879;
1164.3000;0.5657;0.6752;
1164.6000;0.5682;0.6701;
1164.9000;0.5690;0.6701;
1165.2000;0.5706;0.6726;
1165.5000;0.5682;0.6726;
1165.8000;0.5674;0.6650;
1166.1000;0.5690;0.6675;
1166.4000;0.5665;0.6522;
1166.7000;0.5690;0.6522;
1167.0000;0.5690;0.6573;
1167.3000;0.5690;0.6573;
1167.6000;0.5706;0.6701;
1167.9000;0.5714;0.6701;
1168.2000;0.5714;0.6650;
1168.5000;0.5722;0.6701;
1168.8000;0.5706;0.6701;
1169.1000;0.5714;0.6752;
1169.4000;0.5698;0.6777;
1169.7000;0.5690;0.6803;
1170.0000;0.5690;0.6828;
1170.3000;0.5714;0.6879;
1170.6000;0.5657;0.6624;
1170.9000;0.5690;0.6675;
1171.2000;0.5690;0.6701;
1171.5000;0.5560;0.6344;
1171.8000;0.5690;0.6701;
1172.1000;0.5706;0.6752;
1172.4000;0.5706;0.6803;
1172.7000;0.5706;0.6803;
1173.0000;0.5690;0.6803;
1173.3000;0.5698;0.6803;
1173.6000;0.5763;0.6981;
1173.9000;0.5690;0.6879;
1174.2000;0.5682;0.6752;
1174.5000;0.5698;0.6777;
1174.8000;0.5698;0.6752;
1175.1000;0.5674;0.6675;
1175.4000;0.5682;0.6726;
1175.7000;0.5690;0.6726;
1176.0000;0.5682;0.6675;
1176.3000;0.5682;0.6675;
1176.6000;0.5690;0.6675;
1176.9000;0.5674;0.6675;
1177.2000;0.5698;0.6650;
1177.5000;0.5674;0.6573;
1177.8000;0.5682;0.6573;
1178.1000;0.5698;0.6650;
1178.4000;0.5674;0.6599;
1178.7000;0.5690;0.6573;
1179.0000;0.5698;0.6599;
1179.3000;0.5698;0.6624;
1179.6000;0.5706;0.6599;
1179.9000;0.5690;0.6599;
1180.2000;0.5698;0.6573;
1180.5000;0.5698;0.6599;
1180.8000;0.5714;0.6573;
1181.1000;0.5690;0.6599;
1181.4000;0.5706;0.6650;
1181.7000;0.5690;0.6650;
1182.0000;0.5714;0.6752;
1182.3000;0.5698;0.6828;
1182.6000;0.5690;0.6752;
1182.9000;0.5698;0.6726;
1183.2000;0.5690;0.6701;
1183.5000;0.5714;0.6726;
1183.8000;0.5706;0.6777;
1184.1000;0.5755;0.6981;
1184.4000;0.5747;0.6930;
1184.7000;0.5682;0.6675;
1185.0000;0.5682;0.6573;
1185.3000;0.5674;0.6471;
1185.6000;0.5690;0.6650;
1185.9000;0.5690;0.6624;
1186.2000;0.5682;0.6599;
1186.5000;0.5641;0.6573;
1186.8000;0.5674;0.6573;
1187.1000;0.5690;0.6599;
1187.4000;0.5706;0.6548;
1187.7000;0.5714;0.6497;
1188.0000;0.5722;0.6650;
1188.3000;0.5690;0.6650;
1188.6000;0.5739;0.6828;
1188.9000;0.5690;0.6752;
1189.2000;0.5690;0.6726;
1189.5000;0.5706;0.6777;
1189.8000;0.5665;0.6675;
1190.1000;0.5682;0.6803;
1190.4000;0.5657;0.6624;
1190.7000;0.5682;0.6650;
1191.0000;0.5698;0.6777;
1191.3000;0.5690;0.6752;
1191.6000;0.5674;0.6701;
1191.9000;0.5706;0.6726;
1192.2000;0.5714;0.6803;
1192.5000;0.5690;0.6828;
1192.8000;0.5682;0.6752;
1193.1000;0.5690;0.6752;
1193.4000;0.5690;0.6803;
1193.7000;0.5690;0.6803;
1194.0000;0.5682;0.6624;
1194.3000;0.5690;0.6624;
1194.6000;0.5690;0.6701;
1194.9000;0.5682;0.6752;
1195.2000;0.5674;0.6752;
1195.5000;0.5690;0.6701;
1195.8000;0.5690;0.6752;
1196.1000;0.5690;0.6752;
1196.4000;0.5682;0.6752;
1196.7000;0.5682;0.6650;
1197.0000;0.5682;0.6624;
1197.3000;0.5682;0.6650;
1197.6000;0.5698;0.6624;
1197.9000;0.5690;0.6752;
1198.2000;0.5698;0.6752;
1198.5000;0.5706;0.6803;
1198.8000;0.5714;0.6828;
1199.1000;0.5674;0.6675;
1199.4000;0.5690;0.6650;
1199.7000;0.5690;0.6599;
1200.0000;0.5690;0.6650;
1200.3000;0.5690;0.6701;
1200.6000;0.5682;0.6777;
1200.9000;0.5682;0.6803;
1201.2000;0.5698;0.6828;
1201.5000;0.5690;0.6828;
1201.8000;0.5682;0.6828;
1202.1000;0.5674;0.6803;
1202.4000;0.5682;0.6726;
1202.7000;0.5682;0.6701;
1203.0000;0.5722;0.6828;
1203.3000;0.5698;0.6905;
1203.6000;0.5665;0.6803;
1203.9000;0.5690;0.6930;
1204.2000;0.5698;0.6930;
1204.5000;0.5698;0.6905;
1204.8000;0.5698;0.6828;
1205.1000;0.5706;0.6828;
1205.4000;0.5682;0.6828;
1205.7000;0.5690;0.6803;
1206.0000;0.5698;0.6752;
1206.3000;0.5722;0.6777;
1206.6000;0.5682;0.6650;
1206.9000;0.5682;0.6624;
1207.2000;0.5698;0.6777;
1207.5000;0.5714;0.6777;
1207.8000;0.5674;0.6624;
1208.1000;0.5674;0.6573;
1208.4000;0.5682;0.6420;
1208.7000;0.5690;0.6446;
1209.0000;0.5682;0.6446;
1209.3000;0.5690;0.6395;
1209.6000;0.5690;0.6420;
1209.9000;0.5706;0.6420;
1210.2000;0.5682;0.6446;
1210.5000;0.5682;0.6548;
1210.8000;0.5682;0.6471;
1211.1000;0.5682;0.6573;
1211.4000;0.5747;0.6777;
1211.7000;0.5674;0.6497;
1212.0000;0.5674;0.6497;
1212.3000;0.5690;0.6573;
1212.6000;0.5706;0.6599;
1212.9000;0.5690;0.6522;
1213.2000;0.5698;0.6497;
1213.5000;0.5690;0.6548;
1213.8000;0.5698;0.6573;
1214.1000;0.5690;0.6573;
1214.4000;0.5690;0.6624;
1214.7000;0.5698;0.6624;
1215.0000;0.5698;0.6650;
1215.3000;0.5682;0.6624;
1215.6000;0.5690;0.6726;
1215.9000;0.5674;0.6650;
1216.2000;0.5698;0.6624;
1216.5000;0.5690;0.6624;
1216.8000;0.5674;0.6548;
1217.1000;0.5665;0.6599;
1217.4000;0.5682;0.6752;
1217.7000;0.5698;0.6905;
1218.0000;0.5690;0.6981;
1218.3000;0.5682;0.6854;
1218.6000;0.5674;0.6905;
1218.9000;0.5690;0.6955;
1219.2000;0.5665;0.6803;
1219.5000;0.5674;0.6828;
1219.8000;0.5674;0.6854;
1220.1000;0.5690;0.6828;
1220.4000;0.5682;0.6726;
1220.7000;0.5682;0.6701;
1221.0000;0.5682;0.6624;
1221.3000;0.5674;0.6599;
1221.6000;0.5600;0.6420;
1221.9000;0.5665;0.6573;
1222.2000;0.5698;0.6650;
1222.5000;0.5674;0.6701;
1222.8000;0.5698;0.6777;
1223.1000;0.5665;0.6726;
1223.4000;0.5665;0.6701;
1223.7000;0.5690;0.6726;
1224.0000;0.5690;0.6752;
1224.3000;0.5682;0.6752;
1224.6000;0.5682;0.6675;
1224.9000;0.5682;0.6726;
1225.2000;0.5682;0.6752;
1225.5000;0.5674;0.6675;
1225.8000;0.5690;0.6675;
1226.1000;0.5682;0.6675;
1226.4000;0.5674;0.6701;
1226.7000;0.5674;0.6752;
1227.0000;0.5665;0.6701;
1227.3000;0.5690;0.6726;
1227.6000;0.5674;0.6624;
1227.9000;0.5690;0.6726;
1228.2000;0.5690;0.6726;
1228.5000;0.5690;0.6701;
1228.8000;0.5665;0.6624;
1229.1000;0.5690;0.6650;
1229.4000;0.5698;0.6726;
1229.7000;0.5674;0.6752;
1230.0000;0.5690;0.6777;
1230.3000;0.5665;0.6675;
1230.6000;0.5674;0.6599;
1230.9000;0.5682;0.6548;
1231.2000;0.5739;0.6726;
1231.5000;0.5722;0.6624;
1231.8000;0.5722;0.6752;
1232.1000;0.5690;0.6701;
1232.4000;0.5682;0.6675;
1232.7000;0.5690;0.6752;
1233.0000;0.5690;0.6726;
1233.3000;0.5682;0.6777;
1233.6000;0.5674;0.6726;
1233.9000;0.5674;0.6752;
1234.2000;0.5690;0.6828;
1234.5000;0.5698;0.6828;
1234.8000;0.5649;0.6752;
1235.1000;0.5665;0.6803;
1235.4000;0.5665;0.6752;
1235.7000;0.5690;0.6879;
1236.0000;0.5625;0.6624;
1236.3000;0.5665;0.6726;
1236.6000;0.5674;0.6726;
1236.9000;0.5690;0.6650;
1237.2000;0.5674;0.6573;
1237.5000;0.5665;0.6599;
1237.8000;0.5690;0.6624;
1238.1000;0.5674;0.6701;
1238.4000;0.5690;0.6803;
1238.7000;0.5698;0.6930;
1239.0000;0.5690;0.6955;
1239.3000;0.5690;0.6981;
1239.6000;0.5674;0.6981;
1239.9000;0.5690;0.6981;
1240.2000;0.5674;0.6930;
1240.5000;0.5674;0.6879;
1240.8000;0.5665;0.6726;
1241.1000;0.5649;0.6650;
1241.4000;0.5657;0.6548;
1241.7000;0.5633;0.6573;
1242.0000;0.5665;0.6650;
1242.3000;0.5657;0.6624;
1242.6000;0.5657;0.6675;
1242.9000;0.5674;0.6675;
1243.2000;0.5641;0.6497;
1243.5000;0.5665;0.6675;
1243.8000;0.5665;0.6701;
1244.1000;0.5657;0.6752;
1244.4000;0.5682;0.6828;
1244.7000;0.5649;0.6777;
1245.0000;0.5657;0.6905;
1245.3000;0.5665;0.6803;
1245.6000;0.5690;0.6828;
1245.9000;0.5657;0.6752;
1246.2000;0.5665;0.6752;
1246.5000;0.5682;0.6777;
1246.8000;0.5682;0.6752;
1247.1000;0.5682;0.6879;
1247.4000;0.5690;0.6828;
1247.7000;0.5665;0.6726;
1248.0000;0.5706;0.6905;
1248.3000;0.5674;0.6854;
1248.6000;0.5674;0.6879;
1248.9000;0.5682;0.6879;
1249.2000;0.5682;0.6854;
1249.5000;0.5674;0.6905;
1249.8000;0.5690;0.6879;
1250.1000;0.5682;0.6828;
1250.4000;0.5674;0.6828;
1250.7000;0.5690;0.6828;
1251.0000;0.5682;0.6803;
1251.3000;0.5674;0.6726;
1251.6000;0.5674;0.6624;
1251.9000;0.5690;0.6701;
1252.2000;0.5682;0.6726;
1252.5000;0.5657;0.6650;
1252.8000;0.5665;0.6726;
1253.1000;0.5665;0.6777;
1253.4000;0.5665;0.6752;
1253.7000;0.5674;0.6752;
1254.0000;0.5665;0.6726;
1254.3000;0.5617;0.6548;
1254.6000;0.5690;0.6726;
1254.9000;0.5674;0.6726;
1255.2000;0.5690;0.6803;
1255.5000;0.5641;0.6752;
1255.8000;0.5682;0.6803;
1256.1000;0.5674;0.6777;
1256.4000;0.5592;0.6548;
1256.7000;0.5657;0.6752;
1257.0000;0.5657;0.6675;
1257.3000;0.5690;0.6777;
1257.6000;0.5665;0.6701;
1257.9000;0.5665;0.6675;
1258.2000;0.5657;0.6752;
1258.5000;0.5674;0.6803;
1258.8000;0.5674;0.6803;
1259.1000;0.5682;0.6828;
1259.4000;0.5682;0.6854;
1259.7000;0.5690;0.6955;
1260.0000;0.5706;0.6981;
1260.3000;0.5665;0.6905;
1260.6000;0.5682;0.6955;
1260.9000;0.5665;0.6879;
1261.2000;0.5690;0.6879;
1261.5000;0.5657;0.6752;
1261.8000;0.5665;0.6803;
1262.1000;0.5665;0.6803;
1262.4000;0.5682;0.6726;
1262.7000;0.5674;0.6650;
1263.0000;0.5665;0.6624;
1263.3000;0.5657;0.6726;
1263.6000;0.5657;0.6777;
1263.9000;0.5674;0.6828;
1264.2000;0.5665;0.6752;
1264.5000;0.5617;0.6624;
1264.8000;0.5674;0.6777;
1265.1000;0.5665;0.6879;
1265.4000;0.5698;0.6981;
1265.7000;0.5682;0.6905;
1266.0000;0.5674;0.6828;
1266.3000;0.5682;0.6726;
1266.6000;0.5665;0.6650;
1266.9000;0.5706;0.6803;
1267.2000;0.5706;0.6828;
1267.5000;0.5674;0.6803;
1267.8000;0.5665;0.6803;
1268.1000;0.5674;0.6854;
1268.4000;0.5682;0.6828;
1268.7000;0.5674;0.6803;
1269.0000;0.5674;0.6803;
1269.3000;0.5657;0.6752;
1269.6000;0.5682;0.6803;
1269.9000;0.5690;0.6777;
1270.2000;0.5682;0.6854;
1270.5000;0.5665;0.6930;
1270.8000;0.5665;0.7006;
1271.1000;0.5682;0.6981;
1271.4000;0.5690;0.6955;
1271.7000;0.5682;0.6955;
1272.0000;0.5674;0.6930;
1272.3000;0.5665;0.6854;
1272.6000;0.5714;0.6854;
1272.9000;0.5682;0.6701;
1273.2000;0.5665;0.6675;
1273.5000;0.5674;0.6701;
1273.8000;0.5682;0.6726;
1274.1000;0.5682;0.6828;
1274.4000;0.5682;0.6905;
1274.7000;0.5682;0.6981;
1275.0000;0.5682;0.6955;
1275.3000;0.5698;0.6854;
1275.6000;0.5682;0.6752;
1275.9000;0.5682;0.6777;
1276.2000;0.5682;0.6828;
1276.5000;0.5665;0.6955;
1276.8000;0.5657;0.6930;
1277.1000;0.5665;0.7032;
1277.4000;0.5674;0.7108;
1277.7000;0.5674;0.7083;
1278.0000;0.5665;0.7134;
1278.3000;0.5665;0.7185;
1278.6000;0.5657;0.7159;
1278.9000;0.5674;0.7108;
1279.2000;0.5674;0.7108;
1279.5000;0.5649;0.7032;
1279.8000;0.5682;0.7083;
1280.1000;0.5682;0.7083;
1280.4000;0.5674;0.7032;
1280.7000;0.5682;0.6955;
1281.0000;0.5682;0.6930;
1281.3000;0.5649;0.6879;
1281.6000;0.5608;0.6777;
1281.9000;0.5665;0.6879;
1282.2000;0.5674;0.6905;
1282.5000;0.5674;0.6930;
1282.8000;0.5657;0.6930;
1283.1000;0.5625;0.6752;
1283.4000;0.5665;0.6777;
1283.7000;0.5706;0.6879;
1284.0000;0.5617;0.6573;
1284.3000;0.5665;0.6726;
1284.6000;0.5657;0.6701;
1284.9000;0.5674;0.6701;
1285.2000;0.5665;0.6701;
1285.5000;0.5698;0.6726;
1285.8000;0.5674;0.6650;
1286.1000;0.5674;0.6726;
1286.4000;0.5682;0.6752;
1286.7000;0.5665;0.6650;
1287.0000;0.5665;0.6599;
1287.3000;0.5617;0.6497;
1287.6000;0.5665;0.6650;
1287.9000;0.5674;0.6777;
1288.2000;0.5649;0.6701;
1288.5000;0.5649;0.6701;
1288.8000;0.5641;0.6675;
1289.1000;0.5665;0.6777;
1289.4000;0.5682;0.6701;
1289.7000;0.5657;0.6650;
1290.0000;0.5641;0.6573;
1290.3000;0.5674;0.6675;
1290.6000;0.5682;0.6701;
1290.9000;0.5682;0.6726;
1291.2000;0.5682;0.6675;
1291.5000;0.5682;0.6905;
1291.8000;0.5690;0.7006;
1292.1000;0.5690;0.7032;
1292.4000;0.5657;0.7006;
1292.7000;0.5617;0.6854;
1293.0000;0.5633;0.6930;
1293.3000;0.5633;0.6905;
1293.6000;0.5657;0.6879;
1293.9000;0.5657;0.6879;
1294.2000;0.5649;0.6905;
1294.5000;0.5657;0.6905;
1294.8000;0.5657;0.6981;
1295.1000;0.5665;0.6930;
1295.4000;0.5674;0.6955;
1295.7000;0.5649;0.6854;
1296.0000;0.5657;0.6803;
1296.3000;0.5665;0.6854;
1296.6000;0.5690;0.6828;
1296.9000;0.5682;0.6752;
1297.2000;0.5714;0.6854;
1297.5000;0.5665;0.6650;
1297.8000;0.5674;0.6752;
1298.1000;0.5706;0.6879;
1298.4000;0.5665;0.6752;
1298.7000;0.5649;0.6675;
1299.0000;0.5665;0.6701;
1299.3000;0.5690;0.6726;
1299.6000;0.5674;0.6752;
1299.9000;0.5665;0.6726;
1300.2000;0.5600;0.6522;
1300.5000;0.5649;0.6701;
1300.8000;0.5649;0.6752;
1301.1000;0.5657;0.6854;
1301.4000;0.5706;0.6981;
1301.7000;0.5665;0.6905;
1302.0000;0.5665;0.6930;
1302.3000;0.5698;0.7006;
1302.6000;0.5649;0.6905;
1302.9000;0.5657;0.6854;
1303.2000;0.5714;0.6930;
1303.5000;0.5600;0.6650;
1303.8000;0.5657;0.6701;
1304.1000;0.5657;0.6599;
1304.4000;0.5722;0.6777;
1304.7000;0.5657;0.6599;
1305.0000;0.5665;0.6624;
1305.3000;0.5674;0.6675;
1305.6000;0.5633;0.6701;
1305.9000;0.5674;0.6777;
1306.2000;0.5674;0.6777;
1306.5000;0.5682;0.6752;
1306.8000;0.5674;0.6701;
1307.1000;0.5665;0.6650;
1307.4000;0.5649;0.6650;
1307.7000;0.5649;0.6777;
1308.0000;0.5674;0.6854;
1308.3000;0.5649;0.6777;
1308.6000;0.5657;0.6777;
1308.9000;0.5657;0.6930;
1309.2000;0.5641;0.7057;
1309.5000;0.5649;0.7032;
1309.8000;0.5665;0.7057;
1310.1000;0.5649;0.6981;
1310.4000;0.5657;0.6981;
1310.7000;0.5665;0.7032;
1311.0000;0.5682;0.7083;
1311.3000;0.5674;0.7006;
1311.6000;0.5665;0.6955;
1311.9000;0.5657;0.6854;
1312.2000;0.5649;0.6854;
1312.5000;0.5657;0.6955;
1312.8000;0.5657;0.6981;
1313.1000;0.5665;0.6955;
1313.4000;0.5665;0.6930;
1313.7000;0.5649;0.6879;
1314.0000;0.5641;0.6854;
1314.3000;0.5649;0.6905;
1314.6000;0.5657;0.6930;
1314.9000;0.5665;0.6955;
1315.2000;0.5649;0.6879;
1315.5000;0.5674;0.6854;
1315.8000;0.5641;0.6803;
1316.1000;0.5657;0.6726;
1316.4000;0.5657;0.6726;
1316.7000;0.5706;0.6879;
1317.0000;0.5690;0.6930;
1317.3000;0.5698;0.6905;
1317.6000;0.5698;0.6879;
1317.9000;0.5665;0.6803;
1318.2000;0.5674;0.6828;
1318.5000;0.5690;0.6777;
1318.8000;0.5674;0.6726;
1319.1000;0.5690;0.6752;
1319.4000;0.5649;0.6701;
1319.7000;0.5625;0.6573;
1320.0000;0.5665;0.6701;
1320.3000;0.5682;0.6752;
1320.6000;0.5641;0.6701;
1320.9000;0.5690;0.6828;
1321.2000;0.5682;0.6803;
1321.5000;0.5657;0.6726;
1321.8000;0.5698;0.6803;
1322.1000;0.5633;0.6650;
1322.4000;0.5674;0.6726;
1322.7000;0.5657;0.6675;
1323.0000;0.5657;0.6675;
1323.3000;0.5665;0.6726;
1323.6000;0.5665;0.6701;
1323.9000;0.5657;0.6624;
1324.2000;0.5657;0.6675;
1324.5000;0.5665;0.6675;
1324.8000;0.5665;0.6675;
1325.1000;0.5657;0.6675;
1325.4000;0.5649;0.6548;
1325.7000;0.5690;0.6548;
1326.0000;0.5665;0.6573;
1326.3000;0.5649;0.6573;
1326.6000;0.5625;0.6701;
1326.9000;0.5641;0.6726;
1327.2000;0.5649;0.6777;
1327.5000;0.5665;0.6803;
1327.8000;0.5657;0.6803;
1328.1000;0.5649;0.6777;
1328.4000;0.5665;0.6828;
1328.7000;0.5674;0.6828;
1329.0000;0.5674;0.6752;
1329.3000;0.5633;0.6752;
1329.6000;0.5665;0.6854;
1329.9000;0.5657;0.6828;
1330.2000;0.5657;0.6777;
1330.5000;0.5665;0.6777;
1330.8000;0.5665;0.6803;
1331.1000;0.5665;0.6752;
1331.4000;0.5674;0.6752;
1331.7000;0.5674;0.6650;
1332.0000;0.5714;0.6726;
1332.3000;0.5674;0.6650;
1332.6000;0.5657;0.6726;
1332.9000;0.5665;0.6701;
1333.2000;0.5665;0.6752;
1333.5000;0.5665;0.6726;
1333.8000;0.5649;0.6701;
1334.1000;0.5665;0.6675;
1334.4000;0.5665;0.6650;
1334.7000;0.5674;0.6624;
1335.0000;0.5665;0.6573;
1335.3000;0.5690;0.6650;
1335.6000;0.5674;0.6701;
1335.9000;0.5649;0.6701;
1336.2000;0.5665;0.6726;
1336.5000;0.5657;0.6675;
1336.8000;0.5665;0.6624;
1337.1000;0.5682;0.6650;
1337.4000;0.5665;0.6599;
1337.7000;0.5674;0.6624;
1338.0000;0.5665;0.6675;
1338.3000;0.5665;0.6752;
1338.6000;0.5674;0.6675;
1338.9000;0.5674;0.6752;
1339.2000;0.5657;0.6701;
1339.5000;0.5665;0.6599;
1339.8000;0.5682;0.6701;
1340.1000;0.5698;0.6752;
1340.4000;0.5690;0.6777;
1340.7000;0.5714;0.6981;
1341.0000;0.5657;0.6854;
1341.3000;0.5674;0.6955;
1341.6000;0.5665;0.6955;
1341.9000;0.5657;0.6854;
1342.2000;0.5665;0.6930;
1342.5000;0.5674;0.6930;
1342.8000;0.5657;0.6930;
1343.1000;0.5649;0.6854;
1343.4000;0.5625;0.6701;
1343.7000;0.5625;0.6675;
1344.0000;0.5657;0.6726;
1344.3000;0.5641;0.6675;
1344.6000;0.5641;0.6624;
1344.9000;0.5657;0.6675;
1345.2000;0.5698;0.6777;
1345.5000;0.5649;0.6675;
1345.8000;0.5625;0.6599;
1346.1000;0.5649;0.6573;
1346.4000;0.5625;0.6522;
1346.7000;0.5641;0.6624;
1347.0000;0.5641;0.6726;
1347.3000;0.5649;0.6726;
1347.6000;0.5649;0.6701;
1347.9000;0.5657;0.6675;
1348.2000;0.5657;0.6726;
1348.5000;0.5649;0.6701;
1348.8000;0.5657;0.6752;
1349.1000;0.5649;0.6828;
1349.4000;0.5641;0.6752;
1349.7000;0.5665;0.6701;
1350.0000;0.5657;0.6726;
1350.3000;0.5657;0.6752;
1350.6000;0.5641;0.6752;
1350.9000;0.5657;0.6726;
1351.2000;0.5657;0.6726;
1351.5000;0.5657;0.6701;
1351.8000;0.5641;0.6701;
1352.1000;0.5657;0.6701;
1352.4000;0.5657;0.6675;
1352.7000;0.5665;0.6752;
1353.0000;0.5698;0.6752;
1353.3000;0.5657;0.6599;
1353.6000;0.5608;0.6522;
1353.9000;0.5649;0.6726;
1354.2000;0.5674;0.6752;
1354.5000;0.5649;0.6675;
1354.8000;0.5657;0.6803;
1355.1000;0.5657;0.6854;
1355.4000;0.5657;0.6803;
1355.7000;0.5665;0.6854;
1356.0000;0.5633;0.6828;
1356.3000;0.5641;0.6803;
1356.6000;0.5625;0.6854;
1356.9000;0.5657;0.6828;
1357.2000;0.5649;0.6777;
1357.5000;0.5657;0.6726;
1357.8000;0.5657;0.6777;
1358.1000;0.5665;0.6905;
1358.4000;0.5665;0.6905;
1358.7000;0.5568;0.6624;
1359.0000;0.5657;0.6828;
1359.3000;0.5657;0.6828;
1359.6000;0.5641;0.6905;
1359.9000;0.5625;0.6854;
1360.2000;0.5633;0.6930;
1360.5000;0.5657;0.6955;
1360.8000;0.5641;0.6879;
1361.1000;0.5649;0.6854;
1361.4000;0.5657;0.6828;
1361.7000;0.5665;0.6879;
1362.0000;0.5665;0.6905;
1362.3000;0.5649;0.6879;
1362.6000;0.5649;0.6777;
1362.9000;0.5665;0.6726;
1363.2000;0.5657;0.6624;
1363.5000;0.5665;0.6573;
1363.8000;0.5665;0.6548;
1364.1000;0.5674;0.6522;
1364.4000;0.5608;0.6420;
1364.7000;0.5625;0.6624;
1365.0000;0.5641;0.6752;
1365.3000;0.5665;0.6803;
1365.6000;0.5674;0.6803;
1365.9000;0.5608;0.6624;
1366.2000;0.5641;0.6650;
1366.5000;0.5657;0.6726;
1366.8000;0.5657;0.6701;
1367.1000;0.5641;0.6701;
1367.4000;0.5649;0.6650;
1367.7000;0.5649;0.6726;
1368.0000;0.5649;0.6803;
1368.3000;0.5657;0.6752;
1368.6000;0.5657;0.6650;
1368.9000;0.5665;0.6675;
1369.2000;0.5649;0.6701;
1369.5000;0.5665;0.6777;
1369.8000;0.5674;0.6726;
1370.1000;0.5649;0.6752;
1370.4000;0.5649;0.6803;
1370.7000;0.5657;0.6777;
1371.0000;0.5657;0.6777;
1371.3000;0.5665;0.6752;
1371.6000;0.5665;0.6726;
1371.9000;0.5665;0.6726;
1372.2000;0.5665;0.6599;
1372.5000;0.5608;0.6420;
1372.8000;0.5633;0.6548;
1373.1000;0.5649;0.6624;
1373.4000;0.5657;0.6624;
1373.7000;0.5665;0.6599;
1374.0000;0.5649;0.6650;
1374.3000;0.5641;0.6624;
1374.6000;0.5657;0.6777;
1374.9000;0.5649;0.6726;
1375.2000;0.5649;0.6828;
1375.5000;0.5657;0.6828;
1375.8000;0.5682;0.6905;
1376.1000;0.5665;0.6879;
1376.4000;0.5657;0.6854;
1376.7000;0.5665;0.6905;
1377.0000;0.5674;0.6879;
1377.3000;0.5657;0.6777;
1377.6000;0.5657;0.6828;
1377.9000;0.5649;0.6803;
1378.2000;0.5665;0.6828;
1378.5000;0.5665;0.6777;
1378.8000;0.5674;0.6726;
1379.1000;0.5649;0.6573;
1379.4000;0.5657;0.6675;
1379.7000;0.5641;0.6650;
1380.0000;0.5649;0.6752;
1380.3000;0.5657;0.6803;
1380.6000;0.5633;0.6777;
1380.9000;0.5674;0.6930;
1381.2000;0.5641;0.6803;
1381.5000;0.5682;0.6930;
1381.8000;0.5657;0.7006;
1382.1000;0.5657;0.7006;
1382.4000;0.5665;0.7006;
1382.7000;0.5592;0.6854;
1383.0000;0.5657;0.7032;
1383.3000;0.5674;0.7032;
1383.6000;0.5665;0.6930;
1383.9000;0.5625;0.6777;
1384.2000;0.5641;0.6803;
1384.5000;0.5633;0.6726;
1384.8000;0.5657;0.6803;
1385.1000;0.5698;0.6981;
1385.4000;0.5641;0.6752;
1385.7000;0.5657;0.6803;
1386.0000;0.5657;0.6803;
1386.3000;0.5657;0.6752;
1386.6000;0.5665;0.6726;
1386.9000;0.5682;0.6752;
1387.2000;0.5633;0.6701;
1387.5000;0.5649;0.6726;
1387.8000;0.5641;0.6726;
1388.1000;0.5600;0.6624;
1388.4000;0.5698;0.6777;
1388.7000;0.5665;0.6726;
1389.0000;0.5657;0.6726;
1389.3000;0.5657;0.6675;
1389.6000;0.5649;0.6624;
1389.9000;0.5665;0.6650;
1390.2000;0.5657;0.6650;
1390.5000;0.5649;0.6675;
1390.8000;0.5657;0.6777;
1391.1000;0.5633;0.6752;
1391.4000;0.5633;0.6828;
1391.7000;0.5665;0.6828;
1392.0000;0.5641;0.6828;
1392.3000;0.5657;0.6828;
1392.6000;0.5657;0.6828;
1392.9000;0.5641;0.6879;
1393.2000;0.5657;0.6854;
1393.5000;0.5657;0.6854;
1393.8000;0.5665;0.6828;
1394.1000;0.5657;0.6777;
1394.4000;0.5633;0.6752;
1394.7000;0.5665;0.6905;
1395.0000;0.5649;0.6879;
1395.3000;0.5657;0.7006;
1395.6000;0.5649;0.7032;
1395.9000;0.5665;0.7006;
1396.2000;0.5657;0.6879;
1396.5000;0.5649;0.6777;
1396.8000;0.5657;0.6854;
1397.1000;0.5665;0.6854;
1397.4000;0.5657;0.6828;
1397.7000;0.5665;0.6981;
1398.0000;0.5641;0.6879;
1398.3000;0.5657;0.6905;
1398.6000;0.5665;0.6828;
1398.9000;0.5657;0.6803;
1399.2000;0.5657;0.6726;
1399.5000;0.5657;0.6752;
1399.8000;0.5649;0.6828;
