time/ms;Fluo/V;P700 deltaI/I x10³;
-199.8000;0.9312;0.0900;
-199.5000;0.9337;0.0948;
-199.2000;0.9345;0.0971;
-198.9000;0.9280;0.0853;
-198.6000;0.9467;0.1303;
-198.3000;0.9337;0.1019;
-198.0000;0.9304;0.0900;
-197.7000;0.9337;0.1042;
-197.4000;0.9337;0.1114;
-197.1000;0.9345;0.1019;
-196.8000;0.9320;0.0971;
-196.5000;0.9345;0.0995;
-196.2000;0.9320;0.0948;
-195.9000;0.9320;0.0924;
-195.6000;0.9328;0.0924;
-195.3000;0.9345;0.0924;
-195.0000;0.9353;0.0924;
-194.7000;0.9328;0.0877;
-194.4000;0.9337;0.0971;
-194.1000;0.9337;0.0924;
-193.8000;0.9328;0.0995;
-193.5000;0.9328;0.0995;
-193.2000;0.9337;0.0900;
-192.9000;0.9377;0.1019;
-192.6000;0.9288;0.0782;
-192.3000;0.9345;0.0924;
-192.0000;0.9337;0.0900;
-191.7000;0.9304;0.0829;
-191.4000;0.9345;0.0924;
-191.1000;0.9337;0.0948;
-190.8000;0.9426;0.1137;
-190.5000;0.9337;0.0948;
-190.2000;0.9353;0.0971;
-189.9000;0.9377;0.1066;
-189.6000;0.9361;0.1090;
-189.3000;0.9345;0.0948;
-189.0000;0.9345;0.0900;
-188.7000;0.9345;0.0948;
-188.4000;0.9328;0.0971;
-188.1000;0.9345;0.0971;
-187.8000;0.9328;0.0995;
-187.5000;0.9353;0.0971;
-187.2000;0.9377;0.1042;
-186.9000;0.9369;0.1019;
-186.6000;0.9296;0.0877;
-186.3000;0.9361;0.0995;
-186.0000;0.9345;0.0995;
-185.7000;0.9312;0.0948;
-185.4000;0.9328;0.0948;
-185.1000;0.9328;0.0900;
-184.8000;0.9385;0.1066;
-184.5000;0.9337;0.0948;
-184.2000;0.9328;0.0948;
-183.9000;0.9345;0.1019;
-183.6000;0.9345;0.0924;
-183.3000;0.9337;0.1042;
-183.0000;0.9345;0.1019;
-182.7000;0.9361;0.0995;
-182.4000;0.9385;0.1019;
-182.1000;0.9320;0.0782;
-181.8000;0.9361;0.0853;
-181.5000;0.9304;0.0782;
-181.2000;0.9280;0.0687;
-180.9000;0.9304;0.0734;
-180.6000;0.9418;0.0924;
-180.3000;0.9345;0.0853;
-180.0000;0.9320;0.0877;
-179.7000;0.9337;0.0995;
-179.4000;0.9337;0.0900;
-179.1000;0.9296;0.0758;
-178.8000;0.9361;0.0900;
-178.5000;0.9345;0.0900;
-178.2000;0.9288;0.0687;
-177.9000;0.9345;0.0877;
-177.6000;0.9402;0.1042;
-177.3000;0.9353;0.0877;
-177.0000;0.9337;0.0806;
-176.7000;0.9345;0.0829;
-176.4000;0.9328;0.0877;
-176.1000;0.9345;0.0924;
-175.8000;0.9296;0.0806;
-175.5000;0.9337;0.0948;
-175.2000;0.9320;0.0877;
-174.9000;0.9345;0.0948;
-174.6000;0.9434;0.1042;
-174.3000;0.9337;0.0829;
-174.0000;0.9337;0.0829;
-173.7000;0.9434;0.1019;
-173.4000;0.9369;0.0829;
-173.1000;0.9418;0.0971;
-172.8000;0.9320;0.0829;
-172.5000;0.9337;0.0853;
-172.2000;0.9304;0.0711;
-171.9000;0.9337;0.0924;
-171.6000;0.9337;0.1019;
-171.3000;0.9337;0.0971;
-171.0000;0.9337;0.0877;
-170.7000;0.9320;0.0806;
-170.4000;0.9320;0.0758;
-170.1000;0.9353;0.0971;
-169.8000;0.9345;0.0900;
-169.5000;0.9345;0.0900;
-169.2000;0.9337;0.0853;
-168.9000;0.9353;0.0900;
-168.6000;0.9353;0.0900;
-168.3000;0.9345;0.0924;
-168.0000;0.9394;0.1019;
-167.7000;0.9337;0.0853;
-167.4000;0.9345;0.0900;
-167.1000;0.9361;0.0853;
-166.8000;0.9361;0.0711;
-166.5000;0.9312;0.0663;
-166.2000;0.9361;0.0687;
-165.9000;0.9345;0.0616;
-165.6000;0.9385;0.0663;
-165.3000;0.9353;0.0640;
-165.0000;0.9353;0.0711;
-164.7000;0.9328;0.0758;
-164.4000;0.9345;0.0853;
-164.1000;0.9353;0.0806;
-163.8000;0.9337;0.0758;
-163.5000;0.9337;0.0877;
-163.2000;0.9320;0.0900;
-162.9000;0.9369;0.0971;
-162.6000;0.9353;0.0853;
-162.3000;0.9361;0.0806;
-162.0000;0.9337;0.0758;
-161.7000;0.9345;0.0734;
-161.4000;0.9353;0.0734;
-161.1000;0.9361;0.0687;
-160.8000;0.9410;0.0806;
-160.5000;0.9345;0.0711;
-160.2000;0.9296;0.0640;
-159.9000;0.9385;0.0853;
-159.6000;0.9345;0.0806;
-159.3000;0.9337;0.0806;
-159.0000;0.9402;0.0924;
-158.7000;0.9320;0.0782;
-158.4000;0.9353;0.0734;
-158.1000;0.9361;0.0782;
-157.8000;0.9369;0.0877;
-157.5000;0.9361;0.0782;
-157.2000;0.9345;0.0853;
-156.9000;0.9345;0.0995;
-156.6000;0.9353;0.0971;
-156.3000;0.9369;0.0948;
-156.0000;0.9353;0.0900;
-155.7000;0.9353;0.0948;
-155.4000;0.9345;0.0853;
-155.1000;0.9361;0.0900;
-154.8000;0.9337;0.0829;
-154.5000;0.9369;0.0900;
-154.2000;0.9345;0.0900;
-153.9000;0.9353;0.0971;
-153.6000;0.9312;0.0829;
-153.3000;0.9361;0.0853;
-153.0000;0.9353;0.0806;
-152.7000;0.9312;0.0734;
-152.4000;0.9353;0.0877;
-152.1000;0.9345;0.0853;
-151.8000;0.9337;0.0806;
-151.5000;0.9410;0.0924;
-151.2000;0.9328;0.0687;
-150.9000;0.9337;0.0734;
-150.6000;0.9369;0.0924;
-150.3000;0.9337;0.0877;
-150.0000;0.9377;0.0877;
-149.7000;0.9304;0.0734;
-149.4000;0.9337;0.0758;
-149.1000;0.9353;0.0829;
-148.8000;0.9337;0.0758;
-148.5000;0.9337;0.0829;
-148.2000;0.9328;0.0758;
-147.9000;0.9337;0.0734;
-147.6000;0.9337;0.0663;
-147.3000;0.9337;0.0758;
-147.0000;0.9353;0.0782;
-146.7000;0.9312;0.0782;
-146.4000;0.9345;0.0853;
-146.1000;0.9337;0.0806;
-145.8000;0.9345;0.0782;
-145.5000;0.9402;0.0900;
-145.2000;0.9385;0.0806;
-144.9000;0.9377;0.0806;
-144.6000;0.9361;0.0758;
-144.3000;0.9345;0.0687;
-144.0000;0.9296;0.0663;
-143.7000;0.9328;0.0711;
-143.4000;0.9385;0.0734;
-143.1000;0.9328;0.0616;
-142.8000;0.9328;0.0592;
-142.5000;0.9328;0.0569;
-142.2000;0.9345;0.0569;
-141.9000;0.9320;0.0521;
-141.6000;0.9361;0.0687;
-141.3000;0.9369;0.0758;
-141.0000;0.9353;0.0758;
-140.7000;0.9312;0.0687;
-140.4000;0.9328;0.0734;
-140.1000;0.9328;0.0806;
-139.8000;0.9337;0.0900;
-139.5000;0.9337;0.0948;
-139.2000;0.9337;0.0924;
-138.9000;0.9361;0.0971;
-138.6000;0.9345;0.0829;
-138.3000;0.9337;0.0877;
-138.0000;0.9312;0.0853;
-137.7000;0.9337;0.0829;
-137.4000;0.9337;0.0877;
-137.1000;0.9320;0.0877;
-136.8000;0.9361;0.1066;
-136.5000;0.9345;0.0900;
-136.2000;0.9345;0.0853;
-135.9000;0.9328;0.0853;
-135.6000;0.9320;0.0971;
-135.3000;0.9328;0.0924;
-135.0000;0.9377;0.0924;
-134.7000;0.9353;0.0900;
-134.4000;0.9361;0.0877;
-134.1000;0.9312;0.0734;
-133.8000;0.9337;0.0806;
-133.5000;0.9320;0.0806;
-133.2000;0.9312;0.0806;
-132.9000;0.9312;0.0758;
-132.6000;0.9320;0.0782;
-132.3000;0.9345;0.0711;
-132.0000;0.9320;0.0711;
-131.7000;0.9418;0.0877;
-131.4000;0.9353;0.0806;
-131.1000;0.9345;0.0782;
-130.8000;0.9320;0.0758;
-130.5000;0.9345;0.0758;
-130.2000;0.9353;0.0687;
-129.9000;0.9361;0.0734;
-129.6000;0.9353;0.0734;
-129.3000;0.9353;0.0734;
-129.0000;0.9345;0.0782;
-128.7000;0.9337;0.0829;
-128.4000;0.9377;0.0924;
-128.1000;0.9337;0.0829;
-127.8000;0.9345;0.0877;
-127.5000;0.9361;0.0853;
-127.2000;0.9361;0.0853;
-126.9000;0.9328;0.0829;
-126.6000;0.9377;0.0971;
-126.3000;0.9337;0.0877;
-126.0000;0.9385;0.0971;
-125.7000;0.9369;0.0877;
-125.4000;0.9328;0.0853;
-125.1000;0.9337;0.0877;
-124.8000;0.9280;0.0782;
-124.5000;0.9353;0.1019;
-124.2000;0.9328;0.0971;
-123.9000;0.9320;0.0829;
-123.6000;0.9402;0.0995;
-123.3000;0.9361;0.0900;
-123.0000;0.9361;0.0900;
-122.7000;0.9328;0.0853;
-122.4000;0.9337;0.0877;
-122.1000;0.9337;0.0924;
-121.8000;0.9328;0.0948;
-121.5000;0.9328;0.0877;
-121.2000;0.9320;0.0829;
-120.9000;0.9353;0.0900;
-120.6000;0.9345;0.0853;
-120.3000;0.9328;0.0853;
-120.0000;0.9353;0.0853;
-119.7000;0.9328;0.0829;
-119.4000;0.9337;0.0877;
-119.1000;0.9377;0.0900;
-118.8000;0.9320;0.0758;
-118.5000;0.9337;0.0758;
-118.2000;0.9328;0.0877;
-117.9000;0.9337;0.0924;
-117.6000;0.9328;0.0900;
-117.3000;0.9337;0.0995;
-117.0000;0.9337;0.1066;
-116.7000;0.9328;0.1066;
-116.4000;0.9337;0.1066;
-116.1000;0.9320;0.1090;
-115.8000;0.9353;0.1185;
-115.5000;0.9337;0.1066;
-115.2000;0.9353;0.0995;
-114.9000;0.9328;0.0877;
-114.6000;0.9337;0.0900;
-114.3000;0.9320;0.0853;
-114.0000;0.9328;0.0924;
-113.7000;0.9328;0.0853;
-113.4000;0.9337;0.0900;
-113.1000;0.9353;0.0924;
-112.8000;0.9328;0.0900;
-112.5000;0.9328;0.0877;
-112.2000;0.9345;0.0829;
-111.9000;0.9328;0.0734;
-111.6000;0.9353;0.0806;
-111.3000;0.9337;0.0782;
-111.0000;0.9328;0.0900;
-110.7000;0.9296;0.0829;
-110.4000;0.9353;0.0995;
-110.1000;0.9328;0.0924;
-109.8000;0.9312;0.0924;
-109.5000;0.9337;0.1019;
-109.2000;0.9353;0.1019;
-108.9000;0.9337;0.1042;
-108.6000;0.9337;0.1042;
-108.3000;0.9345;0.1137;
-108.0000;0.9353;0.1185;
-107.7000;0.9328;0.1161;
-107.4000;0.9345;0.1090;
-107.1000;0.9369;0.1185;
-106.8000;0.9361;0.1114;
-106.5000;0.9328;0.0971;
-106.2000;0.9337;0.0924;
-105.9000;0.9320;0.0877;
-105.6000;0.9312;0.0877;
-105.3000;0.9353;0.0995;
-105.0000;0.9369;0.1042;
-104.7000;0.9320;0.0971;
-104.4000;0.9353;0.0995;
-104.1000;0.9345;0.0971;
-103.8000;0.9345;0.0924;
-103.5000;0.9337;0.0924;
-103.2000;0.9353;0.0995;
-102.9000;0.9353;0.1019;
-102.6000;0.9377;0.1066;
-102.3000;0.9345;0.0995;
-102.0000;0.9353;0.1042;
-101.7000;0.9345;0.1019;
-101.4000;0.9345;0.0948;
-101.1000;0.9361;0.0924;
-100.8000;0.9312;0.0877;
-100.5000;0.9337;0.0900;
-100.2000;0.9377;0.0924;
-99.9000;0.9328;0.0853;
-99.6000;0.9345;0.0948;
-99.3000;0.9353;0.0971;
-99.0000;0.9353;0.0948;
-98.7000;0.9328;0.0924;
-98.4000;0.9337;0.0900;
-98.1000;0.9320;0.0900;
-97.8000;0.9328;0.0853;
-97.5000;0.9337;0.0971;
-97.2000;0.9328;0.0995;
-96.9000;0.9320;0.0971;
-96.6000;0.9337;0.1019;
-96.3000;0.9328;0.0948;
-96.0000;0.9328;0.0924;
-95.7000;0.9328;0.0971;
-95.4000;0.9377;0.1137;
-95.1000;0.9345;0.1090;
-94.8000;0.9312;0.1042;
-94.5000;0.9337;0.1042;
-94.2000;0.9345;0.1042;
-93.9000;0.9328;0.1019;
-93.6000;0.9328;0.1019;
-93.3000;0.9345;0.1042;
-93.0000;0.9296;0.0853;
-92.7000;0.9410;0.1114;
-92.4000;0.9337;0.0924;
-92.1000;0.9328;0.0924;
-91.8000;0.9337;0.0853;
-91.5000;0.9328;0.0877;
-91.2000;0.9320;0.0853;
-90.9000;0.9320;0.0734;
-90.6000;0.9320;0.0758;
-90.3000;0.9337;0.0782;
-90.0000;0.9353;0.0948;
-89.7000;0.9361;0.0948;
-89.4000;0.9337;0.0948;
-89.1000;0.9353;0.1019;
-88.8000;0.9353;0.1042;
-88.5000;0.9353;0.0971;
-88.2000;0.9353;0.0853;
-87.9000;0.9296;0.0687;
-87.6000;0.9345;0.0663;
-87.3000;0.9320;0.0545;
-87.0000;0.9328;0.0569;
-86.7000;0.9320;0.0545;
-86.4000;0.9353;0.0592;
-86.1000;0.9271;0.0474;
-85.8000;0.9345;0.0592;
-85.5000;0.9337;0.0758;
-85.2000;0.9337;0.0782;
-84.9000;0.9353;0.0853;
-84.6000;0.9312;0.0829;
-84.3000;0.9328;0.0877;
-84.0000;0.9337;0.0924;
-83.7000;0.9369;0.0948;
-83.4000;0.9337;0.0877;
-83.1000;0.9280;0.0758;
-82.8000;0.9312;0.0900;
-82.5000;0.9345;0.0948;
-82.2000;0.9320;0.0877;
-81.9000;0.9312;0.0900;
-81.6000;0.9320;0.0806;
-81.3000;0.9280;0.0687;
-81.0000;0.9337;0.0877;
-80.7000;0.9337;0.0853;
-80.4000;0.9328;0.0924;
-80.1000;0.9337;0.0948;
-79.8000;0.9361;0.0995;
-79.5000;0.9312;0.0900;
-79.2000;0.9345;0.0995;
-78.9000;0.9328;0.0971;
-78.6000;0.9296;0.0853;
-78.3000;0.9353;0.1066;
-78.0000;0.9337;0.1114;
-77.7000;0.9328;0.1114;
-77.4000;0.9345;0.1161;
-77.1000;0.9353;0.1090;
-76.8000;0.9353;0.0971;
-76.5000;0.9328;0.0924;
-76.2000;0.9369;0.1114;
-75.9000;0.9296;0.0971;
-75.6000;0.9353;0.0948;
-75.3000;0.9328;0.0900;
-75.0000;0.9320;0.0995;
-74.7000;0.9337;0.0995;
-74.4000;0.9353;0.1019;
-74.1000;0.9369;0.1137;
-73.8000;0.9263;0.0924;
-73.5000;0.9353;0.1185;
-73.2000;0.9345;0.1066;
-72.9000;0.9312;0.0924;
-72.6000;0.9337;0.0971;
-72.3000;0.9345;0.0924;
-72.0000;0.9369;0.0948;
-71.7000;0.9337;0.0924;
-71.4000;0.9328;0.0924;
-71.1000;0.9337;0.0948;
-70.8000;0.9328;0.0995;
-70.5000;0.9312;0.0995;
-70.2000;0.9345;0.0995;
-69.9000;0.9345;0.0924;
-69.6000;0.9361;0.0924;
-69.3000;0.9320;0.0877;
-69.0000;0.9337;0.0924;
-68.7000;0.9312;0.0877;
-68.4000;0.9337;0.0971;
-68.1000;0.9345;0.0948;
-67.8000;0.9263;0.0758;
-67.5000;0.9337;0.0971;
-67.2000;0.9385;0.0995;
-66.9000;0.9312;0.0877;
-66.6000;0.9337;0.0877;
-66.3000;0.9337;0.0924;
-66.0000;0.9320;0.0900;
-65.7000;0.9394;0.1066;
-65.4000;0.9337;0.0900;
-65.1000;0.9345;0.0900;
-64.8000;0.9345;0.0924;
-64.5000;0.9345;0.0877;
-64.2000;0.9353;0.0806;
-63.9000;0.9320;0.0829;
-63.6000;0.9320;0.0782;
-63.3000;0.9361;0.0853;
-63.0000;0.9345;0.0734;
-62.7000;0.9345;0.0711;
-62.4000;0.9345;0.0734;
-62.1000;0.9345;0.0806;
-61.8000;0.9337;0.0806;
-61.5000;0.9320;0.0782;
-61.2000;0.9312;0.0734;
-60.9000;0.9345;0.0853;
-60.6000;0.9288;0.0734;
-60.3000;0.9328;0.0782;
-60.0000;0.9337;0.0758;
-59.7000;0.9328;0.0782;
-59.4000;0.9328;0.0806;
-59.1000;0.9328;0.0806;
-58.8000;0.9312;0.0806;
-58.5000;0.9328;0.0829;
-58.2000;0.9320;0.0948;
-57.9000;0.9337;0.0995;
-57.6000;0.9361;0.1019;
-57.3000;0.9345;0.0995;
-57.0000;0.9328;0.0971;
-56.7000;0.9337;0.1042;
-56.4000;0.9263;0.0853;
-56.1000;0.9345;0.0995;
-55.8000;0.9337;0.0995;
-55.5000;0.9353;0.1042;
-55.2000;0.9353;0.0995;
-54.9000;0.9337;0.0948;
-54.6000;0.9337;0.1019;
-54.3000;0.9361;0.0995;
-54.0000;0.9328;0.0924;
-53.7000;0.9345;0.0853;
-53.4000;0.9345;0.0924;
-53.1000;0.9328;0.0853;
-52.8000;0.9320;0.0806;
-52.5000;0.9394;0.0900;
-52.2000;0.9353;0.0758;
-51.9000;0.9345;0.0782;
-51.6000;0.9353;0.0806;
-51.3000;0.9353;0.0829;
-51.0000;0.9328;0.0782;
-50.7000;0.9304;0.0734;
-50.4000;0.9361;0.0853;
-50.1000;0.9337;0.0900;
-49.8000;0.9337;0.0924;
-49.5000;0.9337;0.0924;
-49.2000;0.9361;0.0877;
-48.9000;0.9345;0.0782;
-48.6000;0.9353;0.0806;
-48.3000;0.9353;0.0877;
-48.0000;0.9345;0.0829;
-47.7000;0.9337;0.0687;
-47.4000;0.9361;0.0734;
-47.1000;0.9320;0.0711;
-46.8000;0.9328;0.0782;
-46.5000;0.9337;0.0900;
-46.2000;0.9345;0.0900;
-45.9000;0.9353;0.0948;
-45.6000;0.9369;0.1019;
-45.3000;0.9337;0.0971;
-45.0000;0.9361;0.0971;
-44.7000;0.9337;0.0853;
-44.4000;0.9337;0.0687;
-44.1000;0.9369;0.0758;
-43.8000;0.9353;0.0758;
-43.5000;0.9337;0.0711;
-43.2000;0.9345;0.0734;
-42.9000;0.9385;0.0853;
-42.6000;0.9353;0.0758;
-42.3000;0.9337;0.0758;
-42.0000;0.9337;0.0734;
-41.7000;0.9337;0.0782;
-41.4000;0.9320;0.0758;
-41.1000;0.9337;0.0853;
-40.8000;0.9353;0.0853;
-40.5000;0.9320;0.0829;
-40.2000;0.9345;0.0829;
-39.9000;0.9337;0.0829;
-39.6000;0.9328;0.0806;
-39.3000;0.9328;0.0806;
-39.0000;0.9328;0.0782;
-38.7000;0.9328;0.0877;
-38.4000;0.9361;0.0924;
-38.1000;0.9337;0.0877;
-37.8000;0.9328;0.0900;
-37.5000;0.9361;0.0948;
-37.2000;0.9361;0.0971;
-36.9000;0.9345;0.0924;
-36.6000;0.9280;0.0853;
-36.3000;0.9345;0.0924;
-36.0000;0.9337;0.0877;
-35.7000;0.9328;0.0900;
-35.4000;0.9328;0.0900;
-35.1000;0.9361;0.1019;
-34.8000;0.9337;0.0971;
-34.5000;0.9328;0.0948;
-34.2000;0.9255;0.0877;
-33.9000;0.9353;0.1042;
-33.6000;0.9320;0.1066;
-33.3000;0.9337;0.1066;
-33.0000;0.9320;0.1019;
-32.7000;0.9337;0.1019;
-32.4000;0.9312;0.1019;
-32.1000;0.9320;0.0995;
-31.8000;0.9361;0.1042;
-31.5000;0.9345;0.1090;
-31.2000;0.9369;0.1114;
-30.9000;0.9353;0.1161;
-30.6000;0.9353;0.1114;
-30.3000;0.9328;0.1042;
-30.0000;0.9353;0.1090;
-29.7000;0.9353;0.1019;
-29.4000;0.9337;0.0971;
-29.1000;0.9312;0.0948;
-28.8000;0.9320;0.0924;
-28.5000;0.9353;0.0948;
-28.2000;0.9312;0.0853;
-27.9000;0.9296;0.0829;
-27.6000;0.9320;0.0806;
-27.3000;0.9361;0.0853;
-27.0000;0.9337;0.0829;
-26.7000;0.9377;0.0971;
-26.4000;0.9353;0.0948;
-26.1000;0.9345;0.1042;
-25.8000;0.9361;0.0948;
-25.5000;0.9345;0.1019;
-25.2000;0.9345;0.1114;
-24.9000;0.9337;0.1090;
-24.6000;0.9353;0.0995;
-24.3000;0.9337;0.0948;
-24.0000;0.9328;0.0829;
-23.7000;0.9328;0.0782;
-23.4000;0.9345;0.0782;
-23.1000;0.9353;0.0806;
-22.8000;0.9328;0.0711;
-22.5000;0.9320;0.0687;
-22.2000;0.9337;0.0758;
-21.9000;0.9353;0.0782;
-21.6000;0.9337;0.0734;
-21.3000;0.9328;0.0711;
-21.0000;0.9337;0.0687;
-20.7000;0.9337;0.0687;
-20.4000;0.9377;0.0877;
-20.1000;0.9320;0.0782;
-19.8000;0.9369;0.0829;
-19.5000;0.9353;0.0900;
-19.2000;0.9345;0.0924;
-18.9000;0.9337;0.0877;
-18.6000;0.9328;0.0829;
-18.3000;0.9345;0.0806;
-18.0000;0.9320;0.0806;
-17.7000;0.9353;0.0829;
-17.4000;0.9353;0.0782;
-17.1000;0.9353;0.0711;
-16.8000;0.9361;0.0640;
-16.5000;0.9353;0.0592;
-16.2000;0.9320;0.0616;
-15.9000;0.9320;0.0640;
-15.6000;0.9337;0.0782;
-15.3000;0.9328;0.0711;
-15.0000;0.9328;0.0640;
-14.7000;0.9345;0.0592;
-14.4000;0.9377;0.0640;
-14.1000;0.9353;0.0569;
-13.8000;0.9345;0.0616;
-13.5000;0.9337;0.0711;
-13.2000;0.9337;0.0734;
-12.9000;0.9345;0.0758;
-12.6000;0.9271;0.0592;
-12.3000;0.9328;0.0734;
-12.0000;0.9361;0.0900;
-11.7000;0.9271;0.0782;
-11.4000;0.9296;0.0853;
-11.1000;0.9312;0.0853;
-10.8000;0.9328;0.0829;
-10.5000;0.9345;0.0782;
-10.2000;0.9337;0.0782;
-9.9000;0.9328;0.0758;
-9.6000;0.9328;0.0758;
-9.3000;0.9353;0.0877;
-9.0000;0.9361;0.0877;
-8.7000;0.9345;0.0853;
-8.4000;0.9328;0.0924;
-8.1000;0.9328;0.0900;
-7.8000;0.9402;0.1042;
-7.5000;0.9361;0.0995;
-7.2000;0.9353;0.0995;
-6.9000;0.9328;0.0971;
-6.6000;0.9353;0.0995;
-6.3000;0.9296;0.0829;
-6.0000;0.9255;0.0711;
-5.7000;0.9369;0.0995;
-5.4000;0.9353;0.0995;
-5.1000;0.9320;0.0948;
-4.8000;0.9312;0.0924;
-4.5000;0.9426;0.1279;
-4.2000;0.9345;0.1090;
-3.9000;0.9345;0.1090;
-3.6000;0.9353;0.1042;
-3.3000;0.9345;0.0924;
-3.0000;0.9418;0.1066;
-2.7000;0.9345;0.0806;
-2.4000;0.9296;0.0758;
-2.1000;0.9328;0.0853;
-1.8000;0.9361;0.0948;
-1.5000;0.9328;0.0924;
-1.2000;0.9328;0.0971;
-0.9000;0.9361;0.1066;
-0.6000;0.9345;0.1019;
-0.3000;0.9353;0.0995;
0.0000;0.9353;0.0995;
0.3000;0.9402;0.0806;
0.6000;0.9475;0.1279;
0.9000;0.9532;0.1706;
1.2000;0.9597;0.2085;
1.5000;0.9646;0.2393;
1.8000;0.9687;0.2654;
2.1000;0.9630;0.2606;
2.4000;0.9719;0.2891;
2.7000;0.9752;0.2962;
3.0000;0.9760;0.3175;
3.3000;0.9760;0.3199;
3.6000;0.9776;0.3412;
3.9000;0.9792;0.3483;
4.2000;0.9792;0.3507;
4.5000;0.9801;0.3435;
4.8000;0.9809;0.3435;
5.1000;0.9841;0.3530;
5.4000;0.9841;0.3625;
5.7000;0.9858;0.3720;
6.0000;0.9858;0.3672;
6.3000;0.9874;0.3720;
6.6000;0.9874;0.3767;
6.9000;0.9866;0.3720;
7.2000;0.9866;0.3815;
7.5000;0.9882;0.3909;
7.8000;0.9874;0.3980;
8.1000;0.9874;0.3909;
8.4000;0.9890;0.3909;
8.7000;0.9882;0.3838;
9.0000;0.9890;0.3791;
9.3000;0.9898;0.3791;
9.6000;0.9898;0.3791;
9.9000;0.9906;0.3791;
10.2000;0.9923;0.3744;
10.5000;0.9915;0.3744;
10.8000;0.9906;0.3744;
11.1000;0.9906;0.3744;
11.4000;0.9923;0.3815;
11.7000;0.9915;0.3791;
12.0000;0.9939;0.3838;
12.3000;0.9898;0.3696;
12.6000;0.9939;0.3791;
12.9000;0.9939;0.3815;
13.2000;0.9923;0.3815;
13.5000;0.9906;0.3815;
13.8000;0.9939;0.3886;
14.1000;0.9972;0.3957;
14.4000;0.9955;0.3933;
14.7000;0.9947;0.3886;
15.0000;1.0004;0.4075;
15.3000;0.9955;0.3933;
15.6000;0.9963;0.3909;
15.9000;0.9947;0.3957;
16.2000;0.9972;0.4004;
16.5000;0.9988;0.4028;
16.8000;0.9963;0.4028;
17.1000;0.9947;0.4099;
17.4000;0.9980;0.4170;
17.7000;0.9980;0.4146;
18.0000;0.9972;0.4052;
18.3000;0.9947;0.3909;
18.6000;0.9947;0.3886;
18.9000;0.9963;0.3886;
19.2000;0.9972;0.3886;
19.5000;0.9972;0.3862;
19.8000;0.9972;0.3838;
20.1000;0.9988;0.3838;
20.4000;0.9988;0.3886;
20.7000;0.9980;0.3815;
21.0000;0.9996;0.3838;
21.3000;0.9988;0.3886;
21.6000;0.9988;0.3909;
21.9000;0.9988;0.3933;
22.2000;0.9972;0.3886;
22.5000;0.9996;0.3909;
22.8000;0.9988;0.3909;
23.1000;0.9996;0.3886;
23.4000;0.9996;0.3909;
23.7000;0.9980;0.3886;
24.0000;0.9980;0.3933;
24.3000;0.9988;0.3909;
24.6000;0.9972;0.3933;
24.9000;1.0045;0.4099;
25.2000;0.9980;0.3886;
25.5000;0.9996;0.3957;
25.8000;0.9972;0.4075;
26.1000;0.9980;0.4004;
26.4000;1.0004;0.4052;
26.7000;0.9988;0.4004;
27.0000;0.9988;0.4004;
27.3000;0.9972;0.3957;
27.6000;0.9972;0.3957;
27.9000;0.9988;0.4004;
28.2000;0.9980;0.4099;
28.5000;0.9980;0.4075;
28.8000;0.9988;0.4099;
29.1000;0.9988;0.4075;
29.4000;0.9996;0.4075;
29.7000;0.9980;0.4099;
30.0000;0.9988;0.4194;
30.3000;0.9988;0.4217;
30.6000;1.0037;0.4241;
30.9000;1.0004;0.4146;
31.2000;0.9980;0.4052;
31.5000;1.0004;0.4028;
31.8000;1.0004;0.4004;
32.1000;0.9988;0.4052;
32.4000;0.9980;0.4004;
32.7000;0.9988;0.3980;
33.0000;0.9988;0.4004;
33.3000;0.9963;0.3886;
33.6000;0.9988;0.3957;
33.9000;0.9980;0.4004;
34.2000;0.9996;0.4004;
34.5000;0.9980;0.4028;
34.8000;1.0012;0.4075;
35.1000;1.0004;0.3980;
35.4000;0.9947;0.4028;
35.7000;1.0012;0.4146;
36.0000;0.9996;0.4052;
36.3000;0.9996;0.4028;
36.6000;0.9996;0.4004;
36.9000;1.0012;0.4099;
37.2000;0.9972;0.3957;
37.5000;1.0012;0.4052;
37.8000;1.0020;0.4099;
38.1000;1.0028;0.4194;
38.4000;0.9972;0.4052;
38.7000;0.9988;0.4052;
39.0000;1.0004;0.4075;
39.3000;0.9996;0.4099;
39.6000;0.9955;0.4052;
39.9000;0.9988;0.4123;
40.2000;0.9996;0.4099;
40.5000;0.9996;0.4099;
40.8000;1.0004;0.4146;
41.1000;0.9980;0.4075;
41.4000;0.9988;0.4123;
41.7000;0.9996;0.4194;
42.0000;0.9931;0.4028;
42.3000;0.9988;0.4194;
42.6000;0.9996;0.4241;
42.9000;0.9996;0.4336;
43.2000;0.9980;0.4194;
43.5000;0.9996;0.4194;
43.8000;0.9980;0.4241;
44.1000;0.9972;0.4265;
44.4000;0.9963;0.4146;
44.7000;0.9980;0.4194;
45.0000;0.9963;0.4123;
45.3000;0.9963;0.4194;
45.6000;0.9972;0.4170;
45.9000;1.0004;0.4123;
46.2000;0.9980;0.4052;
46.5000;0.9996;0.4052;
46.8000;1.0012;0.4052;
47.1000;0.9955;0.3815;
47.4000;0.9996;0.3957;
47.7000;0.9996;0.3933;
48.0000;1.0004;0.4004;
48.3000;0.9988;0.3933;
48.6000;0.9996;0.3815;
48.9000;0.9980;0.3791;
49.2000;1.0004;0.3791;
49.5000;0.9988;0.3838;
49.8000;0.9980;0.3838;
50.1000;0.9988;0.3862;
50.4000;0.9988;0.3886;
50.7000;0.9988;0.3886;
51.0000;0.9996;0.3957;
51.3000;1.0012;0.4099;
51.6000;0.9988;0.4052;
51.9000;0.9996;0.4052;
52.2000;0.9996;0.4194;
52.5000;1.0004;0.4265;
52.8000;0.9988;0.4170;
53.1000;0.9988;0.4194;
53.4000;0.9980;0.4123;
53.7000;0.9988;0.4170;
54.0000;0.9980;0.4099;
54.3000;0.9980;0.4099;
54.6000;0.9996;0.4099;
54.9000;0.9988;0.4123;
55.2000;1.0028;0.4146;
55.5000;0.9996;0.3980;
55.8000;0.9988;0.3957;
56.1000;1.0004;0.4028;
56.4000;1.0004;0.3886;
56.7000;0.9996;0.3815;
57.0000;0.9988;0.3838;
57.3000;0.9996;0.3815;
57.6000;1.0020;0.3933;
57.9000;1.0004;0.3838;
58.2000;0.9996;0.3886;
58.5000;0.9996;0.3933;
58.8000;0.9988;0.3980;
59.1000;0.9988;0.4004;
59.4000;0.9996;0.4004;
59.7000;1.0020;0.4146;
60.0000;1.0004;0.4075;
60.3000;0.9996;0.4028;
60.6000;1.0004;0.4052;
60.9000;0.9980;0.4075;
61.2000;0.9996;0.4170;
61.5000;1.0004;0.4170;
61.8000;0.9955;0.4028;
62.1000;0.9963;0.4028;
62.4000;1.0012;0.4146;
62.7000;0.9980;0.4028;
63.0000;1.0012;0.4052;
63.3000;0.9988;0.4004;
63.6000;0.9988;0.3933;
63.9000;0.9988;0.3957;
64.2000;0.9980;0.3909;
64.5000;0.9980;0.3957;
64.8000;0.9988;0.4052;
65.1000;1.0020;0.4099;
65.4000;1.0004;0.4099;
65.7000;0.9980;0.4052;
66.0000;0.9931;0.3815;
66.3000;0.9980;0.4004;
66.6000;0.9996;0.4123;
66.9000;0.9972;0.4075;
67.2000;0.9972;0.4075;
67.5000;0.9988;0.4075;
67.8000;0.9980;0.4052;
68.1000;0.9972;0.4004;
68.4000;0.9980;0.4099;
68.7000;0.9980;0.4146;
69.0000;0.9963;0.4099;
69.3000;0.9980;0.4028;
69.6000;0.9996;0.4028;
69.9000;0.9996;0.4052;
70.2000;1.0004;0.4075;
70.5000;0.9988;0.4004;
70.8000;1.0004;0.4028;
71.1000;1.0004;0.4052;
71.4000;0.9996;0.4004;
71.7000;0.9996;0.3957;
72.0000;0.9988;0.3909;
72.3000;1.0012;0.4052;
72.6000;0.9988;0.3980;
72.9000;0.9988;0.4004;
73.2000;0.9980;0.3933;
73.5000;0.9988;0.3862;
73.8000;0.9980;0.3862;
74.1000;1.0004;0.3886;
74.4000;0.9980;0.3838;
74.7000;0.9980;0.3933;
75.0000;0.9963;0.4028;
75.3000;0.9980;0.4052;
75.6000;0.9988;0.4052;
75.9000;0.9980;0.4028;
76.2000;0.9972;0.3933;
76.5000;0.9972;0.3957;
76.8000;0.9988;0.4028;
77.1000;0.9980;0.4028;
77.4000;0.9980;0.3980;
77.7000;0.9980;0.3909;
78.0000;0.9955;0.3815;
78.3000;1.0004;0.3886;
78.6000;1.0004;0.3886;
78.9000;0.9980;0.3815;
79.2000;0.9988;0.3815;
79.5000;1.0012;0.3886;
79.8000;0.9988;0.3862;
80.1000;0.9972;0.3886;
80.4000;0.9996;0.3980;
80.7000;0.9972;0.4028;
81.0000;0.9980;0.4052;
81.3000;0.9988;0.4099;
81.6000;0.9963;0.4170;
81.9000;0.9980;0.4194;
82.2000;0.9972;0.4170;
82.5000;0.9963;0.4099;
82.8000;0.9963;0.4004;
83.1000;1.0004;0.4004;
83.4000;0.9988;0.4075;
83.7000;0.9980;0.4099;
84.0000;0.9972;0.4075;
84.3000;0.9996;0.4146;
84.6000;0.9988;0.4123;
84.9000;0.9972;0.4146;
85.2000;0.9972;0.4075;
85.5000;0.9963;0.4052;
85.8000;1.0012;0.4146;
86.1000;1.0004;0.4146;
86.4000;0.9923;0.3909;
86.7000;0.9972;0.4052;
87.0000;0.9980;0.4075;
87.3000;0.9972;0.4028;
87.6000;0.9972;0.4099;
87.9000;0.9963;0.4099;
88.2000;0.9972;0.4099;
88.5000;0.9980;0.4099;
88.8000;0.9963;0.4052;
89.1000;0.9988;0.4052;
89.4000;0.9972;0.3957;
89.7000;0.9980;0.3980;
90.0000;1.0037;0.4123;
90.3000;0.9980;0.3980;
90.6000;0.9988;0.4028;
90.9000;0.9988;0.4028;
91.2000;0.9963;0.3980;
91.5000;0.9988;0.4028;
91.8000;0.9963;0.3957;
92.1000;0.9972;0.4075;
92.4000;0.9963;0.4123;
92.7000;0.9947;0.4004;
93.0000;0.9963;0.4028;
93.3000;0.9963;0.4004;
93.6000;0.9972;0.4052;
93.9000;0.9955;0.4099;
94.2000;0.9963;0.4099;
94.5000;0.9972;0.4052;
94.8000;0.9955;0.4004;
95.1000;0.9947;0.4099;
95.4000;0.9980;0.4194;
95.7000;0.9988;0.4217;
96.0000;0.9980;0.4170;
96.3000;0.9955;0.4052;
96.6000;0.9972;0.4075;
96.9000;0.9963;0.4028;
97.2000;0.9972;0.4052;
97.5000;0.9988;0.4099;
97.8000;0.9963;0.4099;
98.1000;0.9963;0.4099;
98.4000;0.9988;0.4075;
98.7000;0.9980;0.4052;
99.0000;0.9980;0.3957;
99.3000;0.9980;0.3957;
99.6000;0.9963;0.3957;
99.9000;0.9988;0.4099;
100.2000;0.9980;0.4075;
100.5000;0.9955;0.4004;
100.8000;0.9988;0.4052;
101.1000;0.9980;0.4099;
101.4000;0.9972;0.4194;
101.7000;0.9996;0.4241;
102.0000;0.9972;0.4170;
102.3000;0.9988;0.4052;
102.6000;0.9988;0.4123;
102.9000;0.9980;0.4052;
103.2000;1.0004;0.4099;
103.5000;0.9963;0.4075;
103.8000;0.9988;0.4052;
104.1000;0.9947;0.4028;
104.4000;0.9963;0.4123;
104.7000;0.9963;0.4075;
105.0000;0.9980;0.4075;
105.3000;1.0012;0.4170;
105.6000;0.9931;0.4028;
105.9000;0.9980;0.4099;
106.2000;0.9980;0.4123;
106.5000;0.9980;0.4170;
106.8000;0.9972;0.4099;
107.1000;0.9988;0.4099;
107.4000;0.9972;0.3980;
107.7000;0.9972;0.3909;
108.0000;0.9947;0.3838;
108.3000;0.9955;0.3815;
108.6000;0.9963;0.3838;
108.9000;0.9980;0.3957;
109.2000;0.9972;0.3980;
109.5000;0.9963;0.4028;
109.8000;0.9963;0.4004;
110.1000;0.9963;0.4075;
110.4000;0.9963;0.3933;
110.7000;0.9972;0.3886;
111.0000;0.9972;0.3909;
111.3000;0.9980;0.4028;
111.6000;0.9972;0.4075;
111.9000;0.9955;0.4075;
112.2000;0.9980;0.4028;
112.5000;0.9947;0.3957;
112.8000;0.9996;0.4075;
113.1000;1.0037;0.4170;
113.4000;0.9955;0.4028;
113.7000;0.9947;0.4052;
114.0000;0.9939;0.3980;
114.3000;0.9963;0.3957;
114.6000;0.9947;0.3957;
114.9000;0.9963;0.4004;
115.2000;0.9923;0.3957;
115.5000;0.9947;0.4123;
115.8000;0.9980;0.4099;
116.1000;0.9939;0.3980;
116.4000;0.9988;0.3933;
116.7000;0.9963;0.3886;
117.0000;0.9955;0.3838;
117.3000;0.9980;0.3980;
117.6000;0.9963;0.3933;
117.9000;0.9963;0.3933;
118.2000;0.9931;0.3909;
118.5000;0.9947;0.3933;
118.8000;0.9972;0.3957;
119.1000;0.9972;0.3957;
119.4000;0.9939;0.3933;
119.7000;0.9955;0.4004;
120.0000;0.9955;0.4004;
120.3000;0.9939;0.3957;
120.6000;0.9972;0.4146;
120.9000;0.9923;0.4004;
121.2000;0.9963;0.4123;
121.5000;0.9972;0.4170;
121.8000;0.9963;0.4099;
122.1000;0.9980;0.4075;
122.4000;0.9955;0.4052;
122.7000;0.9980;0.4075;
123.0000;0.9980;0.4004;
123.3000;0.9972;0.3933;
123.6000;0.9963;0.3862;
123.9000;0.9980;0.3909;
124.2000;0.9972;0.3957;
124.5000;0.9972;0.3933;
124.8000;0.9947;0.3933;
125.1000;0.9963;0.3980;
125.4000;0.9955;0.4028;
125.7000;0.9963;0.4052;
126.0000;0.9963;0.4004;
126.3000;0.9955;0.3957;
126.6000;0.9923;0.3862;
126.9000;0.9980;0.3933;
127.2000;0.9906;0.3649;
127.5000;0.9972;0.3791;
127.8000;0.9996;0.3886;
128.1000;0.9988;0.3862;
128.4000;0.9980;0.3838;
128.7000;0.9963;0.3791;
129.0000;0.9963;0.3886;
129.3000;0.9996;0.4004;
129.6000;0.9972;0.3909;
129.9000;0.9963;0.3933;
130.2000;0.9972;0.3933;
130.5000;0.9972;0.3980;
130.8000;0.9955;0.4028;
131.1000;0.9955;0.4075;
131.4000;0.9955;0.4028;
131.7000;0.9955;0.4004;
132.0000;0.9972;0.4004;
132.3000;0.9963;0.4004;
132.6000;0.9963;0.4146;
132.9000;0.9963;0.4170;
133.2000;0.9972;0.4075;
133.5000;0.9963;0.4052;
133.8000;0.9963;0.4052;
134.1000;0.9972;0.4004;
134.4000;0.9963;0.3909;
134.7000;0.9972;0.3957;
135.0000;0.9947;0.3886;
135.3000;0.9915;0.3791;
135.6000;0.9963;0.3909;
135.9000;0.9963;0.3886;
136.2000;0.9947;0.3980;
136.5000;0.9947;0.3980;
136.8000;0.9955;0.4075;
137.1000;0.9963;0.4075;
137.4000;0.9939;0.4052;
137.7000;0.9890;0.3838;
138.0000;0.9947;0.3980;
138.3000;0.9972;0.3933;
138.6000;0.9980;0.4075;
138.9000;0.9939;0.4075;
139.2000;0.9915;0.3957;
139.5000;0.9947;0.4052;
139.8000;0.9955;0.3980;
140.1000;1.0012;0.4099;
140.4000;0.9947;0.3980;
140.7000;0.9955;0.4052;
141.0000;0.9963;0.4123;
141.3000;0.9963;0.4075;
141.6000;0.9972;0.4075;
141.9000;0.9947;0.4004;
142.2000;0.9955;0.3980;
142.5000;0.9955;0.4004;
142.8000;0.9955;0.3980;
143.1000;0.9963;0.3862;
143.4000;0.9955;0.3933;
143.7000;0.9963;0.3933;
144.0000;0.9955;0.3886;
144.3000;0.9955;0.3886;
144.6000;0.9963;0.3815;
144.9000;0.9955;0.3838;
145.2000;0.9947;0.3815;
145.5000;0.9947;0.3862;
145.8000;0.9955;0.3886;
146.1000;0.9963;0.3909;
146.4000;0.9955;0.3957;
146.7000;0.9939;0.3957;
147.0000;0.9947;0.4004;
147.3000;0.9963;0.3957;
147.6000;0.9955;0.3886;
147.9000;0.9939;0.3886;
148.2000;0.9947;0.3838;
148.5000;0.9988;0.3909;
148.8000;0.9963;0.3886;
149.1000;0.9955;0.3909;
149.4000;0.9955;0.3909;
149.7000;0.9955;0.3957;
150.0000;0.9955;0.4004;
150.3000;0.9947;0.4004;
150.6000;0.9923;0.3957;
150.9000;0.9939;0.4028;
151.2000;0.9931;0.4099;
151.5000;0.9972;0.4146;
151.8000;0.9939;0.4052;
152.1000;0.9947;0.4075;
152.4000;0.9939;0.3957;
152.7000;0.9955;0.4075;
153.0000;0.9955;0.4099;
153.3000;0.9963;0.4099;
153.6000;0.9972;0.4194;
153.9000;0.9972;0.4241;
154.2000;0.9980;0.4170;
154.5000;0.9963;0.4170;
154.8000;0.9963;0.4217;
155.1000;0.9955;0.4146;
155.4000;0.9963;0.4099;
155.7000;0.9963;0.4028;
156.0000;0.9955;0.3933;
156.3000;0.9972;0.4028;
156.6000;0.9963;0.4028;
156.9000;0.9947;0.4004;
157.2000;0.9939;0.4028;
157.5000;0.9931;0.4004;
157.8000;0.9947;0.3980;
158.1000;0.9963;0.3980;
158.4000;0.9963;0.3886;
158.7000;0.9955;0.3909;
159.0000;0.9988;0.3886;
159.3000;0.9947;0.3909;
159.6000;0.9947;0.3933;
159.9000;0.9972;0.3933;
160.2000;0.9972;0.3933;
160.5000;0.9963;0.3980;
160.8000;0.9980;0.4075;
161.1000;0.9947;0.3980;
161.4000;0.9947;0.3980;
161.7000;0.9963;0.3957;
162.0000;0.9939;0.3909;
162.3000;0.9939;0.3909;
162.6000;0.9963;0.3980;
162.9000;0.9988;0.4099;
163.2000;0.9939;0.3957;
163.5000;0.9972;0.4075;
163.8000;0.9955;0.4099;
164.1000;0.9963;0.4123;
164.4000;0.9931;0.4028;
164.7000;0.9939;0.4052;
165.0000;0.9915;0.3815;
165.3000;0.9939;0.3957;
165.6000;0.9955;0.3957;
165.9000;0.9947;0.3980;
166.2000;0.9980;0.4075;
166.5000;0.9939;0.4052;
166.8000;0.9931;0.4028;
167.1000;0.9931;0.4099;
167.4000;0.9947;0.4099;
167.7000;0.9931;0.4123;
168.0000;0.9939;0.4146;
168.3000;0.9996;0.4383;
168.6000;0.9939;0.4288;
168.9000;0.9931;0.4288;
169.2000;0.9988;0.4431;
169.5000;0.9955;0.4336;
169.8000;0.9931;0.4288;
170.1000;0.9931;0.4241;
170.4000;0.9947;0.4170;
170.7000;0.9972;0.4217;
171.0000;0.9906;0.4028;
171.3000;0.9931;0.4028;
171.6000;0.9947;0.4004;
171.9000;0.9955;0.4004;
172.2000;0.9947;0.3957;
172.5000;0.9939;0.3909;
172.8000;0.9947;0.3980;
173.1000;0.9963;0.4075;
173.4000;0.9955;0.4052;
173.7000;0.9947;0.4028;
174.0000;0.9939;0.4028;
174.3000;0.9906;0.4075;
174.6000;0.9931;0.4194;
174.9000;0.9972;0.4288;
175.2000;0.9947;0.4170;
175.5000;0.9955;0.4170;
175.8000;0.9947;0.4217;
176.1000;0.9931;0.4241;
176.4000;0.9931;0.4265;
176.7000;0.9939;0.4194;
177.0000;0.9939;0.4194;
177.3000;0.9939;0.4241;
177.6000;0.9931;0.4170;
177.9000;0.9939;0.4146;
178.2000;0.9947;0.4099;
178.5000;0.9939;0.4170;
178.8000;0.9939;0.4217;
179.1000;0.9923;0.4241;
179.4000;0.9947;0.4241;
179.7000;0.9947;0.4217;
180.0000;0.9947;0.4217;
180.3000;1.0028;0.4407;
180.6000;0.9972;0.4336;
180.9000;0.9963;0.4241;
181.2000;0.9955;0.4146;
181.5000;0.9947;0.4194;
181.8000;0.9931;0.4241;
182.1000;0.9915;0.4170;
182.4000;0.9996;0.4360;
182.7000;0.9939;0.4099;
183.0000;0.9931;0.4146;
183.3000;1.0020;0.4431;
183.6000;0.9931;0.4265;
183.9000;0.9931;0.4265;
184.2000;0.9947;0.4265;
184.5000;0.9931;0.4170;
184.8000;0.9963;0.4170;
185.1000;0.9963;0.4123;
185.4000;0.9931;0.4004;
185.7000;0.9947;0.4123;
186.0000;0.9931;0.4170;
186.3000;0.9931;0.4146;
186.6000;0.9939;0.4194;
186.9000;0.9939;0.4123;
187.2000;0.9955;0.4028;
187.5000;0.9931;0.3909;
187.8000;0.9923;0.3909;
188.1000;0.9915;0.3886;
188.4000;0.9931;0.3886;
188.7000;0.9947;0.3933;
189.0000;0.9955;0.3980;
189.3000;0.9931;0.3933;
189.6000;0.9955;0.4052;
189.9000;0.9947;0.4123;
190.2000;0.9906;0.4052;
190.5000;0.9947;0.4146;
190.8000;0.9947;0.4170;
191.1000;0.9931;0.4123;
191.4000;0.9931;0.4170;
191.7000;0.9939;0.4170;
192.0000;0.9955;0.4265;
192.3000;0.9963;0.4241;
192.6000;0.9972;0.4288;
192.9000;0.9947;0.4194;
193.2000;0.9915;0.4194;
193.5000;0.9931;0.4146;
193.8000;0.9923;0.4123;
194.1000;0.9939;0.4265;
194.4000;0.9923;0.4217;
194.7000;0.9939;0.4265;
195.0000;0.9980;0.4312;
195.3000;0.9939;0.4170;
195.6000;0.9939;0.4075;
195.9000;0.9947;0.4123;
196.2000;0.9931;0.4146;
196.5000;0.9947;0.4217;
196.8000;0.9931;0.4052;
197.1000;0.9915;0.4052;
197.4000;0.9923;0.4004;
197.7000;0.9931;0.4004;
198.0000;0.9931;0.3980;
198.3000;0.9931;0.4004;
198.6000;0.9923;0.3957;
198.9000;0.9931;0.3957;
199.2000;0.9955;0.3957;
199.5000;0.9931;0.3909;
199.8000;1.0012;0.4123;
200.1000;0.9931;0.3980;
200.4000;0.9931;0.4052;
200.7000;0.9923;0.4052;
201.0000;0.9915;0.4028;
201.3000;0.9980;0.4146;
201.6000;0.9947;0.4123;
201.9000;0.9915;0.4052;
202.2000;0.9931;0.4028;
202.5000;0.9915;0.3909;
202.8000;0.9947;0.4052;
203.1000;0.9931;0.3957;
203.4000;0.9955;0.4004;
203.7000;0.9931;0.3957;
204.0000;0.9906;0.3862;
204.3000;0.9947;0.4052;
204.6000;0.9939;0.4004;
204.9000;0.9923;0.3980;
205.2000;0.9898;0.3886;
205.5000;0.9923;0.3909;
205.8000;0.9915;0.3957;
206.1000;0.9923;0.3957;
206.4000;0.9988;0.4052;
206.7000;0.9955;0.3980;
207.0000;0.9955;0.3980;
207.3000;0.9931;0.3933;
207.6000;0.9939;0.3933;
207.9000;0.9939;0.4004;
208.2000;0.9939;0.4052;
208.5000;0.9931;0.4052;
208.8000;0.9923;0.4028;
209.1000;0.9923;0.4028;
209.4000;0.9939;0.4052;
209.7000;0.9915;0.3933;
210.0000;0.9931;0.3980;
210.3000;0.9923;0.4052;
210.6000;0.9923;0.4052;
210.9000;0.9923;0.4004;
211.2000;0.9931;0.4099;
211.5000;0.9923;0.4123;
211.8000;0.9923;0.4146;
212.1000;0.9931;0.4123;
212.4000;0.9947;0.4028;
212.7000;0.9931;0.4052;
213.0000;0.9947;0.4052;
213.3000;0.9923;0.4004;
213.6000;0.9939;0.4004;
213.9000;0.9931;0.4052;
214.2000;0.9923;0.4028;
214.5000;0.9939;0.4052;
214.8000;0.9931;0.4052;
215.1000;0.9923;0.4123;
215.4000;0.9906;0.4099;
215.7000;0.9939;0.4241;
216.0000;0.9915;0.4265;
216.3000;0.9923;0.4288;
216.6000;0.9939;0.4265;
216.9000;0.9915;0.4194;
217.2000;0.9931;0.4194;
217.5000;0.9931;0.4146;
217.8000;0.9947;0.4194;
218.1000;0.9931;0.4170;
218.4000;0.9923;0.4170;
218.7000;0.9931;0.4170;
219.0000;0.9931;0.4075;
219.3000;0.9947;0.4028;
219.6000;0.9931;0.4099;
219.9000;0.9874;0.3957;
220.2000;0.9923;0.4099;
220.5000;0.9915;0.4052;
220.8000;0.9923;0.3957;
221.1000;0.9955;0.4052;
221.4000;0.9939;0.4052;
221.7000;0.9947;0.4146;
222.0000;0.9931;0.4146;
222.3000;0.9939;0.4170;
222.6000;0.9923;0.4241;
222.9000;0.9882;0.4099;
223.2000;0.9939;0.4099;
223.5000;0.9939;0.4028;
223.8000;0.9923;0.3933;
224.1000;0.9931;0.3933;
224.4000;0.9947;0.4004;
224.7000;0.9931;0.3980;
225.0000;0.9931;0.4004;
225.3000;0.9947;0.4075;
225.6000;0.9923;0.3909;
225.9000;0.9906;0.3933;
226.2000;0.9939;0.3957;
226.5000;0.9955;0.3980;
226.8000;0.9931;0.3933;
227.1000;0.9923;0.3862;
227.4000;0.9972;0.4028;
227.7000;0.9963;0.4052;
228.0000;0.9939;0.4004;
228.3000;0.9955;0.4052;
228.6000;0.9923;0.3980;
228.9000;0.9931;0.4004;
229.2000;0.9931;0.3886;
229.5000;0.9906;0.3838;
229.8000;0.9939;0.3909;
230.1000;0.9939;0.3886;
230.4000;0.9923;0.3815;
230.7000;0.9915;0.3744;
231.0000;0.9972;0.3862;
231.3000;0.9931;0.3767;
231.6000;0.9915;0.3767;
231.9000;0.9923;0.3838;
232.2000;0.9931;0.3838;
232.5000;0.9923;0.3838;
232.8000;0.9939;0.3862;
233.1000;0.9939;0.3862;
233.4000;0.9939;0.3886;
233.7000;0.9915;0.3791;
234.0000;0.9923;0.3767;
234.3000;0.9931;0.3791;
234.6000;0.9923;0.3838;
234.9000;0.9955;0.3767;
235.2000;0.9915;0.3744;
235.5000;0.9906;0.3744;
235.8000;0.9923;0.3815;
236.1000;0.9866;0.3696;
236.4000;0.9915;0.3815;
236.7000;0.9931;0.3838;
237.0000;0.9939;0.3862;
237.3000;0.9939;0.3791;
237.6000;0.9939;0.3815;
237.9000;0.9915;0.3744;
238.2000;0.9939;0.3744;
238.5000;0.9963;0.3815;
238.8000;0.9923;0.3767;
239.1000;0.9931;0.3815;
239.4000;0.9947;0.3815;
239.7000;0.9939;0.3815;
240.0000;0.9923;0.3791;
240.3000;0.9923;0.3791;
240.6000;0.9898;0.3696;
240.9000;0.9923;0.3720;
241.2000;0.9923;0.3720;
241.5000;0.9906;0.3767;
241.8000;0.9915;0.3838;
242.1000;0.9939;0.3838;
242.4000;1.0004;0.4004;
242.7000;0.9939;0.3815;
243.0000;0.9898;0.3744;
243.3000;0.9923;0.3933;
243.6000;0.9955;0.4004;
243.9000;0.9939;0.3980;
244.2000;0.9931;0.4028;
244.5000;1.0004;0.4217;
244.8000;0.9947;0.3957;
245.1000;0.9931;0.3957;
245.4000;0.9923;0.3933;
245.7000;0.9931;0.3838;
246.0000;0.9906;0.3815;
246.3000;0.9988;0.4028;
246.6000;0.9898;0.3767;
246.9000;0.9906;0.3767;
247.2000;0.9931;0.3815;
247.5000;0.9915;0.3815;
247.8000;0.9915;0.3886;
248.1000;0.9923;0.3886;
248.4000;0.9898;0.3886;
248.7000;0.9915;0.3838;
249.0000;0.9906;0.3767;
249.3000;0.9898;0.3767;
249.6000;0.9906;0.3838;
249.9000;0.9923;0.3957;
250.2000;0.9898;0.3886;
250.5000;0.9923;0.3933;
250.8000;0.9915;0.3862;
251.1000;0.9923;0.3886;
251.4000;0.9923;0.3862;
251.7000;0.9923;0.3862;
252.0000;0.9906;0.3815;
252.3000;0.9890;0.3767;
252.6000;0.9915;0.3862;
252.9000;0.9931;0.3838;
253.2000;0.9972;0.3957;
253.5000;0.9923;0.3815;
253.8000;0.9906;0.3767;
254.1000;0.9906;0.3767;
254.4000;0.9915;0.3720;
254.7000;0.9980;0.3886;
255.0000;0.9898;0.3696;
255.3000;0.9931;0.3696;
255.6000;0.9931;0.3672;
255.9000;0.9923;0.3696;
256.2000;0.9923;0.3815;
256.5000;0.9915;0.3791;
256.8000;0.9931;0.3791;
257.1000;0.9923;0.3744;
257.4000;0.9923;0.3815;
257.7000;0.9923;0.3767;
258.0000;0.9923;0.3744;
258.3000;0.9931;0.3744;
258.6000;0.9915;0.3649;
258.9000;0.9963;0.3625;
259.2000;0.9923;0.3459;
259.5000;0.9923;0.3412;
259.8000;0.9923;0.3435;
260.1000;1.0012;0.3791;
260.4000;0.9939;0.3578;
260.7000;0.9915;0.3601;
261.0000;0.9931;0.3625;
261.3000;0.9955;0.3649;
261.6000;0.9923;0.3625;
261.9000;0.9890;0.3601;
262.2000;0.9923;0.3649;
262.5000;0.9915;0.3672;
262.8000;0.9906;0.3744;
263.1000;0.9915;0.3815;
263.4000;0.9939;0.3886;
263.7000;0.9923;0.3767;
264.0000;0.9923;0.3672;
264.3000;0.9923;0.3601;
264.6000;0.9939;0.3649;
264.9000;0.9898;0.3578;
265.2000;0.9923;0.3672;
265.5000;0.9955;0.3815;
265.8000;0.9923;0.3791;
266.1000;0.9923;0.3767;
266.4000;0.9915;0.3649;
266.7000;0.9923;0.3696;
267.0000;0.9931;0.3767;
267.3000;0.9898;0.3720;
267.6000;0.9915;0.3767;
267.9000;0.9923;0.3791;
268.2000;0.9915;0.3767;
268.5000;0.9906;0.3649;
268.8000;0.9915;0.3672;
269.1000;0.9915;0.3601;
269.4000;0.9923;0.3601;
269.7000;0.9915;0.3625;
270.0000;0.9898;0.3530;
270.3000;0.9915;0.3578;
270.6000;0.9915;0.3554;
270.9000;0.9923;0.3601;
271.2000;0.9898;0.3554;
271.5000;0.9906;0.3578;
271.8000;0.9931;0.3672;
272.1000;0.9915;0.3744;
272.4000;0.9906;0.3815;
272.7000;0.9906;0.3815;
273.0000;0.9923;0.3815;
273.3000;0.9923;0.3815;
273.6000;0.9915;0.3862;
273.9000;0.9906;0.3815;
274.2000;0.9841;0.3672;
274.5000;0.9906;0.3791;
274.8000;0.9906;0.3862;
275.1000;0.9898;0.3791;
275.4000;0.9915;0.3720;
275.7000;0.9915;0.3601;
276.0000;0.9939;0.3578;
276.3000;0.9915;0.3412;
276.6000;0.9906;0.3435;
276.9000;0.9849;0.3341;
277.2000;0.9915;0.3530;
277.5000;0.9972;0.3767;
277.8000;0.9898;0.3578;
278.1000;0.9915;0.3649;
278.4000;0.9906;0.3625;
278.7000;0.9923;0.3649;
279.0000;0.9923;0.3672;
279.3000;0.9906;0.3625;
279.6000;0.9931;0.3625;
279.9000;0.9923;0.3649;
280.2000;0.9947;0.3625;
280.5000;0.9915;0.3601;
280.8000;0.9923;0.3625;
281.1000;0.9915;0.3696;
281.4000;0.9906;0.3767;
281.7000;0.9906;0.3696;
282.0000;0.9898;0.3744;
282.3000;0.9923;0.3744;
282.6000;0.9906;0.3744;
282.9000;0.9898;0.3672;
283.2000;0.9858;0.3530;
283.5000;0.9915;0.3672;
283.8000;0.9906;0.3696;
284.1000;0.9890;0.3720;
284.4000;0.9906;0.3720;
284.7000;0.9898;0.3815;
285.0000;0.9915;0.3767;
285.3000;0.9915;0.3767;
285.6000;0.9906;0.3791;
285.9000;0.9915;0.3791;
286.2000;0.9906;0.3767;
286.5000;0.9890;0.3744;
286.8000;0.9906;0.3744;
287.1000;0.9915;0.3720;
287.4000;0.9915;0.3862;
287.7000;0.9906;0.3909;
288.0000;0.9890;0.3815;
288.3000;0.9898;0.3886;
288.6000;0.9923;0.3933;
288.9000;0.9898;0.3909;
289.2000;0.9890;0.3909;
289.5000;0.9890;0.3909;
289.8000;0.9906;0.3933;
290.1000;0.9915;0.3933;
290.4000;0.9906;0.3957;
290.7000;0.9955;0.4075;
291.0000;0.9931;0.4052;
291.3000;0.9923;0.4075;
291.6000;0.9923;0.3980;
291.9000;0.9923;0.3909;
292.2000;0.9906;0.3838;
292.5000;0.9906;0.3957;
292.8000;0.9906;0.4075;
293.1000;0.9906;0.4123;
293.4000;0.9898;0.4004;
293.7000;0.9915;0.4004;
294.0000;0.9898;0.3980;
294.3000;0.9898;0.4004;
294.6000;0.9923;0.4099;
294.9000;0.9890;0.3980;
295.2000;0.9906;0.3980;
295.5000;0.9890;0.3791;
295.8000;0.9890;0.3767;
296.1000;0.9915;0.3862;
296.4000;0.9931;0.3886;
296.7000;0.9906;0.3791;
297.0000;0.9923;0.3767;
297.3000;0.9923;0.3744;
297.6000;0.9939;0.3672;
297.9000;0.9915;0.3578;
298.2000;0.9906;0.3649;
298.5000;0.9874;0.3554;
298.8000;0.9915;0.3720;
299.1000;0.9882;0.3672;
299.4000;0.9939;0.3791;
299.7000;0.9890;0.3672;
300.0000;0.9858;0.3530;
300.3000;0.9939;0.3601;
300.6000;0.9915;0.3554;
300.9000;0.9906;0.3554;
301.2000;0.9890;0.3530;
301.5000;0.9915;0.3625;
301.8000;0.9923;0.3649;
302.1000;0.9931;0.3720;
302.4000;0.9906;0.3625;
302.7000;0.9906;0.3601;
303.0000;0.9923;0.3625;
303.3000;0.9972;0.3720;
303.6000;0.9931;0.3649;
303.9000;0.9923;0.3578;
304.2000;0.9923;0.3625;
304.5000;0.9906;0.3625;
304.8000;0.9890;0.3578;
305.1000;0.9923;0.3578;
305.4000;0.9923;0.3530;
305.7000;0.9906;0.3507;
306.0000;0.9890;0.3507;
306.3000;0.9906;0.3578;
306.6000;0.9906;0.3625;
306.9000;0.9906;0.3578;
307.2000;0.9898;0.3625;
307.5000;0.9906;0.3649;
307.8000;0.9898;0.3744;
308.1000;0.9906;0.3767;
308.4000;0.9898;0.3672;
308.7000;0.9939;0.3696;
309.0000;0.9915;0.3649;
309.3000;0.9906;0.3578;
309.6000;0.9906;0.3554;
309.9000;0.9898;0.3601;
310.2000;0.9906;0.3601;
310.5000;0.9915;0.3578;
310.8000;0.9980;0.3696;
311.1000;0.9882;0.3459;
311.4000;0.9906;0.3507;
311.7000;0.9923;0.3507;
312.0000;0.9931;0.3507;
312.3000;0.9915;0.3554;
312.6000;0.9906;0.3649;
312.9000;0.9906;0.3696;
313.2000;0.9923;0.3672;
313.5000;0.9866;0.3601;
313.8000;0.9915;0.3649;
314.1000;0.9906;0.3649;
314.4000;0.9849;0.3554;
314.7000;0.9906;0.3696;
315.0000;0.9906;0.3625;
315.3000;0.9915;0.3578;
315.6000;0.9817;0.3388;
315.9000;0.9906;0.3554;
316.2000;0.9898;0.3459;
316.5000;0.9906;0.3530;
316.8000;0.9939;0.3601;
317.1000;0.9849;0.3388;
317.4000;0.9915;0.3507;
317.7000;0.9915;0.3459;
318.0000;0.9923;0.3578;
318.3000;0.9931;0.3578;
318.6000;0.9898;0.3530;
318.9000;0.9898;0.3554;
319.2000;0.9915;0.3625;
319.5000;0.9874;0.3578;
319.8000;0.9874;0.3578;
320.1000;0.9947;0.3767;
320.4000;0.9923;0.3672;
320.7000;0.9915;0.3744;
321.0000;0.9931;0.3815;
321.3000;0.9882;0.3672;
321.6000;0.9906;0.3649;
321.9000;0.9858;0.3507;
322.2000;0.9923;0.3625;
322.5000;0.9931;0.3578;
322.8000;0.9915;0.3578;
323.1000;0.9906;0.3578;
323.4000;0.9906;0.3554;
323.7000;0.9915;0.3578;
324.0000;0.9906;0.3530;
324.3000;0.9915;0.3649;
324.6000;0.9915;0.3696;
324.9000;0.9906;0.3625;
325.2000;0.9898;0.3578;
325.5000;0.9898;0.3578;
325.8000;0.9898;0.3601;
326.1000;0.9906;0.3625;
326.4000;0.9882;0.3578;
326.7000;0.9890;0.3530;
327.0000;0.9906;0.3601;
327.3000;0.9898;0.3578;
327.6000;0.9906;0.3601;
327.9000;0.9882;0.3672;
328.2000;0.9890;0.3767;
328.5000;0.9915;0.3767;
328.8000;0.9898;0.3672;
329.1000;0.9906;0.3649;
329.4000;0.9906;0.3649;
329.7000;0.9906;0.3625;
330.0000;0.9915;0.3767;
330.3000;0.9906;0.3696;
330.6000;0.9898;0.3767;
330.9000;0.9923;0.3838;
331.2000;0.9923;0.3957;
331.5000;0.9915;0.3933;
331.8000;0.9906;0.3862;
332.1000;0.9915;0.3886;
332.4000;0.9890;0.3815;
332.7000;0.9915;0.3862;
333.0000;0.9898;0.3696;
333.3000;0.9898;0.3696;
333.6000;0.9906;0.3791;
333.9000;0.9906;0.3720;
334.2000;0.9906;0.3696;
334.5000;0.9906;0.3767;
334.8000;0.9915;0.3838;
335.1000;0.9898;0.3862;
335.4000;0.9947;0.3933;
335.7000;0.9898;0.3767;
336.0000;0.9906;0.3791;
336.3000;0.9825;0.3601;
336.6000;0.9915;0.3767;
336.9000;0.9882;0.3625;
337.2000;0.9906;0.3744;
337.5000;0.9955;0.3909;
337.8000;0.9906;0.3815;
338.1000;0.9906;0.3791;
338.4000;0.9882;0.3744;
338.7000;0.9915;0.3767;
339.0000;0.9866;0.3696;
339.3000;0.9906;0.3838;
339.6000;0.9906;0.3696;
339.9000;0.9923;0.3744;
340.2000;0.9906;0.3696;
340.5000;0.9915;0.3720;
340.8000;0.9915;0.3838;
341.1000;0.9898;0.3957;
341.4000;0.9882;0.3909;
341.7000;0.9906;0.3980;
342.0000;0.9915;0.3980;
342.3000;0.9915;0.4004;
342.6000;0.9906;0.3909;
342.9000;0.9890;0.3886;
343.2000;0.9906;0.3909;
343.5000;0.9906;0.3957;
343.8000;0.9898;0.3933;
344.1000;0.9906;0.3815;
344.4000;0.9890;0.3838;
344.7000;0.9874;0.3815;
345.0000;0.9898;0.3862;
345.3000;0.9915;0.3838;
345.6000;0.9898;0.3791;
345.9000;0.9955;0.3886;
346.2000;0.9915;0.3815;
346.5000;0.9906;0.3838;
346.8000;0.9915;0.3886;
347.1000;0.9898;0.3886;
347.4000;0.9923;0.3909;
347.7000;0.9915;0.3838;
348.0000;0.9898;0.3815;
348.3000;0.9906;0.3767;
348.6000;0.9890;0.3720;
348.9000;0.9890;0.3720;
349.2000;0.9939;0.3909;
349.5000;0.9906;0.3744;
349.8000;0.9906;0.3767;
350.1000;0.9906;0.3767;
350.4000;0.9898;0.3791;
350.7000;0.9915;0.3838;
351.0000;0.9906;0.3862;
351.3000;0.9906;0.3862;
351.6000;0.9915;0.3909;
351.9000;0.9923;0.3838;
352.2000;0.9915;0.3791;
352.5000;0.9906;0.3791;
352.8000;0.9906;0.3791;
353.1000;0.9874;0.3791;
353.4000;0.9898;0.3862;
353.7000;0.9915;0.3862;
354.0000;0.9898;0.3838;
354.3000;0.9906;0.3838;
354.6000;0.9898;0.3886;
354.9000;0.9882;0.3909;
355.2000;0.9906;0.3909;
355.5000;0.9906;0.3862;
355.8000;0.9898;0.3909;
356.1000;0.9906;0.3862;
356.4000;0.9906;0.3886;
356.7000;0.9915;0.3791;
357.0000;0.9906;0.3791;
357.3000;0.9882;0.3767;
357.6000;0.9898;0.3791;
357.9000;0.9906;0.3838;
358.2000;0.9890;0.3886;
358.5000;0.9882;0.3909;
358.8000;0.9866;0.3838;
359.1000;0.9947;0.4052;
359.4000;0.9939;0.3933;
359.7000;0.9898;0.3838;
360.0000;0.9915;0.3909;
360.3000;0.9906;0.3862;
360.6000;0.9898;0.3838;
360.9000;0.9890;0.3815;
361.2000;0.9898;0.3815;
361.5000;0.9898;0.3933;
361.8000;0.9906;0.3886;
362.1000;0.9890;0.3862;
362.4000;0.9890;0.3791;
362.7000;0.9906;0.3862;
363.0000;0.9906;0.3933;
363.3000;0.9890;0.3886;
363.6000;0.9890;0.3862;
363.9000;0.9898;0.3933;
364.2000;0.9882;0.3886;
364.5000;0.9915;0.3933;
364.8000;0.9915;0.3909;
365.1000;0.9898;0.3933;
365.4000;0.9915;0.3957;
365.7000;0.9906;0.4004;
366.0000;0.9906;0.4075;
366.3000;0.9890;0.4028;
366.6000;0.9890;0.4028;
366.9000;0.9915;0.4123;
367.2000;0.9915;0.4194;
367.5000;0.9890;0.4170;
367.8000;0.9882;0.4146;
368.1000;0.9890;0.4123;
368.4000;0.9898;0.4052;
368.7000;0.9890;0.4123;
369.0000;0.9874;0.4194;
369.3000;0.9890;0.4194;
369.6000;0.9906;0.4170;
369.9000;0.9898;0.4123;
370.2000;0.9890;0.4099;
370.5000;0.9890;0.4099;
370.8000;0.9882;0.4146;
371.1000;0.9882;0.4170;
371.4000;0.9898;0.4123;
371.7000;0.9898;0.4075;
372.0000;0.9898;0.3980;
372.3000;0.9906;0.4028;
372.6000;0.9890;0.3933;
372.9000;0.9874;0.3933;
373.2000;0.9874;0.3862;
373.5000;0.9882;0.3909;
373.8000;0.9915;0.4052;
374.1000;0.9866;0.3980;
374.4000;0.9906;0.4099;
374.7000;0.9915;0.4004;
375.0000;0.9898;0.3886;
375.3000;0.9898;0.3838;
375.6000;0.9890;0.3909;
375.9000;0.9906;0.3957;
376.2000;0.9882;0.3957;
376.5000;0.9890;0.3980;
376.8000;0.9882;0.3933;
377.1000;0.9890;0.3957;
377.4000;0.9882;0.3957;
377.7000;0.9882;0.3933;
378.0000;0.9882;0.3933;
378.3000;0.9890;0.3933;
378.6000;0.9882;0.4028;
378.9000;0.9890;0.4075;
379.2000;0.9906;0.4123;
379.5000;0.9874;0.4123;
379.8000;0.9898;0.4217;
380.1000;0.9890;0.4123;
380.4000;0.9890;0.4004;
380.7000;0.9882;0.3980;
381.0000;0.9890;0.4004;
381.3000;0.9882;0.4004;
381.6000;0.9874;0.3909;
381.9000;0.9890;0.4052;
382.2000;0.9890;0.4075;
382.5000;0.9882;0.4075;
382.8000;0.9882;0.4075;
383.1000;0.9874;0.4004;
383.4000;0.9882;0.3980;
383.7000;0.9890;0.3980;
384.0000;0.9858;0.3886;
384.3000;0.9890;0.4004;
384.6000;0.9890;0.4028;
384.9000;0.9898;0.4052;
385.2000;0.9898;0.4028;
385.5000;0.9898;0.4075;
385.8000;0.9874;0.3957;
386.1000;0.9906;0.3957;
386.4000;0.9882;0.3886;
386.7000;0.9866;0.3909;
387.0000;0.9882;0.3909;
387.3000;0.9890;0.3862;
387.6000;0.9898;0.3909;
387.9000;0.9882;0.3862;
388.2000;0.9874;0.3933;
388.5000;0.9882;0.3980;
388.8000;0.9898;0.4123;
389.1000;0.9882;0.4170;
389.4000;0.9882;0.4052;
389.7000;0.9906;0.4075;
390.0000;0.9906;0.4028;
390.3000;0.9890;0.4004;
390.6000;0.9874;0.3957;
390.9000;0.9882;0.3980;
391.2000;0.9915;0.4028;
391.5000;0.9898;0.3933;
391.8000;0.9898;0.4004;
392.1000;0.9890;0.3957;
392.4000;0.9882;0.4052;
392.7000;0.9882;0.4052;
393.0000;0.9890;0.4028;
393.3000;0.9874;0.3909;
393.6000;0.9890;0.3909;
393.9000;0.9890;0.3886;
394.2000;0.9890;0.3886;
394.5000;0.9898;0.3909;
394.8000;0.9890;0.3980;
395.1000;0.9898;0.3980;
395.4000;0.9906;0.4028;
395.7000;0.9906;0.4004;
396.0000;0.9866;0.3980;
396.3000;0.9898;0.4028;
396.6000;0.9906;0.3933;
396.9000;0.9898;0.3838;
397.2000;0.9915;0.3862;
397.5000;0.9890;0.3862;
397.8000;0.9906;0.3933;
398.1000;0.9906;0.3862;
398.4000;0.9923;0.3862;
398.7000;0.9915;0.3862;
399.0000;0.9906;0.3957;
399.3000;0.9906;0.3980;
399.6000;0.9890;0.3980;
399.9000;0.9882;0.4004;
400.2000;0.9898;0.4075;
400.5000;0.9906;0.4028;
400.8000;0.9874;0.3886;
401.1000;0.9915;0.3862;
401.4000;0.9898;0.3744;
401.7000;0.9890;0.3815;
402.0000;0.9890;0.3909;
402.3000;0.9882;0.3886;
402.6000;0.9874;0.3909;
402.9000;0.9898;0.3957;
403.2000;0.9882;0.3980;
403.5000;0.9866;0.3886;
403.8000;0.9890;0.3909;
404.1000;0.9898;0.3980;
404.4000;0.9882;0.4099;
404.7000;0.9858;0.4052;
405.0000;0.9890;0.4075;
405.3000;0.9874;0.4028;
405.6000;0.9890;0.4052;
405.9000;0.9890;0.3980;
406.2000;0.9874;0.3886;
406.5000;0.9858;0.3862;
406.8000;0.9858;0.3862;
407.1000;0.9882;0.3909;
407.4000;0.9906;0.3886;
407.7000;0.9866;0.3815;
408.0000;0.9882;0.3838;
408.3000;0.9858;0.3767;
408.6000;0.9866;0.3720;
408.9000;0.9963;0.3862;
409.2000;0.9890;0.3672;
409.5000;0.9858;0.3483;
409.8000;0.9874;0.3507;
410.1000;0.9915;0.3625;
410.4000;0.9898;0.3507;
410.7000;0.9890;0.3483;
411.0000;0.9874;0.3459;
411.3000;0.9882;0.3530;
411.6000;0.9898;0.3554;
411.9000;0.9866;0.3530;
412.2000;0.9866;0.3507;
412.5000;0.9898;0.3672;
412.8000;0.9874;0.3649;
413.1000;0.9906;0.3696;
413.4000;0.9890;0.3720;
413.7000;0.9858;0.3672;
414.0000;0.9898;0.3744;
414.3000;0.9866;0.3744;
414.6000;0.9809;0.3554;
414.9000;0.9866;0.3767;
415.2000;0.9866;0.3767;
415.5000;0.9874;0.3862;
415.8000;0.9890;0.3838;
416.1000;0.9874;0.3815;
416.4000;0.9866;0.3744;
416.7000;0.9882;0.3720;
417.0000;0.9882;0.3838;
417.3000;0.9882;0.3791;
417.6000;0.9898;0.3815;
417.9000;0.9898;0.3909;
418.2000;0.9882;0.3957;
418.5000;0.9898;0.3886;
418.8000;0.9882;0.3886;
419.1000;0.9858;0.3862;
419.4000;0.9906;0.3980;
419.7000;0.9817;0.3720;
420.0000;0.9882;0.3815;
420.3000;0.9882;0.3838;
420.6000;0.9882;0.3838;
420.9000;0.9898;0.3886;
421.2000;0.9890;0.3838;
421.5000;0.9890;0.3767;
421.8000;0.9890;0.3767;
422.1000;0.9915;0.3767;
422.4000;0.9898;0.3767;
422.7000;0.9955;0.3980;
423.0000;0.9874;0.3767;
423.3000;0.9858;0.3696;
423.6000;0.9882;0.3767;
423.9000;0.9874;0.3767;
424.2000;0.9874;0.3815;
424.5000;0.9947;0.4028;
424.8000;0.9874;0.3815;
425.1000;0.9898;0.3815;
425.4000;0.9866;0.3886;
425.7000;0.9841;0.3933;
426.0000;0.9841;0.4123;
426.3000;0.9874;0.4146;
426.6000;0.9866;0.4099;
426.9000;0.9906;0.4241;
427.2000;0.9874;0.4028;
427.5000;0.9898;0.4099;
427.8000;0.9882;0.4099;
428.1000;0.9882;0.4123;
428.4000;0.9906;0.4123;
428.7000;0.9890;0.4052;
429.0000;0.9874;0.4052;
429.3000;0.9874;0.4052;
429.6000;0.9890;0.4075;
429.9000;0.9890;0.4004;
430.2000;0.9931;0.4004;
430.5000;0.9874;0.3862;
430.8000;0.9866;0.3744;
431.1000;0.9955;0.3933;
431.4000;0.9866;0.3744;
431.7000;0.9866;0.3720;
432.0000;0.9890;0.3815;
432.3000;0.9874;0.3744;
432.6000;0.9882;0.3744;
432.9000;0.9939;0.3886;
433.2000;0.9906;0.3767;
433.5000;0.9890;0.3767;
433.8000;0.9882;0.3838;
434.1000;0.9882;0.3886;
434.4000;0.9874;0.3886;
434.7000;0.9882;0.3957;
435.0000;0.9906;0.4004;
435.3000;0.9882;0.4004;
435.6000;0.9866;0.3957;
435.9000;0.9915;0.3933;
436.2000;0.9841;0.3791;
436.5000;0.9882;0.3767;
436.8000;0.9874;0.3815;
437.1000;0.9858;0.3886;
437.4000;0.9890;0.3862;
437.7000;0.9898;0.3886;
438.0000;0.9882;0.3815;
438.3000;0.9882;0.3744;
438.6000;0.9882;0.3744;
438.9000;0.9890;0.3696;
439.2000;0.9882;0.3672;
439.5000;0.9890;0.3767;
439.8000;0.9874;0.3815;
440.1000;0.9858;0.3838;
440.4000;0.9866;0.3838;
440.7000;0.9874;0.3815;
441.0000;0.9906;0.3909;
441.3000;0.9874;0.3862;
441.6000;0.9874;0.3862;
441.9000;0.9866;0.3815;
442.2000;0.9874;0.3791;
442.5000;0.9890;0.3815;
442.8000;0.9890;0.3862;
443.1000;0.9882;0.3933;
443.4000;0.9882;0.3862;
443.7000;0.9874;0.3933;
444.0000;0.9890;0.3909;
444.3000;0.9882;0.3980;
444.6000;0.9882;0.3980;
444.9000;0.9882;0.4004;
445.2000;0.9898;0.4052;
445.5000;0.9882;0.4004;
445.8000;0.9866;0.3980;
446.1000;0.9817;0.3957;
446.4000;0.9784;0.3838;
446.7000;0.9866;0.4052;
447.0000;0.9866;0.3980;
447.3000;0.9890;0.4099;
447.6000;0.9874;0.4004;
447.9000;0.9866;0.4028;
448.2000;0.9882;0.4028;
448.5000;0.9898;0.4028;
448.8000;0.9890;0.3980;
449.1000;0.9882;0.4052;
449.4000;0.9841;0.3980;
449.7000;0.9890;0.4146;
450.0000;0.9898;0.4146;
450.3000;0.9882;0.4052;
450.6000;0.9882;0.4123;
450.9000;0.9858;0.3957;
451.2000;0.9833;0.3791;
451.5000;0.9866;0.3815;
451.8000;0.9849;0.3791;
452.1000;0.9841;0.3767;
452.4000;0.9866;0.3815;
452.7000;0.9882;0.3838;
453.0000;0.9890;0.3815;
453.3000;0.9882;0.3886;
453.6000;0.9890;0.3886;
453.9000;0.9947;0.4028;
454.2000;0.9882;0.4004;
454.5000;0.9890;0.4052;
454.8000;0.9890;0.4004;
455.1000;0.9890;0.4004;
455.4000;0.9882;0.3980;
455.7000;0.9833;0.3886;
456.0000;0.9874;0.4028;
456.3000;0.9874;0.4075;
456.6000;0.9866;0.3933;
456.9000;0.9874;0.4004;
457.2000;0.9882;0.4004;
457.5000;0.9915;0.4075;
457.8000;0.9915;0.4123;
458.1000;0.9890;0.4052;
458.4000;0.9866;0.3957;
458.7000;0.9849;0.4004;
459.0000;0.9866;0.4004;
459.3000;0.9874;0.4099;
459.6000;0.9882;0.4146;
459.9000;0.9858;0.4099;
460.2000;0.9906;0.4217;
460.5000;0.9882;0.4241;
460.8000;0.9874;0.4099;
461.1000;0.9874;0.4075;
461.4000;0.9874;0.3980;
461.7000;0.9858;0.3862;
462.0000;0.9890;0.3909;
462.3000;0.9882;0.3791;
462.6000;0.9874;0.3696;
462.9000;0.9882;0.3744;
463.2000;0.9874;0.3720;
463.5000;0.9866;0.3791;
463.8000;0.9882;0.3815;
464.1000;0.9825;0.3649;
464.4000;0.9890;0.3791;
464.7000;0.9882;0.3815;
465.0000;0.9898;0.3886;
465.3000;0.9874;0.3862;
465.6000;0.9890;0.3886;
465.9000;0.9882;0.3886;
466.2000;0.9866;0.3933;
466.5000;0.9866;0.3957;
466.8000;0.9817;0.3791;
467.1000;0.9874;0.3838;
467.4000;0.9898;0.3862;
467.7000;0.9866;0.3791;
468.0000;0.9866;0.3791;
468.3000;0.9882;0.3909;
468.6000;0.9890;0.3862;
468.9000;0.9890;0.3862;
469.2000;0.9874;0.3815;
469.5000;0.9874;0.3791;
469.8000;0.9915;0.3838;
470.1000;0.9874;0.3862;
470.4000;0.9866;0.3815;
470.7000;0.9874;0.3815;
471.0000;0.9866;0.3838;
471.3000;0.9858;0.3862;
471.6000;0.9882;0.3957;
471.9000;0.9866;0.3980;
472.2000;0.9882;0.4004;
472.5000;0.9882;0.3957;
472.8000;0.9866;0.3862;
473.1000;0.9874;0.3980;
473.4000;0.9874;0.4004;
473.7000;0.9898;0.4004;
474.0000;0.9866;0.3933;
474.3000;0.9849;0.3909;
474.6000;0.9866;0.4004;
474.9000;0.9890;0.4146;
475.2000;0.9882;0.4075;
475.5000;0.9866;0.4052;
475.8000;0.9825;0.3957;
476.1000;0.9866;0.4099;
476.4000;0.9874;0.4099;
476.7000;0.9866;0.4099;
477.0000;0.9866;0.3980;
477.3000;0.9874;0.3980;
477.6000;0.9866;0.3957;
477.9000;0.9858;0.3909;
478.2000;0.9866;0.3980;
478.5000;0.9858;0.3933;
478.8000;0.9882;0.3862;
479.1000;0.9874;0.3791;
479.4000;0.9866;0.3838;
479.7000;0.9866;0.3886;
480.0000;0.9874;0.3909;
480.3000;0.9866;0.4004;
480.6000;0.9882;0.3957;
480.9000;0.9858;0.3886;
481.2000;0.9849;0.3791;
481.5000;0.9882;0.3838;
481.8000;0.9906;0.3933;
482.1000;0.9882;0.3909;
482.4000;0.9874;0.3933;
482.7000;0.9890;0.4099;
483.0000;0.9882;0.4123;
483.3000;0.9874;0.4028;
483.6000;0.9874;0.4052;
483.9000;0.9866;0.4052;
484.2000;0.9906;0.4052;
484.5000;0.9882;0.4052;
484.8000;0.9882;0.4052;
485.1000;0.9874;0.4004;
485.4000;0.9882;0.4052;
485.7000;0.9882;0.4099;
486.0000;0.9866;0.4146;
486.3000;0.9858;0.4075;
486.6000;0.9882;0.4052;
486.9000;0.9866;0.4052;
487.2000;0.9833;0.3957;
487.5000;0.9866;0.4052;
487.8000;0.9882;0.4028;
488.1000;0.9882;0.4099;
488.4000;0.9874;0.4194;
488.7000;0.9866;0.4170;
489.0000;0.9874;0.4170;
489.3000;0.9874;0.4123;
489.6000;0.9858;0.4052;
489.9000;0.9874;0.4004;
490.2000;0.9882;0.4004;
490.5000;0.9874;0.4004;
490.8000;0.9874;0.3980;
491.1000;0.9858;0.4004;
491.4000;0.9915;0.4099;
491.7000;0.9858;0.3957;
492.0000;0.9874;0.4052;
492.3000;0.9906;0.4194;
492.6000;0.9849;0.4099;
492.9000;0.9849;0.4123;
493.2000;0.9874;0.4099;
493.5000;0.9849;0.4099;
493.8000;0.9866;0.4170;
494.1000;0.9801;0.4194;
494.4000;0.9923;0.4525;
494.7000;0.9882;0.4454;
495.0000;0.9849;0.4454;
495.3000;0.9841;0.4407;
495.6000;0.9849;0.4312;
495.9000;0.9841;0.4288;
496.2000;0.9849;0.4336;
496.5000;0.9874;0.4288;
496.8000;0.9833;0.4170;
497.1000;0.9841;0.4241;
497.4000;0.9874;0.4288;
497.7000;0.9866;0.4360;
498.0000;0.9874;0.4265;
498.3000;0.9898;0.4241;
498.6000;0.9825;0.4075;
498.9000;0.9817;0.3980;
499.2000;0.9866;0.4075;
499.5000;0.9849;0.4123;
499.8000;0.9858;0.4123;
500.1000;0.9858;0.4099;
500.4000;0.9906;0.4146;
500.7000;0.9874;0.4004;
501.0000;0.9866;0.3980;
501.3000;0.9849;0.3957;
501.6000;0.9866;0.3980;
501.9000;0.9882;0.4052;
502.2000;0.9890;0.4075;
502.5000;0.9898;0.4146;
502.8000;0.9866;0.4075;
503.1000;0.9874;0.4099;
503.4000;0.9866;0.4075;
503.7000;0.9849;0.4123;
504.0000;0.9874;0.4194;
504.3000;0.9858;0.4217;
504.6000;0.9841;0.4123;
504.9000;0.9792;0.4075;
505.2000;0.9858;0.4241;
505.5000;0.9882;0.4217;
505.8000;0.9849;0.4075;
506.1000;0.9833;0.4123;
506.4000;0.9849;0.4170;
506.7000;0.9849;0.4194;
507.0000;0.9841;0.4123;
507.3000;0.9874;0.4170;
507.6000;0.9866;0.4194;
507.9000;0.9874;0.4170;
508.2000;0.9801;0.4075;
508.5000;0.9866;0.4217;
508.8000;0.9841;0.4146;
509.1000;0.9858;0.4123;
509.4000;0.9866;0.4052;
509.7000;0.9858;0.3980;
510.0000;0.9849;0.3933;
510.3000;0.9866;0.4052;
510.6000;0.9866;0.4075;
510.9000;0.9874;0.4123;
511.2000;0.9923;0.4217;
511.5000;0.9858;0.4052;
511.8000;0.9858;0.4052;
512.1000;0.9858;0.4123;
512.4000;0.9874;0.4217;
512.7000;0.9858;0.4217;
513.0000;0.9849;0.4217;
513.3000;0.9858;0.4194;
513.6000;0.9874;0.4241;
513.9000;0.9874;0.4241;
514.2000;0.9858;0.4241;
514.5000;0.9858;0.4146;
514.8000;0.9858;0.4241;
515.1000;0.9866;0.4170;
515.4000;0.9776;0.3933;
515.7000;0.9866;0.4146;
516.0000;0.9866;0.4123;
516.3000;0.9890;0.4194;
516.6000;0.9858;0.4052;
516.9000;0.9866;0.4004;
517.2000;0.9874;0.4004;
517.5000;0.9858;0.3909;
517.8000;0.9906;0.3980;
518.1000;0.9874;0.3980;
518.4000;0.9915;0.4099;
518.7000;0.9858;0.4028;
519.0000;0.9858;0.4099;
519.3000;0.9882;0.4123;
519.6000;0.9866;0.4099;
519.9000;0.9841;0.4075;
520.2000;0.9858;0.4075;
520.5000;0.9874;0.4099;
520.8000;0.9849;0.4052;
521.1000;0.9833;0.4052;
521.4000;0.9849;0.4075;
521.7000;0.9849;0.4123;
522.0000;0.9809;0.4028;
522.3000;0.9858;0.4146;
522.6000;0.9882;0.4194;
522.9000;0.9809;0.3957;
523.2000;0.9858;0.4075;
523.5000;0.9874;0.4194;
523.8000;0.9882;0.4123;
524.1000;0.9874;0.4170;
524.4000;0.9817;0.4052;
524.7000;0.9874;0.4194;
525.0000;0.9874;0.4194;
525.3000;0.9866;0.4075;
525.6000;0.9882;0.4217;
525.9000;0.9866;0.4217;
526.2000;0.9866;0.4241;
526.5000;0.9882;0.4312;
526.8000;0.9849;0.4265;
527.1000;0.9874;0.4288;
527.4000;0.9963;0.4454;
527.7000;0.9841;0.4265;
528.0000;0.9874;0.4383;
528.3000;0.9866;0.4360;
528.6000;0.9898;0.4407;
528.9000;0.9874;0.4265;
529.2000;0.9776;0.4004;
529.5000;0.9866;0.4099;
529.8000;0.9841;0.4075;
530.1000;0.9841;0.4099;
530.4000;0.9858;0.4075;
530.7000;0.9849;0.3980;
531.0000;0.9874;0.3980;
531.3000;0.9866;0.3957;
531.6000;0.9858;0.4052;
531.9000;0.9858;0.4052;
532.2000;0.9841;0.4123;
532.5000;0.9858;0.4146;
532.8000;0.9858;0.4099;
533.1000;0.9841;0.4075;
533.4000;0.9841;0.4123;
533.7000;0.9849;0.4099;
534.0000;0.9858;0.4170;
534.3000;0.9858;0.4123;
534.6000;0.9866;0.4075;
534.9000;0.9858;0.4028;
535.2000;0.9906;0.4075;
535.5000;0.9866;0.4052;
535.8000;0.9890;0.4123;
536.1000;0.9849;0.4099;
536.4000;0.9849;0.4123;
536.7000;0.9866;0.4170;
537.0000;0.9858;0.4194;
537.3000;0.9858;0.4123;
537.6000;0.9866;0.4075;
537.9000;0.9849;0.3980;
538.2000;0.9858;0.4052;
538.5000;0.9849;0.4075;
538.8000;0.9882;0.4217;
539.1000;0.9858;0.4217;
539.4000;0.9833;0.4099;
539.7000;0.9858;0.4194;
540.0000;0.9866;0.4288;
540.3000;0.9866;0.4288;
540.6000;0.9866;0.4241;
540.9000;0.9858;0.4288;
541.2000;0.9841;0.4217;
541.5000;0.9849;0.4170;
541.8000;0.9841;0.4123;
542.1000;0.9931;0.4336;
542.4000;0.9849;0.4123;
542.7000;0.9849;0.4146;
543.0000;0.9898;0.4312;
543.3000;0.9866;0.4217;
543.6000;0.9849;0.4170;
543.9000;0.9890;0.4146;
544.2000;0.9874;0.4052;
544.5000;0.9866;0.3980;
544.8000;0.9890;0.4052;
545.1000;0.9858;0.4028;
545.4000;0.9882;0.4099;
545.7000;0.9858;0.4004;
546.0000;0.9874;0.3980;
546.3000;0.9866;0.3909;
546.6000;0.9858;0.3909;
546.9000;0.9849;0.3933;
547.2000;0.9890;0.4052;
547.5000;0.9882;0.4123;
547.8000;0.9874;0.4146;
548.1000;0.9866;0.4170;
548.4000;0.9784;0.4028;
548.7000;0.9841;0.4265;
549.0000;0.9849;0.4146;
549.3000;0.9849;0.4146;
549.6000;0.9915;0.4194;
549.9000;0.9801;0.4004;
550.2000;0.9866;0.4146;
550.5000;0.9849;0.4217;
550.8000;0.9833;0.4170;
551.1000;0.9849;0.4241;
551.4000;0.9858;0.4217;
551.7000;0.9898;0.4336;
552.0000;0.9833;0.4146;
552.3000;0.9825;0.4146;
552.6000;0.9825;0.4170;
552.9000;0.9841;0.4170;
553.2000;0.9825;0.4194;
553.5000;0.9849;0.4170;
553.8000;0.9809;0.4075;
554.1000;0.9882;0.4288;
554.4000;0.9849;0.4241;
554.7000;0.9858;0.4170;
555.0000;0.9849;0.4099;
555.3000;0.9866;0.4052;
555.6000;0.9849;0.3980;
555.9000;0.9849;0.4052;
556.2000;0.9841;0.4075;
556.5000;0.9841;0.4052;
556.8000;0.9841;0.4028;
557.1000;0.9866;0.4028;
557.4000;0.9841;0.4004;
557.7000;0.9898;0.4194;
558.0000;0.9849;0.4075;
558.3000;0.9849;0.4099;
558.6000;0.9849;0.4028;
558.9000;0.9841;0.3957;
559.2000;0.9858;0.3980;
559.5000;0.9858;0.3909;
559.8000;0.9858;0.3957;
560.1000;0.9841;0.3957;
560.4000;0.9874;0.4028;
560.7000;0.9866;0.4052;
561.0000;0.9866;0.4028;
561.3000;0.9858;0.4004;
561.6000;0.9874;0.4052;
561.9000;0.9866;0.4146;
562.2000;0.9866;0.4170;
562.5000;0.9849;0.4146;
562.8000;0.9874;0.4194;
563.1000;0.9801;0.4052;
563.4000;0.9825;0.4170;
563.7000;0.9849;0.4170;
564.0000;0.9849;0.4075;
564.3000;0.9776;0.3909;
564.6000;0.9849;0.4075;
564.9000;0.9849;0.4075;
565.2000;0.9858;0.4004;
565.5000;0.9858;0.4004;
565.8000;0.9874;0.4146;
566.1000;0.9849;0.4170;
566.4000;0.9874;0.4265;
566.7000;0.9858;0.4194;
567.0000;0.9849;0.4217;
567.3000;0.9858;0.4099;
567.6000;0.9866;0.4170;
567.9000;0.9866;0.4194;
568.2000;0.9841;0.4194;
568.5000;0.9849;0.4217;
568.8000;0.9849;0.4194;
569.1000;0.9898;0.4288;
569.4000;0.9849;0.4170;
569.7000;0.9858;0.4217;
570.0000;0.9809;0.4099;
570.3000;0.9841;0.4241;
570.6000;0.9874;0.4217;
570.9000;0.9923;0.4360;
571.2000;0.9833;0.4123;
571.5000;0.9890;0.4217;
571.8000;0.9866;0.4194;
572.1000;0.9817;0.4075;
572.4000;0.9841;0.4146;
572.7000;0.9858;0.4241;
573.0000;0.9866;0.4194;
573.3000;0.9858;0.4123;
573.6000;0.9858;0.4075;
573.9000;0.9841;0.4028;
574.2000;0.9849;0.4075;
574.5000;0.9866;0.4028;
574.8000;0.9866;0.4123;
575.1000;0.9858;0.4028;
575.4000;0.9858;0.4028;
575.7000;0.9866;0.4075;
576.0000;0.9858;0.4075;
576.3000;0.9866;0.4170;
576.6000;0.9866;0.4217;
576.9000;0.9858;0.4241;
577.2000;0.9866;0.4336;
577.5000;0.9841;0.4288;
577.8000;0.9849;0.4288;
578.1000;0.9874;0.4312;
578.4000;0.9858;0.4265;
578.7000;0.9858;0.4217;
579.0000;0.9849;0.4170;
579.3000;0.9841;0.4075;
579.6000;0.9841;0.4052;
579.9000;0.9849;0.4052;
580.2000;0.9866;0.4052;
580.5000;0.9841;0.4028;
580.8000;0.9849;0.4028;
581.1000;0.9866;0.4123;
581.4000;0.9841;0.4170;
581.7000;0.9858;0.4241;
582.0000;0.9858;0.4265;
582.3000;0.9866;0.4241;
582.6000;0.9858;0.4146;
582.9000;0.9858;0.4170;
583.2000;0.9833;0.4075;
583.5000;0.9817;0.3957;
583.8000;0.9849;0.3957;
584.1000;0.9866;0.4004;
584.4000;0.9833;0.3909;
584.7000;0.9841;0.3980;
585.0000;0.9858;0.3980;
585.3000;0.9866;0.4052;
585.6000;0.9833;0.3957;
585.9000;0.9858;0.4075;
586.2000;0.9882;0.4123;
586.5000;0.9792;0.3933;
586.8000;0.9866;0.4170;
587.1000;0.9858;0.4194;
587.4000;0.9866;0.4217;
587.7000;0.9874;0.4194;
588.0000;0.9849;0.4170;
588.3000;0.9849;0.4241;
588.6000;0.9833;0.4170;
588.9000;0.9858;0.4194;
589.2000;0.9849;0.4194;
589.5000;0.9882;0.4288;
589.8000;0.9833;0.4194;
590.1000;0.9833;0.4217;
590.4000;0.9874;0.4336;
590.7000;0.9890;0.4383;
591.0000;0.9858;0.4288;
591.3000;0.9849;0.4265;
591.6000;0.9866;0.4241;
591.9000;0.9825;0.4170;
592.2000;0.9841;0.4217;
592.5000;0.9874;0.4265;
592.8000;0.9858;0.4360;
593.1000;0.9866;0.4478;
593.4000;0.9858;0.4431;
593.7000;0.9849;0.4336;
594.0000;0.9866;0.4383;
594.3000;0.9858;0.4288;
594.6000;0.9858;0.4170;
594.9000;0.9841;0.4052;
595.2000;0.9841;0.4075;
595.5000;0.9825;0.4028;
595.8000;0.9841;0.4099;
596.1000;0.9833;0.4099;
596.4000;0.9858;0.4075;
596.7000;0.9801;0.3909;
597.0000;0.9817;0.3957;
597.3000;0.9849;0.4028;
597.6000;0.9849;0.3980;
597.9000;0.9849;0.4028;
598.2000;0.9858;0.4028;
598.5000;0.9849;0.4028;
598.8000;0.9849;0.3933;
599.1000;0.9882;0.3909;
599.4000;0.9841;0.3886;
599.7000;0.9841;0.4004;
600.0000;0.9841;0.4052;
600.3000;0.9833;0.3815;
600.6000;0.9833;0.3625;
600.9000;0.9776;0.3412;
601.2000;0.9695;0.3080;
601.5000;0.9597;0.2772;
601.8000;0.9532;0.2583;
602.1000;0.9459;0.2346;
602.4000;0.9377;0.1967;
602.7000;0.9231;0.1611;
603.0000;0.9206;0.1635;
603.3000;0.9133;0.1422;
603.6000;0.9060;0.1232;
603.9000;0.9011;0.1161;
604.2000;0.8987;0.1090;
604.5000;0.8897;0.1042;
604.8000;0.8856;0.0971;
605.1000;0.8799;0.0853;
605.4000;0.8742;0.0687;
605.7000;0.8710;0.0711;
606.0000;0.8661;0.0640;
606.3000;0.8604;0.0569;
606.6000;0.8596;0.0545;
606.9000;0.8547;0.0403;
607.2000;0.8514;0.0284;
607.5000;0.8466;0.0095;
607.8000;0.8425;0.0024;
608.1000;0.8392;0.0000;
608.4000;0.8392;0.0071;
608.7000;0.8335;-0.0047;
609.0000;0.8303;-0.0047;
609.3000;0.8295;-0.0118;
609.6000;0.8262;-0.0118;
609.9000;0.8238;-0.0142;
610.2000;0.8197;-0.0166;
610.5000;0.8164;-0.0166;
610.8000;0.8173;-0.0095;
611.1000;0.8124;-0.0166;
611.4000;0.8067;-0.0213;
611.7000;0.8059;-0.0284;
612.0000;0.8042;-0.0213;
612.3000;0.8018;-0.0284;
612.6000;0.8002;-0.0284;
612.9000;0.7977;-0.0332;
613.2000;0.7953;-0.0355;
613.5000;0.7904;-0.0426;
613.8000;0.7928;-0.0379;
614.1000;0.7896;-0.0426;
614.4000;0.7888;-0.0474;
614.7000;0.7855;-0.0592;
615.0000;0.7855;-0.0545;
615.3000;0.7823;-0.0616;
615.6000;0.7798;-0.0616;
615.9000;0.7774;-0.0616;
616.2000;0.7766;-0.0640;
616.5000;0.7757;-0.0592;
616.8000;0.7741;-0.0640;
617.1000;0.7700;-0.0711;
617.4000;0.7700;-0.0663;
617.7000;0.7684;-0.0734;
618.0000;0.7684;-0.0782;
618.3000;0.7652;-0.0758;
618.6000;0.7684;-0.0640;
618.9000;0.7603;-0.0806;
619.2000;0.7619;-0.0782;
619.5000;0.7595;-0.0877;
619.8000;0.7595;-0.0806;
620.1000;0.7578;-0.0758;
620.4000;0.7570;-0.0782;
620.7000;0.7562;-0.0829;
621.0000;0.7570;-0.0711;
621.3000;0.7473;-0.0948;
621.6000;0.7530;-0.0853;
621.9000;0.7530;-0.0782;
622.2000;0.7489;-0.0829;
622.5000;0.7489;-0.0877;
622.8000;0.7464;-0.0924;
623.1000;0.7448;-0.0900;
623.4000;0.7432;-0.0948;
623.7000;0.7513;-0.0829;
624.0000;0.7464;-0.0995;
624.3000;0.7391;-0.1066;
624.6000;0.7399;-0.0971;
624.9000;0.7383;-0.0995;
625.2000;0.7350;-0.1042;
625.5000;0.7342;-0.1042;
625.8000;0.7359;-0.0995;
626.1000;0.7334;-0.1019;
626.4000;0.7375;-0.0924;
626.7000;0.7302;-0.1066;
627.0000;0.7310;-0.1019;
627.3000;0.7310;-0.0924;
627.6000;0.7302;-0.0948;
627.9000;0.7318;-0.0900;
628.2000;0.7310;-0.0948;
628.5000;0.7269;-0.1019;
628.8000;0.7277;-0.0853;
629.1000;0.7293;-0.0853;
629.4000;0.7261;-0.0853;
629.7000;0.7261;-0.0853;
630.0000;0.7245;-0.0877;
630.3000;0.7228;-0.0877;
630.6000;0.7236;-0.0900;
630.9000;0.7212;-0.0995;
631.2000;0.7171;-0.1042;
631.5000;0.7220;-0.0971;
631.8000;0.7196;-0.1066;
632.1000;0.7179;-0.1042;
632.4000;0.7171;-0.1042;
632.7000;0.7171;-0.0971;
633.0000;0.7179;-0.0924;
633.3000;0.7155;-0.0971;
633.6000;0.7139;-0.0971;
633.9000;0.7147;-0.0948;
634.2000;0.7155;-0.0948;
634.5000;0.7139;-0.1066;
634.8000;0.7139;-0.1114;
635.1000;0.7123;-0.1066;
635.4000;0.7131;-0.0995;
635.7000;0.7155;-0.0948;
636.0000;0.7106;-0.0995;
636.3000;0.7082;-0.1114;
636.6000;0.7098;-0.1066;
636.9000;0.7098;-0.0995;
637.2000;0.7049;-0.1137;
637.5000;0.7066;-0.1114;
637.8000;0.7090;-0.1090;
638.1000;0.7074;-0.0995;
638.4000;0.7066;-0.0948;
638.7000;0.7082;-0.0900;
639.0000;0.7066;-0.0971;
639.3000;0.7066;-0.0995;
639.6000;0.7033;-0.1114;
639.9000;0.7041;-0.1019;
640.2000;0.7025;-0.1019;
640.5000;0.7041;-0.1019;
640.8000;0.7057;-0.1042;
641.1000;0.7009;-0.1090;
641.4000;0.7000;-0.0948;
641.7000;0.6992;-0.1042;
642.0000;0.6960;-0.1042;
642.3000;0.6935;-0.0995;
642.6000;0.6976;-0.0948;
642.9000;0.6968;-0.0948;
643.2000;0.6886;-0.1066;
643.5000;0.6968;-0.0971;
643.8000;0.6976;-0.1019;
644.1000;0.6952;-0.1066;
644.4000;0.7025;-0.0924;
644.7000;0.6960;-0.1114;
645.0000;0.6984;-0.1066;
645.3000;0.6952;-0.1114;
645.6000;0.6943;-0.1042;
645.9000;0.6960;-0.1019;
646.2000;0.6943;-0.0971;
646.5000;0.6911;-0.1066;
646.8000;0.6886;-0.1161;
647.1000;0.6919;-0.1161;
647.4000;0.6911;-0.1185;
647.7000;0.6878;-0.1185;
648.0000;0.6911;-0.1137;
648.3000;0.6895;-0.1232;
648.6000;0.6903;-0.1351;
648.9000;0.6895;-0.1398;
649.2000;0.6886;-0.1351;
649.5000;0.6895;-0.1279;
649.8000;0.6895;-0.1327;
650.1000;0.6870;-0.1351;
650.4000;0.6862;-0.1374;
650.7000;0.6854;-0.1256;
651.0000;0.6870;-0.1327;
651.3000;0.6862;-0.1351;
651.6000;0.6911;-0.1279;
651.9000;0.6854;-0.1469;
652.2000;0.6862;-0.1493;
652.5000;0.6764;-0.1564;
652.8000;0.6846;-0.1351;
653.1000;0.6846;-0.1327;
653.4000;0.6829;-0.1374;
653.7000;0.6813;-0.1351;
654.0000;0.6813;-0.1327;
654.3000;0.6797;-0.1256;
654.6000;0.6821;-0.1256;
654.9000;0.6805;-0.1256;
655.2000;0.6789;-0.1327;
655.5000;0.6862;-0.1137;
655.8000;0.6797;-0.1327;
656.1000;0.6789;-0.1232;
656.4000;0.6805;-0.1161;
656.7000;0.6797;-0.1161;
657.0000;0.6781;-0.1256;
657.3000;0.6805;-0.1161;
657.6000;0.6781;-0.1185;
657.9000;0.6805;-0.1161;
658.2000;0.6829;-0.1208;
658.5000;0.6756;-0.1398;
658.8000;0.6781;-0.1303;
659.1000;0.6846;-0.1185;
659.4000;0.6756;-0.1422;
659.7000;0.6772;-0.1398;
660.0000;0.6716;-0.1469;
660.3000;0.6748;-0.1327;
660.6000;0.6748;-0.1232;
660.9000;0.6764;-0.1232;
661.2000;0.6691;-0.1374;
661.5000;0.6724;-0.1398;
661.8000;0.6610;-0.1564;
662.1000;0.6724;-0.1303;
662.4000;0.6691;-0.1303;
662.7000;0.6699;-0.1256;
663.0000;0.6667;-0.1279;
663.3000;0.6675;-0.1161;
663.6000;0.6707;-0.1090;
663.9000;0.6724;-0.1066;
664.2000;0.6740;-0.1042;
664.5000;0.6699;-0.1279;
664.8000;0.6699;-0.1232;
665.1000;0.6683;-0.1208;
665.4000;0.6716;-0.1185;
665.7000;0.6675;-0.1256;
666.0000;0.6610;-0.1445;
666.3000;0.6626;-0.1493;
666.6000;0.6659;-0.1279;
666.9000;0.6667;-0.1185;
667.2000;0.6659;-0.1256;
667.5000;0.6667;-0.1279;
667.8000;0.6650;-0.1351;
668.1000;0.6650;-0.1279;
668.4000;0.6667;-0.1303;
668.7000;0.6667;-0.1327;
669.0000;0.6659;-0.1232;
669.3000;0.6650;-0.1279;
669.6000;0.6650;-0.1303;
669.9000;0.6642;-0.1351;
670.2000;0.6626;-0.1327;
670.5000;0.6659;-0.1303;
670.8000;0.6577;-0.1540;
671.1000;0.6618;-0.1445;
671.4000;0.6634;-0.1374;
671.7000;0.6634;-0.1422;
672.0000;0.6602;-0.1469;
672.3000;0.6618;-0.1374;
672.6000;0.6602;-0.1374;
672.9000;0.6618;-0.1374;
673.2000;0.6602;-0.1303;
673.5000;0.6602;-0.1279;
673.8000;0.6577;-0.1398;
674.1000;0.6593;-0.1374;
674.4000;0.6610;-0.1398;
674.7000;0.6593;-0.1374;
675.0000;0.6602;-0.1208;
675.3000;0.6593;-0.1208;
675.6000;0.6577;-0.1279;
675.9000;0.6569;-0.1351;
676.2000;0.6569;-0.1327;
676.5000;0.6577;-0.1303;
676.8000;0.6561;-0.1351;
677.1000;0.6536;-0.1445;
677.4000;0.6561;-0.1445;
677.7000;0.6553;-0.1493;
678.0000;0.6577;-0.1374;
678.3000;0.6528;-0.1469;
678.6000;0.6553;-0.1398;
678.9000;0.6553;-0.1445;
679.2000;0.6569;-0.1398;
679.5000;0.6536;-0.1445;
679.8000;0.6545;-0.1445;
680.1000;0.6569;-0.1351;
680.4000;0.6545;-0.1327;
680.7000;0.6528;-0.1256;
681.0000;0.6545;-0.1185;
681.3000;0.6528;-0.1232;
681.6000;0.6528;-0.1279;
681.9000;0.6536;-0.1256;
682.2000;0.6528;-0.1279;
682.5000;0.6528;-0.1256;
682.8000;0.6553;-0.1232;
683.1000;0.6504;-0.1327;
683.4000;0.6488;-0.1398;
683.7000;0.6488;-0.1422;
684.0000;0.6504;-0.1493;
684.3000;0.6512;-0.1398;
684.6000;0.6520;-0.1374;
684.9000;0.6504;-0.1279;
685.2000;0.6504;-0.1303;
685.5000;0.6512;-0.1374;
685.8000;0.6374;-0.1635;
686.1000;0.6479;-0.1327;
686.4000;0.6504;-0.1303;
686.7000;0.6471;-0.1327;
687.0000;0.6455;-0.1351;
687.3000;0.6479;-0.1208;
687.6000;0.6479;-0.1208;
687.9000;0.6512;-0.1185;
688.2000;0.6479;-0.1303;
688.5000;0.6463;-0.1351;
688.8000;0.6455;-0.1351;
689.1000;0.6471;-0.1232;
689.4000;0.6471;-0.1279;
689.7000;0.6463;-0.1374;
690.0000;0.6455;-0.1445;
690.3000;0.6463;-0.1445;
690.6000;0.6455;-0.1445;
690.9000;0.6455;-0.1398;
691.2000;0.6447;-0.1469;
691.5000;0.6439;-0.1493;
691.8000;0.6455;-0.1351;
692.1000;0.6439;-0.1351;
692.4000;0.6422;-0.1469;
692.7000;0.6431;-0.1374;
693.0000;0.6455;-0.1303;
693.3000;0.6447;-0.1256;
693.6000;0.6406;-0.1327;
693.9000;0.6414;-0.1327;
694.2000;0.6398;-0.1422;
694.5000;0.6357;-0.1540;
694.8000;0.6431;-0.1351;
695.1000;0.6422;-0.1398;
695.4000;0.6431;-0.1374;
695.7000;0.6422;-0.1398;
696.0000;0.6431;-0.1422;
696.3000;0.6406;-0.1327;
696.6000;0.6406;-0.1327;
696.9000;0.6414;-0.1303;
697.2000;0.6406;-0.1279;
697.5000;0.6398;-0.1232;
697.8000;0.6390;-0.1232;
698.1000;0.6414;-0.1279;
698.4000;0.6414;-0.1327;
698.7000;0.6398;-0.1327;
699.0000;0.6390;-0.1445;
699.3000;0.6382;-0.1327;
699.6000;0.6374;-0.1374;
699.9000;0.6357;-0.1374;
700.2000;0.6382;-0.1374;
700.5000;0.6365;-0.1327;
700.8000;0.6333;-0.1374;
701.1000;0.6357;-0.1232;
701.4000;0.6365;-0.1208;
701.7000;0.6365;-0.1232;
702.0000;0.6357;-0.1327;
702.3000;0.6374;-0.1303;
702.6000;0.6374;-0.1374;
702.9000;0.6357;-0.1374;
703.2000;0.6365;-0.1422;
703.5000;0.6382;-0.1327;
703.8000;0.6365;-0.1374;
704.1000;0.6349;-0.1445;
704.4000;0.6374;-0.1445;
704.7000;0.6357;-0.1493;
705.0000;0.6357;-0.1516;
705.3000;0.6382;-0.1445;
705.6000;0.6349;-0.1611;
705.9000;0.6349;-0.1564;
706.2000;0.6349;-0.1611;
706.5000;0.6341;-0.1587;
706.8000;0.6341;-0.1493;
707.1000;0.6317;-0.1469;
707.4000;0.6341;-0.1327;
707.7000;0.6341;-0.1232;
708.0000;0.6349;-0.1232;
708.3000;0.6333;-0.1303;
708.6000;0.6325;-0.1327;
708.9000;0.6333;-0.1279;
709.2000;0.6317;-0.1327;
709.5000;0.6325;-0.1327;
709.8000;0.6325;-0.1327;
710.1000;0.6317;-0.1398;
710.4000;0.6309;-0.1351;
710.7000;0.6317;-0.1303;
711.0000;0.6341;-0.1185;
711.3000;0.6317;-0.1256;
711.6000;0.6309;-0.1208;
711.9000;0.6317;-0.1161;
712.2000;0.6309;-0.1090;
712.5000;0.6325;-0.0971;
712.8000;0.6317;-0.1066;
713.1000;0.6292;-0.0995;
713.4000;0.6292;-0.1042;
713.7000;0.6292;-0.1137;
714.0000;0.6292;-0.1137;
714.3000;0.6284;-0.1161;
714.6000;0.6284;-0.1161;
714.9000;0.6284;-0.1279;
715.2000;0.6268;-0.1422;
715.5000;0.6284;-0.1374;
715.8000;0.6260;-0.1445;
716.1000;0.6284;-0.1303;
716.4000;0.6292;-0.1279;
716.7000;0.6260;-0.1232;
717.0000;0.6276;-0.1161;
717.3000;0.6268;-0.1256;
717.6000;0.6260;-0.1256;
717.9000;0.6276;-0.1185;
718.2000;0.6260;-0.1185;
718.5000;0.6252;-0.1232;
718.8000;0.6260;-0.1232;
719.1000;0.6268;-0.1232;
719.4000;0.6260;-0.1256;
719.7000;0.6276;-0.1256;
720.0000;0.6260;-0.1327;
720.3000;0.6235;-0.1351;
720.6000;0.6260;-0.1327;
720.9000;0.6252;-0.1303;
721.2000;0.6292;-0.1232;
721.5000;0.6252;-0.1351;
721.8000;0.6243;-0.1374;
722.1000;0.6243;-0.1351;
722.4000;0.6243;-0.1303;
722.7000;0.6243;-0.1303;
723.0000;0.6227;-0.1303;
723.3000;0.6227;-0.1398;
723.6000;0.6235;-0.1351;
723.9000;0.6260;-0.1303;
724.2000;0.6219;-0.1351;
724.5000;0.6211;-0.1398;
724.8000;0.6235;-0.1327;
725.1000;0.6211;-0.1351;
725.4000;0.6219;-0.1185;
725.7000;0.6219;-0.1090;
726.0000;0.6235;-0.1090;
726.3000;0.6219;-0.1161;
726.6000;0.6219;-0.1114;
726.9000;0.6219;-0.1114;
727.2000;0.6211;-0.1232;
727.5000;0.6227;-0.1137;
727.8000;0.6227;-0.1090;
728.1000;0.6219;-0.1042;
728.4000;0.6276;-0.0924;
728.7000;0.6219;-0.1090;
729.0000;0.6219;-0.1066;
729.3000;0.6219;-0.0995;
729.6000;0.6227;-0.1090;
729.9000;0.6219;-0.1161;
730.2000;0.6211;-0.1161;
730.5000;0.6219;-0.1208;
730.8000;0.6203;-0.1256;
731.1000;0.6195;-0.1303;
731.4000;0.6203;-0.1374;
731.7000;0.6195;-0.1303;
732.0000;0.6203;-0.1351;
732.3000;0.6178;-0.1445;
732.6000;0.6154;-0.1540;
732.9000;0.6170;-0.1493;
733.2000;0.6252;-0.1351;
733.5000;0.6154;-0.1493;
733.8000;0.6178;-0.1327;
734.1000;0.6178;-0.1351;
734.4000;0.6170;-0.1303;
734.7000;0.6178;-0.1256;
735.0000;0.6195;-0.1208;
735.3000;0.6178;-0.1232;
735.6000;0.6195;-0.1256;
735.9000;0.6146;-0.1374;
736.2000;0.6170;-0.1374;
736.5000;0.6162;-0.1303;
736.8000;0.6154;-0.1208;
737.1000;0.6195;-0.1019;
737.4000;0.6154;-0.1161;
737.7000;0.6162;-0.1042;
738.0000;0.6227;-0.0900;
738.3000;0.6162;-0.0995;
738.6000;0.6211;-0.0877;
738.9000;0.6170;-0.0924;
739.2000;0.6170;-0.0948;
739.5000;0.6170;-0.0995;
739.8000;0.6170;-0.1042;
740.1000;0.6178;-0.1066;
740.4000;0.6162;-0.1042;
740.7000;0.6154;-0.1042;
741.0000;0.6138;-0.0948;
741.3000;0.6138;-0.1090;
741.6000;0.6154;-0.1114;
741.9000;0.6186;-0.1090;
742.2000;0.6154;-0.1137;
742.5000;0.6146;-0.1114;
742.8000;0.6154;-0.1090;
743.1000;0.6178;-0.1019;
743.4000;0.6154;-0.1114;
743.7000;0.6121;-0.1090;
744.0000;0.6064;-0.1208;
744.3000;0.6138;-0.1066;
744.6000;0.6146;-0.0995;
744.9000;0.6146;-0.0971;
745.2000;0.6129;-0.0995;
745.5000;0.6146;-0.1042;
745.8000;0.6146;-0.1042;
746.1000;0.6138;-0.1019;
746.4000;0.6146;-0.0971;
746.7000;0.6138;-0.1019;
747.0000;0.6129;-0.1019;
747.3000;0.6138;-0.1042;
747.6000;0.6154;-0.0948;
747.9000;0.6138;-0.0971;
748.2000;0.6121;-0.1019;
748.5000;0.6146;-0.0924;
748.8000;0.6113;-0.0948;
749.1000;0.6113;-0.0948;
749.4000;0.6138;-0.0900;
749.7000;0.6113;-0.0924;
750.0000;0.6105;-0.0971;
750.3000;0.6048;-0.1090;
750.6000;0.6089;-0.0971;
750.9000;0.6121;-0.0948;
751.2000;0.6129;-0.0924;
751.5000;0.6105;-0.0995;
751.8000;0.6105;-0.0971;
752.1000;0.6105;-0.0971;
752.4000;0.6138;-0.0877;
752.7000;0.6097;-0.0971;
753.0000;0.6113;-0.0877;
753.3000;0.6105;-0.0924;
753.6000;0.6105;-0.0924;
753.9000;0.6113;-0.0853;
754.2000;0.6105;-0.0853;
754.5000;0.6105;-0.0853;
754.8000;0.6129;-0.0806;
755.1000;0.6113;-0.0877;
755.4000;0.6081;-0.0971;
755.7000;0.6097;-0.0924;
756.0000;0.6121;-0.0806;
756.3000;0.6105;-0.0900;
756.6000;0.6072;-0.0924;
756.9000;0.6081;-0.0948;
757.2000;0.6089;-0.0853;
757.5000;0.6081;-0.0900;
757.8000;0.6072;-0.0995;
758.1000;0.6089;-0.0995;
758.4000;0.6072;-0.0995;
758.7000;0.6178;-0.0758;
759.0000;0.6081;-0.0971;
759.3000;0.6072;-0.0995;
759.6000;0.6072;-0.1090;
759.9000;0.6081;-0.1042;
760.2000;0.6089;-0.0995;
760.5000;0.6089;-0.0971;
760.8000;0.6081;-0.0948;
761.1000;0.6089;-0.0971;
761.4000;0.6097;-0.0948;
761.7000;0.6081;-0.0900;
762.0000;0.6081;-0.0853;
762.3000;0.6064;-0.0900;
762.6000;0.6081;-0.0806;
762.9000;0.6072;-0.0853;
763.2000;0.6024;-0.0924;
763.5000;0.6072;-0.0829;
763.8000;0.5999;-0.0948;
764.1000;0.6072;-0.0806;
764.4000;0.6064;-0.0853;
764.7000;0.6064;-0.0948;
765.0000;0.6081;-0.0900;
765.3000;0.6056;-0.0971;
765.6000;0.6081;-0.0948;
765.9000;0.6081;-0.1042;
766.2000;0.6129;-0.0900;
766.5000;0.6064;-0.1042;
766.8000;0.6048;-0.1042;
767.1000;0.6064;-0.1042;
767.4000;0.6072;-0.1042;
767.7000;0.6064;-0.0995;
768.0000;0.6040;-0.1042;
768.3000;0.6032;-0.0971;
768.6000;0.6040;-0.0900;
768.9000;0.6056;-0.0877;
769.2000;0.6064;-0.0924;
769.5000;0.6024;-0.1019;
769.8000;0.6007;-0.0948;
770.1000;0.6064;-0.0877;
770.4000;0.6024;-0.0995;
770.7000;0.6072;-0.0948;
771.0000;0.6015;-0.1066;
771.3000;0.6056;-0.0948;
771.6000;0.6032;-0.1114;
771.9000;0.6032;-0.1114;
772.2000;0.6024;-0.1161;
772.5000;0.6048;-0.1185;
772.8000;0.6032;-0.1185;
773.1000;0.6024;-0.1208;
773.4000;0.6056;-0.1114;
773.7000;0.6032;-0.1137;
774.0000;0.6048;-0.1114;
774.3000;0.6024;-0.1114;
774.6000;0.6040;-0.1114;
774.9000;0.6007;-0.1208;
775.2000;0.6024;-0.1185;
775.5000;0.6024;-0.1185;
775.8000;0.6007;-0.1161;
776.1000;0.6007;-0.1066;
776.4000;0.6024;-0.1019;
776.7000;0.6007;-0.1042;
777.0000;0.5999;-0.0995;
777.3000;0.5967;-0.1114;
777.6000;0.6024;-0.1019;
777.9000;0.5983;-0.1066;
778.2000;0.6007;-0.1114;
778.5000;0.6015;-0.1066;
778.8000;0.6056;-0.0877;
779.1000;0.6015;-0.0877;
779.4000;0.5999;-0.0877;
779.7000;0.5999;-0.0877;
780.0000;0.6024;-0.0829;
780.3000;0.6015;-0.0829;
780.6000;0.6024;-0.0806;
780.9000;0.5999;-0.0853;
781.2000;0.5991;-0.0948;
781.5000;0.5999;-0.0995;
781.8000;0.6007;-0.1042;
782.1000;0.6007;-0.0995;
782.4000;0.6007;-0.0971;
782.7000;0.5983;-0.0948;
783.0000;0.6032;-0.0853;
783.3000;0.6007;-0.0924;
783.6000;0.6015;-0.0924;
783.9000;0.5991;-0.0924;
784.2000;0.6024;-0.0900;
784.5000;0.6015;-0.0924;
784.8000;0.6007;-0.0900;
785.1000;0.6081;-0.0758;
785.4000;0.5991;-0.0924;
785.7000;0.6024;-0.0853;
786.0000;0.5999;-0.0924;
786.3000;0.5991;-0.0924;
786.6000;0.5991;-0.0948;
786.9000;0.5999;-0.0924;
787.2000;0.5999;-0.0829;
787.5000;0.5999;-0.0782;
787.8000;0.6064;-0.0711;
788.1000;0.6007;-0.0900;
788.4000;0.5983;-0.0924;
788.7000;0.5991;-0.0948;
789.0000;0.5999;-0.0995;
789.3000;0.6007;-0.0995;
789.6000;0.5975;-0.1042;
789.9000;0.5975;-0.1042;
790.2000;0.5975;-0.0995;
790.5000;0.5991;-0.0971;
790.8000;0.5999;-0.0995;
791.1000;0.5999;-0.0995;
791.4000;0.5934;-0.1137;
791.7000;0.5975;-0.1019;
792.0000;0.5975;-0.0924;
792.3000;0.5975;-0.0829;
792.6000;0.5975;-0.0877;
792.9000;0.5958;-0.0924;
793.2000;0.5991;-0.0924;
793.5000;0.5967;-0.0924;
793.8000;0.5975;-0.0806;
794.1000;0.5975;-0.0877;
794.4000;0.5934;-0.0995;
794.7000;0.5975;-0.0924;
795.0000;0.5950;-0.0995;
795.3000;0.5950;-0.0971;
795.6000;0.5958;-0.0900;
795.9000;0.5991;-0.0900;
796.2000;0.5967;-0.0853;
796.5000;0.5967;-0.0782;
796.8000;0.5991;-0.0806;
797.1000;0.5967;-0.0853;
797.4000;0.5967;-0.0900;
797.7000;0.5967;-0.0924;
798.0000;0.5975;-0.0971;
798.3000;0.5942;-0.0971;
798.6000;0.5910;-0.1090;
798.9000;0.5958;-0.1019;
799.2000;0.5942;-0.1019;
799.5000;0.5950;-0.0948;
799.8000;0.5942;-0.0971;
800.1000;0.5975;-0.0829;
800.4000;0.5934;-0.0948;
800.7000;0.5942;-0.1019;
801.0000;0.5934;-0.0877;
801.3000;0.5918;-0.0758;
801.6000;0.5942;-0.0663;
801.9000;0.5942;-0.0711;
802.2000;0.5958;-0.0640;
802.5000;0.5950;-0.0592;
802.8000;0.5934;-0.0663;
803.1000;0.5950;-0.0616;
803.4000;0.5967;-0.0640;
803.7000;0.5950;-0.0663;
804.0000;0.5918;-0.0734;
804.3000;0.5934;-0.0640;
804.6000;0.5942;-0.0711;
804.9000;0.5918;-0.0663;
805.2000;0.5934;-0.0687;
805.5000;0.5926;-0.0734;
805.8000;0.5926;-0.0711;
806.1000;0.5918;-0.0782;
806.4000;0.5934;-0.0711;
806.7000;0.5918;-0.0687;
807.0000;0.5934;-0.0640;
807.3000;0.5942;-0.0734;
807.6000;0.5934;-0.0663;
807.9000;0.5942;-0.0734;
808.2000;0.5934;-0.0734;
808.5000;0.5975;-0.0616;
808.8000;0.5942;-0.0782;
809.1000;0.5942;-0.0663;
809.4000;0.5942;-0.0758;
809.7000;0.5958;-0.0853;
810.0000;0.5926;-0.0948;
810.3000;0.5910;-0.0948;
810.6000;0.5926;-0.0900;
810.9000;0.5934;-0.0900;
811.2000;0.5926;-0.0900;
811.5000;0.5918;-0.0924;
811.8000;0.5926;-0.0829;
812.1000;0.5926;-0.0782;
812.4000;0.5918;-0.0663;
812.7000;0.5934;-0.0734;
813.0000;0.5958;-0.0569;
813.3000;0.5958;-0.0616;
813.6000;0.5934;-0.0687;
813.9000;0.5926;-0.0829;
814.2000;0.5893;-0.0924;
814.5000;0.5910;-0.0853;
814.8000;0.5845;-0.0877;
815.1000;0.5885;-0.0806;
815.4000;0.5918;-0.0711;
815.7000;0.5893;-0.0758;
816.0000;0.5918;-0.0711;
816.3000;0.5910;-0.0758;
816.6000;0.5893;-0.0853;
816.9000;0.5926;-0.0687;
817.2000;0.5893;-0.0640;
817.5000;0.5910;-0.0616;
817.8000;0.5918;-0.0663;
818.1000;0.5910;-0.0711;
818.4000;0.5910;-0.0734;
818.7000;0.5918;-0.0640;
819.0000;0.5918;-0.0545;
819.3000;0.5902;-0.0640;
819.6000;0.5926;-0.0569;
819.9000;0.5926;-0.0663;
820.2000;0.5934;-0.0663;
820.5000;0.5902;-0.0711;
820.8000;0.5893;-0.0640;
821.1000;0.5934;-0.0569;
821.4000;0.5934;-0.0616;
821.7000;0.5902;-0.0663;
822.0000;0.5885;-0.0734;
822.3000;0.5877;-0.0758;
822.6000;0.5910;-0.0663;
822.9000;0.5902;-0.0687;
823.2000;0.5958;-0.0545;
823.5000;0.5812;-0.0853;
823.8000;0.5885;-0.0687;
824.1000;0.5902;-0.0711;
824.4000;0.5893;-0.0711;
824.7000;0.5885;-0.0711;
825.0000;0.5902;-0.0711;
825.3000;0.5902;-0.0711;
825.6000;0.5910;-0.0711;
825.9000;0.5869;-0.0687;
826.2000;0.5885;-0.0640;
826.5000;0.5893;-0.0663;
826.8000;0.5893;-0.0640;
827.1000;0.5934;-0.0640;
827.4000;0.5902;-0.0687;
827.7000;0.5885;-0.0734;
828.0000;0.5918;-0.0711;
828.3000;0.5885;-0.0758;
828.6000;0.5893;-0.0758;
828.9000;0.5893;-0.0829;
829.2000;0.5885;-0.0782;
829.5000;0.5836;-0.0924;
829.8000;0.5893;-0.0734;
830.1000;0.5877;-0.0687;
830.4000;0.5893;-0.0592;
830.7000;0.5893;-0.0569;
831.0000;0.5885;-0.0498;
831.3000;0.5869;-0.0592;
831.6000;0.5877;-0.0592;
831.9000;0.5885;-0.0663;
832.2000;0.5877;-0.0663;
832.5000;0.5869;-0.0734;
832.8000;0.5877;-0.0663;
833.1000;0.5942;-0.0521;
833.4000;0.5869;-0.0758;
833.7000;0.5869;-0.0663;
834.0000;0.5893;-0.0616;
834.3000;0.5902;-0.0758;
834.6000;0.5885;-0.0829;
834.9000;0.5877;-0.0900;
835.2000;0.5853;-0.0948;
835.5000;0.5877;-0.0900;
835.8000;0.5845;-0.0877;
836.1000;0.5893;-0.0687;
836.4000;0.5788;-0.0877;
836.7000;0.5877;-0.0687;
837.0000;0.5877;-0.0758;
837.3000;0.5869;-0.0782;
837.6000;0.5861;-0.0853;
837.9000;0.5869;-0.0734;
838.2000;0.5893;-0.0663;
838.5000;0.5967;-0.0545;
838.8000;0.5853;-0.0758;
839.1000;0.5861;-0.0734;
839.4000;0.5869;-0.0687;
839.7000;0.5853;-0.0663;
840.0000;0.5861;-0.0711;
840.3000;0.5869;-0.0711;
840.6000;0.5828;-0.0829;
840.9000;0.5885;-0.0687;
841.2000;0.5845;-0.0758;
841.5000;0.5853;-0.0711;
841.8000;0.5845;-0.0711;
842.1000;0.5853;-0.0782;
842.4000;0.5845;-0.0853;
842.7000;0.5836;-0.0877;
843.0000;0.5853;-0.0829;
843.3000;0.5820;-0.0877;
843.6000;0.5877;-0.0782;
843.9000;0.5845;-0.0829;
844.2000;0.5853;-0.0806;
844.5000;0.5845;-0.0758;
844.8000;0.5893;-0.0592;
845.1000;0.5836;-0.0734;
845.4000;0.5853;-0.0663;
845.7000;0.5853;-0.0592;
846.0000;0.5853;-0.0545;
846.3000;0.5861;-0.0498;
846.6000;0.5853;-0.0474;
846.9000;0.5836;-0.0498;
847.2000;0.5853;-0.0450;
847.5000;0.5779;-0.0711;
847.8000;0.5861;-0.0640;
848.1000;0.5845;-0.0711;
848.4000;0.5845;-0.0758;
848.7000;0.5861;-0.0687;
849.0000;0.5845;-0.0687;
849.3000;0.5788;-0.0877;
849.6000;0.5836;-0.0782;
849.9000;0.5812;-0.0877;
850.2000;0.5845;-0.0782;
850.5000;0.5836;-0.0758;
850.8000;0.5853;-0.0782;
851.1000;0.5861;-0.0734;
851.4000;0.5812;-0.0711;
851.7000;0.5861;-0.0569;
852.0000;0.5845;-0.0474;
852.3000;0.5861;-0.0426;
852.6000;0.5836;-0.0521;
852.9000;0.5828;-0.0663;
853.2000;0.5836;-0.0711;
853.5000;0.5836;-0.0711;
853.8000;0.5836;-0.0663;
854.1000;0.5812;-0.0687;
854.4000;0.5820;-0.0687;
854.7000;0.5820;-0.0640;
855.0000;0.5869;-0.0616;
855.3000;0.5845;-0.0616;
855.6000;0.5853;-0.0521;
855.9000;0.5853;-0.0474;
856.2000;0.5869;-0.0474;
856.5000;0.5820;-0.0545;
856.8000;0.5845;-0.0521;
857.1000;0.5812;-0.0498;
857.4000;0.5853;-0.0403;
857.7000;0.5820;-0.0545;
858.0000;0.5836;-0.0569;
858.3000;0.5845;-0.0521;
858.6000;0.5836;-0.0521;
858.9000;0.5812;-0.0521;
859.2000;0.5836;-0.0474;
859.5000;0.5836;-0.0498;
859.8000;0.5845;-0.0498;
860.1000;0.5812;-0.0521;
860.4000;0.5828;-0.0355;
860.7000;0.5812;-0.0450;
861.0000;0.5845;-0.0379;
861.3000;0.5836;-0.0379;
861.6000;0.5828;-0.0403;
861.9000;0.5820;-0.0403;
862.2000;0.5828;-0.0308;
862.5000;0.5836;-0.0355;
862.8000;0.5828;-0.0426;
863.1000;0.5820;-0.0545;
863.4000;0.5820;-0.0616;
863.7000;0.5820;-0.0569;
864.0000;0.5820;-0.0521;
864.3000;0.5812;-0.0498;
864.6000;0.5804;-0.0450;
864.9000;0.5820;-0.0426;
865.2000;0.5820;-0.0426;
865.5000;0.5804;-0.0450;
865.8000;0.5812;-0.0355;
866.1000;0.5828;-0.0237;
866.4000;0.5820;-0.0308;
866.7000;0.5845;-0.0308;
867.0000;0.5828;-0.0355;
867.3000;0.5812;-0.0355;
867.6000;0.5812;-0.0284;
867.9000;0.5804;-0.0284;
868.2000;0.5861;-0.0213;
868.5000;0.5804;-0.0426;
868.8000;0.5828;-0.0379;
869.1000;0.5828;-0.0355;
869.4000;0.5812;-0.0450;
869.7000;0.5836;-0.0355;
870.0000;0.5820;-0.0332;
870.3000;0.5812;-0.0379;
870.6000;0.5853;-0.0142;
870.9000;0.5804;-0.0308;
871.2000;0.5812;-0.0213;
871.5000;0.5828;-0.0237;
871.8000;0.5812;-0.0379;
872.1000;0.5796;-0.0379;
872.4000;0.5804;-0.0355;
872.7000;0.5804;-0.0403;
873.0000;0.5788;-0.0474;
873.3000;0.5869;-0.0237;
873.6000;0.5812;-0.0450;
873.9000;0.5804;-0.0450;
874.2000;0.5804;-0.0498;
874.5000;0.5804;-0.0474;
874.8000;0.5788;-0.0403;
875.1000;0.5788;-0.0332;
875.4000;0.5804;-0.0355;
875.7000;0.5836;-0.0308;
876.0000;0.5731;-0.0616;
876.3000;0.5796;-0.0498;
876.6000;0.5812;-0.0426;
876.9000;0.5812;-0.0379;
877.2000;0.5812;-0.0379;
877.5000;0.5796;-0.0403;
877.8000;0.5812;-0.0379;
878.1000;0.5812;-0.0308;
878.4000;0.5788;-0.0355;
878.7000;0.5804;-0.0379;
879.0000;0.5804;-0.0426;
879.3000;0.5820;-0.0426;
879.6000;0.5796;-0.0450;
879.9000;0.5771;-0.0521;
880.2000;0.5812;-0.0355;
880.5000;0.5820;-0.0403;
880.8000;0.5812;-0.0426;
881.1000;0.5804;-0.0474;
881.4000;0.5804;-0.0426;
881.7000;0.5812;-0.0332;
882.0000;0.5812;-0.0355;
882.3000;0.5812;-0.0403;
882.6000;0.5804;-0.0284;
882.9000;0.5796;-0.0332;
883.2000;0.5804;-0.0237;
883.5000;0.5836;-0.0261;
883.8000;0.5796;-0.0426;
884.1000;0.5796;-0.0521;
884.4000;0.5812;-0.0498;
884.7000;0.5788;-0.0474;
885.0000;0.5812;-0.0403;
885.3000;0.5771;-0.0403;
885.6000;0.5804;-0.0379;
885.9000;0.5788;-0.0332;
886.2000;0.5771;-0.0308;
886.5000;0.5796;-0.0213;
886.8000;0.5796;-0.0118;
887.1000;0.5836;0.0000;
887.4000;0.5836;-0.0024;
887.7000;0.5812;-0.0190;
888.0000;0.5779;-0.0166;
888.3000;0.5779;-0.0118;
888.6000;0.5788;-0.0142;
888.9000;0.5779;-0.0213;
889.2000;0.5779;-0.0355;
889.5000;0.5788;-0.0403;
889.8000;0.5731;-0.0498;
890.1000;0.5788;-0.0355;
890.4000;0.5747;-0.0569;
890.7000;0.5820;-0.0498;
891.0000;0.5779;-0.0521;
891.3000;0.5804;-0.0474;
891.6000;0.5812;-0.0474;
891.9000;0.5779;-0.0498;
892.2000;0.5788;-0.0498;
892.5000;0.5722;-0.0663;
892.8000;0.5771;-0.0521;
893.1000;0.5804;-0.0474;
893.4000;0.5788;-0.0663;
893.7000;0.5812;-0.0640;
894.0000;0.5869;-0.0379;
894.3000;0.5796;-0.0545;
894.6000;0.5796;-0.0521;
894.9000;0.5796;-0.0403;
895.2000;0.5788;-0.0403;
895.5000;0.5796;-0.0474;
895.8000;0.5788;-0.0426;
896.1000;0.5788;-0.0498;
896.4000;0.5796;-0.0332;
896.7000;0.5771;-0.0426;
897.0000;0.5779;-0.0403;
897.3000;0.5788;-0.0474;
897.6000;0.5779;-0.0521;
897.9000;0.5731;-0.0616;
898.2000;0.5763;-0.0592;
898.5000;0.5779;-0.0498;
898.8000;0.5779;-0.0474;
899.1000;0.5771;-0.0498;
899.4000;0.5763;-0.0498;
899.7000;0.5788;-0.0450;
900.0000;0.5788;-0.0379;
900.3000;0.5763;-0.0355;
900.6000;0.5763;-0.0403;
900.9000;0.5771;-0.0355;
901.2000;0.5771;-0.0379;
901.5000;0.5755;-0.0379;
901.8000;0.5755;-0.0379;
902.1000;0.5771;-0.0379;
902.4000;0.5779;-0.0308;
902.7000;0.5796;-0.0284;
903.0000;0.5755;-0.0498;
903.3000;0.5771;-0.0498;
903.6000;0.5771;-0.0474;
903.9000;0.5779;-0.0403;
904.2000;0.5763;-0.0426;
904.5000;0.5771;-0.0332;
904.8000;0.5755;-0.0332;
905.1000;0.5755;-0.0284;
905.4000;0.5788;-0.0213;
905.7000;0.5779;-0.0284;
906.0000;0.5771;-0.0261;
906.3000;0.5771;-0.0284;
906.6000;0.5771;-0.0308;
906.9000;0.5722;-0.0498;
907.2000;0.5698;-0.0521;
907.5000;0.5747;-0.0498;
907.8000;0.5739;-0.0521;
908.1000;0.5771;-0.0521;
908.4000;0.5706;-0.0616;
908.7000;0.5755;-0.0426;
909.0000;0.5771;-0.0403;
909.3000;0.5747;-0.0403;
909.6000;0.5731;-0.0474;
909.9000;0.5763;-0.0450;
910.2000;0.5763;-0.0450;
910.5000;0.5739;-0.0592;
910.8000;0.5747;-0.0592;
911.1000;0.5747;-0.0498;
911.4000;0.5779;-0.0474;
911.7000;0.5706;-0.0687;
912.0000;0.5739;-0.0592;
912.3000;0.5755;-0.0474;
912.6000;0.5722;-0.0521;
912.9000;0.5755;-0.0379;
913.2000;0.5755;-0.0284;
913.5000;0.5755;-0.0284;
913.8000;0.5731;-0.0308;
914.1000;0.5779;-0.0284;
914.4000;0.5771;-0.0332;
914.7000;0.5755;-0.0332;
915.0000;0.5763;-0.0308;
915.3000;0.5828;-0.0166;
915.6000;0.5755;-0.0355;
915.9000;0.5755;-0.0332;
916.2000;0.5796;-0.0166;
916.5000;0.5763;-0.0355;
916.8000;0.5804;-0.0332;
917.1000;0.5771;-0.0450;
917.4000;0.5722;-0.0592;
917.7000;0.5771;-0.0450;
918.0000;0.5747;-0.0498;
918.3000;0.5763;-0.0521;
918.6000;0.5755;-0.0569;
918.9000;0.5747;-0.0498;
919.2000;0.5779;-0.0426;
919.5000;0.5755;-0.0426;
919.8000;0.5674;-0.0592;
920.1000;0.5755;-0.0379;
920.4000;0.5763;-0.0308;
920.7000;0.5747;-0.0426;
921.0000;0.5779;-0.0355;
921.3000;0.5722;-0.0545;
921.6000;0.5747;-0.0474;
921.9000;0.5739;-0.0521;
922.2000;0.5731;-0.0450;
922.5000;0.5731;-0.0450;
922.8000;0.5747;-0.0355;
923.1000;0.5714;-0.0450;
923.4000;0.5722;-0.0450;
923.7000;0.5739;-0.0474;
924.0000;0.5739;-0.0545;
924.3000;0.5747;-0.0569;
924.6000;0.5747;-0.0521;
924.9000;0.5747;-0.0474;
925.2000;0.5739;-0.0379;
925.5000;0.5739;-0.0355;
925.8000;0.5739;-0.0379;
926.1000;0.5763;-0.0379;
926.4000;0.5739;-0.0426;
926.7000;0.5747;-0.0379;
927.0000;0.5763;-0.0355;
927.3000;0.5763;-0.0426;
927.6000;0.5755;-0.0403;
927.9000;0.5731;-0.0474;
928.2000;0.5747;-0.0403;
928.5000;0.5731;-0.0450;
928.8000;0.5747;-0.0498;
929.1000;0.5763;-0.0569;
929.4000;0.5779;-0.0521;
929.7000;0.5771;-0.0592;
930.0000;0.5690;-0.0734;
930.3000;0.5739;-0.0592;
930.6000;0.5747;-0.0474;
930.9000;0.5722;-0.0474;
931.2000;0.5755;-0.0403;
931.5000;0.5714;-0.0521;
931.8000;0.5739;-0.0426;
932.1000;0.5755;-0.0521;
932.4000;0.5771;-0.0474;
932.7000;0.5722;-0.0687;
933.0000;0.5714;-0.0711;
933.3000;0.5739;-0.0758;
933.6000;0.5682;-0.0829;
933.9000;0.5714;-0.0616;
934.2000;0.5731;-0.0569;
934.5000;0.5731;-0.0521;
934.8000;0.5747;-0.0474;
935.1000;0.5739;-0.0498;
935.4000;0.5698;-0.0545;
935.7000;0.5739;-0.0403;
936.0000;0.5739;-0.0403;
936.3000;0.5722;-0.0545;
936.6000;0.5722;-0.0545;
936.9000;0.5747;-0.0426;
937.2000;0.5739;-0.0474;
937.5000;0.5731;-0.0569;
937.8000;0.5731;-0.0640;
938.1000;0.5739;-0.0663;
938.4000;0.5722;-0.0616;
938.7000;0.5747;-0.0569;
939.0000;0.5731;-0.0640;
939.3000;0.5722;-0.0663;
939.6000;0.5747;-0.0734;
939.9000;0.5731;-0.0711;
940.2000;0.5739;-0.0616;
940.5000;0.5722;-0.0687;
940.8000;0.5722;-0.0711;
941.1000;0.5731;-0.0687;
941.4000;0.5722;-0.0592;
941.7000;0.5731;-0.0663;
942.0000;0.5755;-0.0569;
942.3000;0.5747;-0.0592;
942.6000;0.5731;-0.0640;
942.9000;0.5731;-0.0640;
943.2000;0.5722;-0.0592;
943.5000;0.5739;-0.0592;
943.8000;0.5657;-0.0853;
944.1000;0.5722;-0.0569;
944.4000;0.5731;-0.0592;
944.7000;0.5722;-0.0592;
945.0000;0.5755;-0.0498;
945.3000;0.5722;-0.0616;
945.6000;0.5714;-0.0711;
945.9000;0.5763;-0.0545;
946.2000;0.5731;-0.0545;
946.5000;0.5747;-0.0592;
946.8000;0.5714;-0.0734;
947.1000;0.5714;-0.0758;
947.4000;0.5722;-0.0687;
947.7000;0.5706;-0.0687;
948.0000;0.5722;-0.0545;
948.3000;0.5722;-0.0545;
948.6000;0.5739;-0.0498;
948.9000;0.5714;-0.0545;
949.2000;0.5714;-0.0592;
949.5000;0.5714;-0.0545;
949.8000;0.5731;-0.0450;
950.1000;0.5731;-0.0403;
950.4000;0.5731;-0.0498;
950.7000;0.5731;-0.0521;
951.0000;0.5722;-0.0569;
951.3000;0.5722;-0.0616;
951.6000;0.5722;-0.0592;
951.9000;0.5714;-0.0592;
952.2000;0.5755;-0.0545;
952.5000;0.5739;-0.0663;
952.8000;0.5731;-0.0663;
953.1000;0.5706;-0.0616;
953.4000;0.5706;-0.0569;
953.7000;0.5722;-0.0521;
954.0000;0.5722;-0.0521;
954.3000;0.5665;-0.0640;
954.6000;0.5706;-0.0545;
954.9000;0.5714;-0.0569;
955.2000;0.5706;-0.0592;
955.5000;0.5698;-0.0640;
955.8000;0.5722;-0.0711;
956.1000;0.5706;-0.0640;
956.4000;0.5714;-0.0616;
956.7000;0.5706;-0.0663;
957.0000;0.5641;-0.0782;
957.3000;0.5698;-0.0545;
957.6000;0.5698;-0.0474;
957.9000;0.5706;-0.0474;
958.2000;0.5698;-0.0498;
958.5000;0.5690;-0.0474;
958.8000;0.5722;-0.0474;
959.1000;0.5698;-0.0498;
959.4000;0.5682;-0.0521;
959.7000;0.5698;-0.0569;
960.0000;0.5731;-0.0498;
960.3000;0.5731;-0.0521;
960.6000;0.5706;-0.0498;
960.9000;0.5722;-0.0498;
961.2000;0.5698;-0.0592;
961.5000;0.5690;-0.0640;
961.8000;0.5722;-0.0592;
962.1000;0.5690;-0.0663;
962.4000;0.5698;-0.0687;
962.7000;0.5706;-0.0663;
963.0000;0.5714;-0.0663;
963.3000;0.5714;-0.0687;
963.6000;0.5706;-0.0521;
963.9000;0.5706;-0.0545;
964.2000;0.5690;-0.0640;
964.5000;0.5690;-0.0545;
964.8000;0.5722;-0.0450;
965.1000;0.5665;-0.0545;
965.4000;0.5706;-0.0474;
965.7000;0.5714;-0.0545;
966.0000;0.5714;-0.0545;
966.3000;0.5714;-0.0569;
966.6000;0.5722;-0.0616;
966.9000;0.5641;-0.0829;
967.2000;0.5706;-0.0687;
967.5000;0.5698;-0.0616;
967.8000;0.5706;-0.0569;
968.1000;0.5747;-0.0545;
968.4000;0.5674;-0.0687;
968.7000;0.5690;-0.0687;
969.0000;0.5706;-0.0616;
969.3000;0.5706;-0.0498;
969.6000;0.5690;-0.0498;
969.9000;0.5665;-0.0687;
970.2000;0.5690;-0.0663;
970.5000;0.5698;-0.0616;
970.8000;0.5698;-0.0711;
971.1000;0.5690;-0.0687;
971.4000;0.5706;-0.0687;
971.7000;0.5698;-0.0663;
972.0000;0.5690;-0.0616;
972.3000;0.5690;-0.0498;
972.6000;0.5690;-0.0498;
972.9000;0.5714;-0.0498;
973.2000;0.5706;-0.0687;
973.5000;0.5682;-0.0663;
973.8000;0.5706;-0.0569;
974.1000;0.5698;-0.0474;
974.4000;0.5698;-0.0569;
974.7000;0.5649;-0.0616;
975.0000;0.5690;-0.0521;
975.3000;0.5698;-0.0498;
975.6000;0.5706;-0.0379;
975.9000;0.5706;-0.0426;
976.2000;0.5722;-0.0426;
976.5000;0.5722;-0.0450;
976.8000;0.5706;-0.0474;
977.1000;0.5690;-0.0474;
977.4000;0.5698;-0.0426;
977.7000;0.5690;-0.0426;
978.0000;0.5714;-0.0332;
978.3000;0.5714;-0.0284;
978.6000;0.5706;-0.0379;
978.9000;0.5690;-0.0355;
979.2000;0.5706;-0.0284;
979.5000;0.5690;-0.0379;
979.8000;0.5682;-0.0403;
980.1000;0.5690;-0.0379;
980.4000;0.5698;-0.0403;
980.7000;0.5698;-0.0332;
981.0000;0.5706;-0.0261;
981.3000;0.5706;-0.0237;
981.6000;0.5690;-0.0237;
981.9000;0.5674;-0.0261;
982.2000;0.5698;-0.0237;
982.5000;0.5665;-0.0379;
982.8000;0.5690;-0.0355;
983.1000;0.5714;-0.0332;
983.4000;0.5690;-0.0403;
983.7000;0.5698;-0.0355;
984.0000;0.5674;-0.0379;
984.3000;0.5657;-0.0426;
984.6000;0.5698;-0.0403;
984.9000;0.5690;-0.0403;
985.2000;0.5657;-0.0450;
985.5000;0.5682;-0.0308;
985.8000;0.5706;-0.0142;
986.1000;0.5674;-0.0261;
986.4000;0.5649;-0.0308;
986.7000;0.5722;-0.0166;
987.0000;0.5674;-0.0237;
987.3000;0.5698;-0.0190;
987.6000;0.5698;-0.0261;
987.9000;0.5690;-0.0403;
988.2000;0.5706;-0.0355;
988.5000;0.5682;-0.0403;
988.8000;0.5706;-0.0379;
989.1000;0.5763;-0.0166;
989.4000;0.5706;-0.0355;
989.7000;0.5779;-0.0213;
990.0000;0.5698;-0.0426;
990.3000;0.5682;-0.0521;
990.6000;0.5674;-0.0545;
990.9000;0.5706;-0.0521;
991.2000;0.5698;-0.0521;
991.5000;0.5674;-0.0450;
991.8000;0.5722;-0.0284;
992.1000;0.5682;-0.0237;
992.4000;0.5682;-0.0166;
992.7000;0.5698;-0.0118;
993.0000;0.5657;-0.0190;
993.3000;0.5674;-0.0261;
993.6000;0.5682;-0.0308;
993.9000;0.5682;-0.0332;
994.2000;0.5665;-0.0403;
994.5000;0.5682;-0.0498;
994.8000;0.5657;-0.0545;
995.1000;0.5698;-0.0474;
995.4000;0.5665;-0.0474;
995.7000;0.5674;-0.0355;
996.0000;0.5674;-0.0379;
996.3000;0.5649;-0.0403;
996.6000;0.5665;-0.0379;
996.9000;0.5674;-0.0379;
997.2000;0.5665;-0.0355;
997.5000;0.5665;-0.0355;
997.8000;0.5674;-0.0284;
998.1000;0.5657;-0.0332;
998.4000;0.5674;-0.0213;
998.7000;0.5682;-0.0213;
999.0000;0.5674;-0.0261;
999.3000;0.5690;-0.0190;
999.6000;0.5674;-0.0118;
999.9000;0.5682;-0.0071;
1000.2000;0.5641;-0.0166;
1000.5000;0.5674;-0.0047;
1000.8000;0.5674;-0.0071;
1001.1000;0.5682;-0.0071;
1001.4000;0.5682;-0.0166;
1001.7000;0.5625;-0.0308;
1002.0000;0.5682;-0.0237;
1002.3000;0.5698;-0.0213;
1002.6000;0.5682;-0.0284;
1002.9000;0.5665;-0.0190;
1003.2000;0.5665;-0.0142;
1003.5000;0.5706;-0.0118;
1003.8000;0.5682;-0.0190;
1004.1000;0.5674;-0.0190;
1004.4000;0.5690;-0.0118;
1004.7000;0.5674;0.0000;
1005.0000;0.5690;0.0142;
1005.3000;0.5674;0.0047;
1005.6000;0.5714;0.0071;
1005.9000;0.5665;-0.0071;
1006.2000;0.5641;-0.0213;
1006.5000;0.5608;-0.0403;
1006.8000;0.5665;-0.0308;
1007.1000;0.5706;-0.0237;
1007.4000;0.5665;-0.0237;
1007.7000;0.5674;-0.0166;
1008.0000;0.5674;-0.0190;
1008.3000;0.5674;-0.0047;
1008.6000;0.5674;-0.0071;
1008.9000;0.5674;-0.0047;
1009.2000;0.5665;-0.0071;
1009.5000;0.5657;-0.0095;
1009.8000;0.5657;-0.0071;
1010.1000;0.5682;-0.0047;
1010.4000;0.5690;-0.0047;
1010.7000;0.5665;-0.0047;
1011.0000;0.5665;-0.0024;
1011.3000;0.5657;-0.0095;
1011.6000;0.5649;-0.0095;
1011.9000;0.5690;0.0024;
1012.2000;0.5682;-0.0071;
1012.5000;0.5682;-0.0047;
1012.8000;0.5674;-0.0095;
1013.1000;0.5682;-0.0213;
1013.4000;0.5665;-0.0284;
1013.7000;0.5690;-0.0166;
1014.0000;0.5657;-0.0261;
1014.3000;0.5690;-0.0213;
1014.6000;0.5674;-0.0261;
1014.9000;0.5674;-0.0261;
1015.2000;0.5690;-0.0213;
1015.5000;0.5674;-0.0261;
1015.8000;0.5641;-0.0403;
1016.1000;0.5649;-0.0355;
1016.4000;0.5665;-0.0284;
1016.7000;0.5665;-0.0284;
1017.0000;0.5657;-0.0213;
1017.3000;0.5641;-0.0261;
1017.6000;0.5649;-0.0237;
1017.9000;0.5690;-0.0213;
1018.2000;0.5649;-0.0213;
1018.5000;0.5649;-0.0237;
1018.8000;0.5674;-0.0284;
1019.1000;0.5665;-0.0308;
1019.4000;0.5665;-0.0332;
1019.7000;0.5665;-0.0332;
1020.0000;0.5698;-0.0308;
1020.3000;0.5682;-0.0332;
1020.6000;0.5690;-0.0403;
1020.9000;0.5641;-0.0474;
1021.2000;0.5641;-0.0426;
1021.5000;0.5649;-0.0403;
1021.8000;0.5665;-0.0332;
1022.1000;0.5633;-0.0355;
1022.4000;0.5649;-0.0308;
1022.7000;0.5665;-0.0308;
1023.0000;0.5617;-0.0379;
1023.3000;0.5625;-0.0379;
1023.6000;0.5682;-0.0190;
1023.9000;0.5665;-0.0284;
1024.2000;0.5706;-0.0190;
1024.5000;0.5665;-0.0332;
1024.8000;0.5657;-0.0261;
1025.1000;0.5682;-0.0190;
1025.4000;0.5625;-0.0284;
1025.7000;0.5649;-0.0213;
1026.0000;0.5665;-0.0284;
1026.3000;0.5674;-0.0284;
1026.6000;0.5665;-0.0355;
1026.9000;0.5698;-0.0284;
1027.2000;0.5657;-0.0379;
1027.5000;0.5641;-0.0403;
1027.8000;0.5690;-0.0355;
1028.1000;0.5657;-0.0426;
1028.4000;0.5665;-0.0450;
1028.7000;0.5625;-0.0450;
1029.0000;0.5649;-0.0379;
1029.3000;0.5657;-0.0379;
1029.6000;0.5665;-0.0379;
1029.9000;0.5649;-0.0379;
1030.2000;0.5625;-0.0379;
1030.5000;0.5633;-0.0332;
1030.8000;0.5657;-0.0237;
1031.1000;0.5665;-0.0261;
1031.4000;0.5633;-0.0237;
1031.7000;0.5657;-0.0166;
1032.0000;0.5657;-0.0190;
1032.3000;0.5674;-0.0166;
1032.6000;0.5657;-0.0213;
1032.9000;0.5665;-0.0213;
1033.2000;0.5657;-0.0213;
1033.5000;0.5649;-0.0261;
1033.8000;0.5657;-0.0332;
1034.1000;0.5657;-0.0308;
1034.4000;0.5649;-0.0308;
1034.7000;0.5657;-0.0237;
1035.0000;0.5657;-0.0261;
1035.3000;0.5657;-0.0213;
1035.6000;0.5649;-0.0237;
1035.9000;0.5649;-0.0213;
1036.2000;0.5665;-0.0237;
1036.5000;0.5665;-0.0261;
1036.8000;0.5649;-0.0284;
1037.1000;0.5665;-0.0237;
1037.4000;0.5682;-0.0142;
1037.7000;0.5633;-0.0261;
1038.0000;0.5649;-0.0237;
1038.3000;0.5641;-0.0261;
1038.6000;0.5649;-0.0284;
1038.9000;0.5641;-0.0308;
1039.2000;0.5633;-0.0308;
1039.5000;0.5674;-0.0261;
1039.8000;0.5706;-0.0095;
1040.1000;0.5641;-0.0213;
1040.4000;0.5657;-0.0237;
1040.7000;0.5665;-0.0261;
1041.0000;0.5625;-0.0426;
1041.3000;0.5665;-0.0332;
1041.6000;0.5657;-0.0332;
1041.9000;0.5657;-0.0379;
1042.2000;0.5657;-0.0450;
1042.5000;0.5657;-0.0426;
1042.8000;0.5649;-0.0450;
1043.1000;0.5641;-0.0521;
1043.4000;0.5649;-0.0474;
1043.7000;0.5657;-0.0403;
1044.0000;0.5625;-0.0403;
1044.3000;0.5625;-0.0332;
1044.6000;0.5625;-0.0379;
1044.9000;0.5641;-0.0237;
1045.2000;0.5641;-0.0237;
1045.5000;0.5649;-0.0261;
1045.8000;0.5641;-0.0284;
1046.1000;0.5674;-0.0261;
1046.4000;0.5674;-0.0237;
1046.7000;0.5690;-0.0166;
1047.0000;0.5641;-0.0213;
1047.3000;0.5633;-0.0355;
1047.6000;0.5641;-0.0403;
1047.9000;0.5649;-0.0403;
1048.2000;0.5600;-0.0498;
1048.5000;0.5649;-0.0284;
1048.8000;0.5649;-0.0332;
1049.1000;0.5649;-0.0332;
1049.4000;0.5617;-0.0379;
1049.7000;0.5682;-0.0284;
1050.0000;0.5649;-0.0332;
1050.3000;0.5649;-0.0355;
1050.6000;0.5641;-0.0332;
1050.9000;0.5657;-0.0237;
1051.2000;0.5649;-0.0284;
1051.5000;0.5641;-0.0284;
1051.8000;0.5633;-0.0332;
1052.1000;0.5633;-0.0213;
1052.4000;0.5674;-0.0142;
1052.7000;0.5657;-0.0237;
1053.0000;0.5657;-0.0213;
1053.3000;0.5633;-0.0332;
1053.6000;0.5641;-0.0166;
1053.9000;0.5641;-0.0190;
1054.2000;0.5641;-0.0213;
1054.5000;0.5649;-0.0237;
1054.8000;0.5641;-0.0190;
1055.1000;0.5649;-0.0261;
1055.4000;0.5649;-0.0261;
1055.7000;0.5649;-0.0308;
1056.0000;0.5649;-0.0261;
1056.3000;0.5657;-0.0142;
1056.6000;0.5657;-0.0213;
1056.9000;0.5674;-0.0142;
1057.2000;0.5633;-0.0237;
1057.5000;0.5657;-0.0213;
1057.8000;0.5633;-0.0237;
1058.1000;0.5608;-0.0284;
1058.4000;0.5625;-0.0332;
1058.7000;0.5633;-0.0355;
1059.0000;0.5649;-0.0213;
1059.3000;0.5625;-0.0142;
1059.6000;0.5625;-0.0237;
1059.9000;0.5608;-0.0213;
1060.2000;0.5649;-0.0142;
1060.5000;0.5641;-0.0261;
1060.8000;0.5633;-0.0379;
1061.1000;0.5633;-0.0474;
1061.4000;0.5649;-0.0355;
1061.7000;0.5641;-0.0332;
1062.0000;0.5568;-0.0403;
1062.3000;0.5641;-0.0118;
1062.6000;0.5690;-0.0047;
1062.9000;0.5625;-0.0190;
1063.2000;0.5633;-0.0237;
1063.5000;0.5633;-0.0261;
1063.8000;0.5625;-0.0308;
1064.1000;0.5641;-0.0308;
1064.4000;0.5608;-0.0308;
1064.7000;0.5617;-0.0237;
1065.0000;0.5617;-0.0261;
1065.3000;0.5633;-0.0284;
1065.6000;0.5617;-0.0261;
1065.9000;0.5608;-0.0237;
1066.2000;0.5625;-0.0213;
1066.5000;0.5633;-0.0190;
1066.8000;0.5657;-0.0237;
1067.1000;0.5633;-0.0308;
1067.4000;0.5641;-0.0308;
1067.7000;0.5641;-0.0237;
1068.0000;0.5641;-0.0261;
1068.3000;0.5633;-0.0284;
1068.6000;0.5617;-0.0379;
1068.9000;0.5641;-0.0308;
1069.2000;0.5633;-0.0308;
1069.5000;0.5617;-0.0355;
1069.8000;0.5633;-0.0261;
1070.1000;0.5625;-0.0237;
1070.4000;0.5649;-0.0213;
1070.7000;0.5657;-0.0190;
1071.0000;0.5633;-0.0190;
1071.3000;0.5633;-0.0190;
1071.6000;0.5641;-0.0166;
1071.9000;0.5649;-0.0118;
1072.2000;0.5633;-0.0213;
1072.5000;0.5600;-0.0355;
1072.8000;0.5682;-0.0261;
1073.1000;0.5649;-0.0474;
1073.4000;0.5657;-0.0521;
1073.7000;0.5625;-0.0616;
1074.0000;0.5625;-0.0616;
1074.3000;0.5633;-0.0569;
1074.6000;0.5633;-0.0521;
1074.9000;0.5633;-0.0426;
1075.2000;0.5633;-0.0403;
1075.5000;0.5633;-0.0403;
1075.8000;0.5617;-0.0450;
1076.1000;0.5608;-0.0474;
1076.4000;0.5608;-0.0450;
1076.7000;0.5608;-0.0450;
1077.0000;0.5633;-0.0426;
1077.3000;0.5665;-0.0355;
1077.6000;0.5617;-0.0332;
1077.9000;0.5633;-0.0308;
1078.2000;0.5633;-0.0284;
1078.5000;0.5592;-0.0355;
1078.8000;0.5617;-0.0426;
1079.1000;0.5625;-0.0450;
1079.4000;0.5625;-0.0450;
1079.7000;0.5625;-0.0403;
1080.0000;0.5625;-0.0379;
1080.3000;0.5608;-0.0426;
1080.6000;0.5641;-0.0545;
1080.9000;0.5633;-0.0474;
1081.2000;0.5633;-0.0450;
1081.5000;0.5617;-0.0498;
1081.8000;0.5625;-0.0521;
1082.1000;0.5633;-0.0616;
1082.4000;0.5633;-0.0521;
1082.7000;0.5633;-0.0450;
1083.0000;0.5649;-0.0426;
1083.3000;0.5625;-0.0379;
1083.6000;0.5633;-0.0379;
1083.9000;0.5674;-0.0261;
1084.2000;0.5633;-0.0284;
1084.5000;0.5649;-0.0308;
1084.8000;0.5617;-0.0332;
1085.1000;0.5600;-0.0308;
1085.4000;0.5617;-0.0237;
1085.7000;0.5641;-0.0190;
1086.0000;0.5674;-0.0071;
1086.3000;0.5608;-0.0237;
1086.6000;0.5641;-0.0213;
1086.9000;0.5592;-0.0379;
1087.2000;0.5617;-0.0355;
1087.5000;0.5617;-0.0355;
1087.8000;0.5625;-0.0355;
1088.1000;0.5641;-0.0284;
1088.4000;0.5633;-0.0237;
1088.7000;0.5641;-0.0213;
1089.0000;0.5568;-0.0355;
1089.3000;0.5625;-0.0284;
1089.6000;0.5633;-0.0213;
1089.9000;0.5633;-0.0237;
1090.2000;0.5625;-0.0284;
1090.5000;0.5633;-0.0308;
1090.8000;0.5608;-0.0284;
1091.1000;0.5633;-0.0261;
1091.4000;0.5633;-0.0284;
1091.7000;0.5600;-0.0355;
1092.0000;0.5633;-0.0332;
1092.3000;0.5641;-0.0308;
1092.6000;0.5641;-0.0308;
1092.9000;0.5625;-0.0403;
1093.2000;0.5633;-0.0403;
1093.5000;0.5633;-0.0450;
1093.8000;0.5641;-0.0426;
1094.1000;0.5633;-0.0474;
1094.4000;0.5560;-0.0616;
1094.7000;0.5625;-0.0379;
1095.0000;0.5633;-0.0284;
1095.3000;0.5633;-0.0355;
1095.6000;0.5617;-0.0450;
1095.9000;0.5625;-0.0426;
1096.2000;0.5649;-0.0332;
1096.5000;0.5625;-0.0355;
1096.8000;0.5641;-0.0284;
1097.1000;0.5625;-0.0284;
1097.4000;0.5617;-0.0332;
1097.7000;0.5625;-0.0261;
1098.0000;0.5625;-0.0237;
1098.3000;0.5625;-0.0237;
1098.6000;0.5625;-0.0308;
1098.9000;0.5608;-0.0332;
1099.2000;0.5608;-0.0261;
1099.5000;0.5617;-0.0284;
1099.8000;0.5617;-0.0379;
1100.1000;0.5617;-0.0426;
1100.4000;0.5674;-0.0332;
1100.7000;0.5682;-0.0284;
1101.0000;0.5617;-0.0426;
1101.3000;0.5608;-0.0355;
1101.6000;0.5608;-0.0308;
1101.9000;0.5576;-0.0379;
1102.2000;0.5608;-0.0284;
1102.5000;0.5600;-0.0308;
1102.8000;0.5633;-0.0261;
1103.1000;0.5617;-0.0355;
1103.4000;0.5600;-0.0403;
1103.7000;0.5617;-0.0379;
1104.0000;0.5625;-0.0355;
1104.3000;0.5633;-0.0332;
1104.6000;0.5625;-0.0308;
1104.9000;0.5625;-0.0284;
1105.2000;0.5617;-0.0284;
1105.5000;0.5625;-0.0284;
1105.8000;0.5617;-0.0308;
1106.1000;0.5633;-0.0332;
1106.4000;0.5617;-0.0379;
1106.7000;0.5617;-0.0379;
1107.0000;0.5617;-0.0403;
1107.3000;0.5608;-0.0426;
1107.6000;0.5625;-0.0355;
1107.9000;0.5698;-0.0118;
1108.2000;0.5633;-0.0237;
1108.5000;0.5608;-0.0284;
1108.8000;0.5625;-0.0190;
1109.1000;0.5608;-0.0190;
1109.4000;0.5617;-0.0237;
1109.7000;0.5608;-0.0261;
1110.0000;0.5625;-0.0237;
1110.3000;0.5625;-0.0095;
1110.6000;0.5608;-0.0261;
1110.9000;0.5690;-0.0142;
1111.2000;0.5617;-0.0308;
1111.5000;0.5617;-0.0355;
1111.8000;0.5608;-0.0332;
1112.1000;0.5617;-0.0355;
1112.4000;0.5592;-0.0355;
1112.7000;0.5600;-0.0284;
1113.0000;0.5568;-0.0213;
1113.3000;0.5600;-0.0142;
1113.6000;0.5600;-0.0118;
1113.9000;0.5600;-0.0142;
1114.2000;0.5592;-0.0095;
1114.5000;0.5576;-0.0213;
1114.8000;0.5608;-0.0166;
1115.1000;0.5600;-0.0213;
1115.4000;0.5608;-0.0142;
1115.7000;0.5584;-0.0166;
1116.0000;0.5608;-0.0095;
1116.3000;0.5592;-0.0118;
1116.6000;0.5608;0.0000;
1116.9000;0.5600;-0.0142;
1117.2000;0.5600;-0.0190;
1117.5000;0.5625;-0.0166;
1117.8000;0.5600;-0.0261;
1118.1000;0.5600;-0.0284;
1118.4000;0.5608;-0.0261;
1118.7000;0.5608;-0.0213;
1119.0000;0.5690;-0.0024;
1119.3000;0.5608;-0.0237;
1119.6000;0.5608;-0.0332;
1119.9000;0.5690;-0.0166;
1120.2000;0.5625;-0.0284;
1120.5000;0.5641;-0.0213;
1120.8000;0.5625;-0.0237;
1121.1000;0.5682;-0.0095;
1121.4000;0.5608;-0.0237;
1121.7000;0.5600;-0.0308;
1122.0000;0.5608;-0.0284;
1122.3000;0.5600;-0.0308;
1122.6000;0.5600;-0.0237;
1122.9000;0.5608;-0.0166;
1123.2000;0.5592;-0.0237;
1123.5000;0.5584;-0.0355;
1123.8000;0.5600;-0.0379;
1124.1000;0.5584;-0.0474;
1124.4000;0.5617;-0.0450;
1124.7000;0.5584;-0.0474;
1125.0000;0.5600;-0.0426;
1125.3000;0.5600;-0.0450;
1125.6000;0.5592;-0.0474;
1125.9000;0.5608;-0.0355;
1126.2000;0.5600;-0.0355;
1126.5000;0.5608;-0.0190;
1126.8000;0.5600;-0.0190;
1127.1000;0.5608;-0.0190;
1127.4000;0.5600;-0.0308;
1127.7000;0.5617;-0.0284;
1128.0000;0.5600;-0.0284;
1128.3000;0.5617;-0.0261;
1128.6000;0.5617;-0.0284;
1128.9000;0.5600;-0.0332;
1129.2000;0.5608;-0.0213;
1129.5000;0.5608;-0.0142;
1129.8000;0.5608;-0.0047;
1130.1000;0.5608;-0.0047;
1130.4000;0.5584;-0.0071;
1130.7000;0.5665;0.0024;
1131.0000;0.5608;-0.0142;
1131.3000;0.5608;-0.0166;
1131.6000;0.5592;-0.0261;
1131.9000;0.5568;-0.0332;
1132.2000;0.5584;-0.0261;
1132.5000;0.5600;-0.0261;
1132.8000;0.5608;-0.0213;
1133.1000;0.5625;-0.0284;
1133.4000;0.5625;-0.0284;
1133.7000;0.5617;-0.0213;
1134.0000;0.5665;-0.0047;
1134.3000;0.5608;-0.0190;
1134.6000;0.5608;-0.0190;
1134.9000;0.5617;-0.0190;
1135.2000;0.5608;-0.0166;
1135.5000;0.5600;-0.0284;
1135.8000;0.5600;-0.0261;
1136.1000;0.5608;-0.0261;
1136.4000;0.5600;-0.0166;
1136.7000;0.5617;-0.0118;
1137.0000;0.5584;-0.0261;
1137.3000;0.5608;-0.0261;
1137.6000;0.5600;-0.0308;
1137.9000;0.5600;-0.0332;
1138.2000;0.5617;-0.0213;
1138.5000;0.5584;-0.0284;
1138.8000;0.5625;-0.0166;
1139.1000;0.5568;-0.0284;
1139.4000;0.5608;-0.0213;
1139.7000;0.5617;-0.0190;
1140.0000;0.5649;-0.0237;
1140.3000;0.5665;-0.0284;
1140.6000;0.5600;-0.0379;
1140.9000;0.5543;-0.0403;
1141.2000;0.5535;-0.0426;
1141.5000;0.5600;-0.0284;
1141.8000;0.5560;-0.0237;
1142.1000;0.5568;-0.0190;
1142.4000;0.5608;-0.0047;
1142.7000;0.5592;-0.0047;
1143.0000;0.5649;0.0095;
1143.3000;0.5584;-0.0024;
1143.6000;0.5600;0.0047;
1143.9000;0.5592;0.0000;
1144.2000;0.5592;-0.0047;
1144.5000;0.5600;-0.0024;
1144.8000;0.5608;-0.0024;
1145.1000;0.5584;-0.0095;
1145.4000;0.5592;-0.0118;
1145.7000;0.5608;-0.0118;
1146.0000;0.5584;-0.0237;
1146.3000;0.5592;-0.0166;
1146.6000;0.5600;-0.0095;
1146.9000;0.5592;-0.0142;
1147.2000;0.5592;-0.0261;
1147.5000;0.5641;-0.0166;
1147.8000;0.5592;-0.0284;
1148.1000;0.5584;-0.0308;
1148.4000;0.5584;-0.0332;
1148.7000;0.5576;-0.0332;
1149.0000;0.5592;-0.0332;
1149.3000;0.5600;-0.0261;
1149.6000;0.5592;-0.0284;
1149.9000;0.5592;-0.0237;
1150.2000;0.5625;-0.0118;
1150.5000;0.5665;0.0000;
1150.8000;0.5584;-0.0166;
1151.1000;0.5617;-0.0095;
1151.4000;0.5617;-0.0142;
1151.7000;0.5584;-0.0190;
1152.0000;0.5592;-0.0261;
1152.3000;0.5617;-0.0261;
1152.6000;0.5592;-0.0332;
1152.9000;0.5560;-0.0284;
1153.2000;0.5600;-0.0118;
1153.5000;0.5592;-0.0118;
1153.8000;0.5617;-0.0095;
1154.1000;0.5641;-0.0024;
1154.4000;0.5592;-0.0095;
1154.7000;0.5617;-0.0024;
1155.0000;0.5600;-0.0047;
1155.3000;0.5641;0.0047;
1155.6000;0.5641;0.0095;
1155.9000;0.5592;0.0024;
1156.2000;0.5625;0.0142;
1156.5000;0.5600;0.0024;
1156.8000;0.5600;0.0047;
1157.1000;0.5633;0.0047;
1157.4000;0.5625;-0.0024;
1157.7000;0.5625;-0.0071;
1158.0000;0.5625;-0.0071;
1158.3000;0.5592;-0.0118;
1158.6000;0.5600;-0.0118;
1158.9000;0.5584;-0.0047;
1159.2000;0.5592;0.0000;
1159.5000;0.5600;0.0000;
1159.8000;0.5600;0.0024;
1160.1000;0.5592;0.0000;
1160.4000;0.5617;0.0000;
1160.7000;0.5576;-0.0095;
1161.0000;0.5551;-0.0095;
1161.3000;0.5600;0.0095;
1161.6000;0.5600;0.0190;
1161.9000;0.5584;0.0071;
1162.2000;0.5617;0.0095;
1162.5000;0.5592;0.0095;
1162.8000;0.5584;0.0071;
1163.1000;0.5617;0.0071;
1163.4000;0.5608;0.0095;
1163.7000;0.5592;0.0024;
1164.0000;0.5592;-0.0024;
1164.3000;0.5592;-0.0024;
1164.6000;0.5584;-0.0071;
1164.9000;0.5592;-0.0071;
1165.2000;0.5576;-0.0047;
1165.5000;0.5608;0.0000;
1165.8000;0.5617;0.0047;
1166.1000;0.5600;0.0000;
1166.4000;0.5600;0.0047;
1166.7000;0.5617;0.0142;
1167.0000;0.5600;0.0095;
1167.3000;0.5600;0.0047;
1167.6000;0.5665;0.0118;
1167.9000;0.5617;0.0024;
1168.2000;0.5617;-0.0024;
1168.5000;0.5608;-0.0095;
1168.8000;0.5608;-0.0047;
1169.1000;0.5592;0.0024;
1169.4000;0.5600;0.0095;
1169.7000;0.5592;0.0118;
1170.0000;0.5576;0.0095;
1170.3000;0.5568;0.0071;
1170.6000;0.5592;0.0142;
1170.9000;0.5592;0.0190;
1171.2000;0.5600;0.0071;
1171.5000;0.5592;0.0071;
1171.8000;0.5592;0.0142;
1172.1000;0.5600;0.0071;
1172.4000;0.5576;0.0024;
1172.7000;0.5568;0.0047;
1173.0000;0.5592;0.0142;
1173.3000;0.5592;0.0095;
1173.6000;0.5584;0.0118;
1173.9000;0.5592;0.0213;
1174.2000;0.5584;0.0071;
1174.5000;0.5608;0.0166;
1174.8000;0.5592;0.0071;
1175.1000;0.5584;0.0000;
1175.4000;0.5584;0.0024;
1175.7000;0.5592;-0.0024;
1176.0000;0.5576;-0.0095;
1176.3000;0.5600;-0.0024;
1176.6000;0.5600;-0.0142;
1176.9000;0.5608;-0.0071;
1177.2000;0.5600;-0.0118;
1177.5000;0.5592;-0.0095;
1177.8000;0.5608;0.0024;
1178.1000;0.5568;-0.0095;
1178.4000;0.5608;-0.0024;
1178.7000;0.5600;-0.0047;
1179.0000;0.5592;-0.0190;
1179.3000;0.5584;-0.0142;
1179.6000;0.5592;-0.0118;
1179.9000;0.5584;-0.0095;
1180.2000;0.5625;0.0000;
1180.5000;0.5584;-0.0095;
1180.8000;0.5592;-0.0071;
1181.1000;0.5584;-0.0071;
1181.4000;0.5576;-0.0142;
1181.7000;0.5576;-0.0047;
1182.0000;0.5600;0.0024;
1182.3000;0.5600;0.0024;
1182.6000;0.5600;-0.0024;
1182.9000;0.5600;0.0095;
1183.2000;0.5600;0.0000;
1183.5000;0.5617;-0.0047;
1183.8000;0.5592;0.0000;
1184.1000;0.5600;0.0000;
1184.4000;0.5633;0.0047;
1184.7000;0.5608;0.0071;
1185.0000;0.5600;0.0071;
1185.3000;0.5551;-0.0071;
1185.6000;0.5584;0.0071;
1185.9000;0.5568;0.0095;
1186.2000;0.5543;0.0000;
1186.5000;0.5584;0.0000;
1186.8000;0.5608;0.0000;
1187.1000;0.5592;-0.0142;
1187.4000;0.5600;-0.0142;
1187.7000;0.5584;-0.0213;
1188.0000;0.5592;-0.0237;
1188.3000;0.5527;-0.0379;
1188.6000;0.5608;-0.0190;
1188.9000;0.5600;-0.0190;
1189.2000;0.5674;0.0071;
1189.5000;0.5584;-0.0071;
1189.8000;0.5641;0.0000;
1190.1000;0.5584;-0.0213;
1190.4000;0.5633;-0.0118;
1190.7000;0.5576;-0.0284;
1191.0000;0.5584;-0.0237;
1191.3000;0.5592;-0.0190;
1191.6000;0.5584;-0.0237;
1191.9000;0.5600;-0.0284;
1192.2000;0.5584;-0.0190;
1192.5000;0.5584;-0.0142;
1192.8000;0.5584;-0.0213;
1193.1000;0.5584;-0.0166;
1193.4000;0.5576;-0.0071;
1193.7000;0.5600;-0.0047;
1194.0000;0.5568;-0.0118;
1194.3000;0.5584;-0.0071;
1194.6000;0.5568;-0.0190;
1194.9000;0.5584;-0.0142;
1195.2000;0.5584;-0.0095;
1195.5000;0.5584;-0.0095;
1195.8000;0.5592;-0.0095;
1196.1000;0.5592;-0.0071;
1196.4000;0.5543;-0.0237;
1196.7000;0.5584;-0.0095;
1197.0000;0.5551;-0.0142;
1197.3000;0.5584;-0.0024;
1197.6000;0.5584;-0.0024;
1197.9000;0.5576;-0.0024;
1198.2000;0.5600;0.0047;
1198.5000;0.5617;0.0095;
1198.8000;0.5617;0.0047;
1199.1000;0.5584;0.0000;
1199.4000;0.5584;0.0142;
1199.7000;0.5592;0.0166;
1200.0000;0.5584;0.0095;
1200.3000;0.5576;0.0095;
1200.6000;0.5576;0.0095;
1200.9000;0.5576;0.0095;
1201.2000;0.5568;0.0047;
1201.5000;0.5592;-0.0024;
1201.8000;0.5592;0.0000;
1202.1000;0.5560;-0.0071;
1202.4000;0.5600;0.0000;
1202.7000;0.5592;0.0000;
1203.0000;0.5576;-0.0071;
1203.3000;0.5543;-0.0118;
1203.6000;0.5592;0.0047;
1203.9000;0.5568;0.0118;
1204.2000;0.5600;0.0213;
1204.5000;0.5592;0.0118;
1204.8000;0.5584;0.0190;
1205.1000;0.5592;0.0166;
1205.4000;0.5592;0.0095;
1205.7000;0.5584;0.0095;
1206.0000;0.5584;0.0095;
1206.3000;0.5592;0.0071;
1206.6000;0.5592;0.0142;
1206.9000;0.5584;0.0095;
1207.2000;0.5576;0.0071;
1207.5000;0.5600;0.0071;
1207.8000;0.5576;0.0071;
1208.1000;0.5576;0.0095;
1208.4000;0.5576;0.0071;
1208.7000;0.5576;0.0024;
1209.0000;0.5568;0.0071;
1209.3000;0.5576;0.0071;
1209.6000;0.5576;0.0000;
1209.9000;0.5535;-0.0047;
1210.2000;0.5584;-0.0071;
1210.5000;0.5608;-0.0118;
1210.8000;0.5592;-0.0142;
1211.1000;0.5592;-0.0118;
1211.4000;0.5592;-0.0095;
1211.7000;0.5560;-0.0213;
1212.0000;0.5560;-0.0237;
1212.3000;0.5584;-0.0142;
1212.6000;0.5617;0.0024;
1212.9000;0.5592;-0.0047;
1213.2000;0.5511;-0.0237;
1213.5000;0.5592;-0.0024;
1213.8000;0.5576;-0.0047;
1214.1000;0.5560;-0.0118;
1214.4000;0.5584;0.0000;
1214.7000;0.5560;-0.0071;
1215.0000;0.5592;-0.0047;
1215.3000;0.5592;-0.0095;
1215.6000;0.5592;-0.0024;
1215.9000;0.5592;0.0024;
1216.2000;0.5584;0.0024;
1216.5000;0.5576;-0.0024;
1216.8000;0.5600;0.0047;
1217.1000;0.5568;0.0000;
1217.4000;0.5560;-0.0024;
1217.7000;0.5576;0.0000;
1218.0000;0.5568;-0.0118;
1218.3000;0.5560;-0.0142;
1218.6000;0.5543;-0.0190;
1218.9000;0.5568;-0.0284;
1219.2000;0.5568;-0.0213;
1219.5000;0.5584;-0.0213;
1219.8000;0.5568;-0.0213;
1220.1000;0.5560;-0.0166;
1220.4000;0.5625;0.0000;
1220.7000;0.5576;-0.0118;
1221.0000;0.5535;-0.0166;
1221.3000;0.5576;-0.0095;
1221.6000;0.5560;-0.0118;
1221.9000;0.5608;0.0000;
1222.2000;0.5560;-0.0095;
1222.5000;0.5560;-0.0237;
1222.8000;0.5568;-0.0118;
1223.1000;0.5584;0.0000;
1223.4000;0.5584;0.0024;
1223.7000;0.5576;0.0095;
1224.0000;0.5576;0.0071;
1224.3000;0.5608;0.0071;
1224.6000;0.5576;-0.0024;
1224.9000;0.5576;-0.0024;
1225.2000;0.5592;0.0024;
1225.5000;0.5584;0.0047;
1225.8000;0.5584;0.0071;
1226.1000;0.5617;0.0190;
1226.4000;0.5568;0.0047;
1226.7000;0.5576;0.0095;
1227.0000;0.5535;-0.0142;
1227.3000;0.5576;-0.0071;
1227.6000;0.5592;0.0000;
1227.9000;0.5560;-0.0024;
1228.2000;0.5535;-0.0095;
1228.5000;0.5592;0.0000;
1228.8000;0.5568;0.0000;
1229.1000;0.5568;0.0071;
1229.4000;0.5568;0.0024;
1229.7000;0.5584;0.0024;
1230.0000;0.5600;0.0047;
1230.3000;0.5568;0.0047;
1230.6000;0.5568;0.0047;
1230.9000;0.5592;0.0024;
1231.2000;0.5535;-0.0071;
1231.5000;0.5568;-0.0024;
1231.8000;0.5576;-0.0047;
1232.1000;0.5560;-0.0213;
1232.4000;0.5576;-0.0142;
1232.7000;0.5600;-0.0024;
1233.0000;0.5560;-0.0095;
1233.3000;0.5568;-0.0071;
1233.6000;0.5576;0.0024;
1233.9000;0.5560;-0.0071;
1234.2000;0.5608;-0.0024;
1234.5000;0.5576;-0.0047;
1234.8000;0.5617;0.0071;
1235.1000;0.5560;-0.0047;
1235.4000;0.5568;0.0047;
1235.7000;0.5592;0.0095;
1236.0000;0.5584;0.0118;
1236.3000;0.5584;0.0095;
1236.6000;0.5576;0.0024;
1236.9000;0.5584;0.0000;
1237.2000;0.5535;-0.0118;
1237.5000;0.5584;0.0047;
1237.8000;0.5600;0.0047;
1238.1000;0.5576;0.0000;
1238.4000;0.5576;0.0000;
1238.7000;0.5576;0.0047;
1239.0000;0.5551;0.0024;
1239.3000;0.5551;0.0000;
1239.6000;0.5551;0.0024;
1239.9000;0.5568;0.0095;
1240.2000;0.5568;0.0071;
1240.5000;0.5568;0.0118;
1240.8000;0.5568;0.0118;
1241.1000;0.5592;0.0118;
1241.4000;0.5576;0.0071;
1241.7000;0.5584;0.0071;
1242.0000;0.5560;0.0024;
1242.3000;0.5568;0.0000;
1242.6000;0.5560;-0.0024;
1242.9000;0.5568;0.0000;
1243.2000;0.5560;-0.0071;
1243.5000;0.5551;-0.0024;
1243.8000;0.5568;-0.0024;
1244.1000;0.5568;0.0000;
1244.4000;0.5560;-0.0047;
1244.7000;0.5560;-0.0095;
1245.0000;0.5617;-0.0071;
1245.3000;0.5584;-0.0213;
1245.6000;0.5576;-0.0190;
1245.9000;0.5617;-0.0190;
1246.2000;0.5608;-0.0190;
1246.5000;0.5584;-0.0237;
1246.8000;0.5560;-0.0190;
1247.1000;0.5568;-0.0190;
1247.4000;0.5584;-0.0142;
1247.7000;0.5584;-0.0213;
1248.0000;0.5633;-0.0071;
1248.3000;0.5576;-0.0071;
1248.6000;0.5584;-0.0024;
1248.9000;0.5560;-0.0071;
1249.2000;0.5568;0.0024;
1249.5000;0.5576;0.0071;
1249.8000;0.5560;-0.0024;
1250.1000;0.5576;0.0024;
1250.4000;0.5551;-0.0071;
1250.7000;0.5560;-0.0024;
1251.0000;0.5568;0.0000;
1251.3000;0.5568;-0.0095;
1251.6000;0.5576;-0.0071;
1251.9000;0.5560;-0.0142;
1252.2000;0.5592;-0.0118;
1252.5000;0.5551;-0.0166;
1252.8000;0.5576;-0.0071;
1253.1000;0.5519;-0.0237;
1253.4000;0.5519;-0.0237;
1253.7000;0.5568;-0.0071;
1254.0000;0.5560;-0.0142;
1254.3000;0.5551;-0.0118;
1254.6000;0.5560;-0.0142;
1254.9000;0.5560;-0.0118;
1255.2000;0.5551;-0.0118;
1255.5000;0.5576;-0.0047;
1255.8000;0.5551;-0.0118;
1256.1000;0.5576;-0.0024;
1256.4000;0.5592;0.0000;
1256.7000;0.5584;0.0000;
1257.0000;0.5576;-0.0024;
1257.3000;0.5560;-0.0047;
1257.6000;0.5576;0.0047;
1257.9000;0.5568;0.0071;
1258.2000;0.5576;0.0047;
1258.5000;0.5568;0.0071;
1258.8000;0.5576;0.0095;
1259.1000;0.5568;0.0142;
1259.4000;0.5576;0.0071;
1259.7000;0.5568;-0.0024;
1260.0000;0.5527;-0.0118;
1260.3000;0.5568;-0.0095;
1260.6000;0.5576;-0.0118;
1260.9000;0.5560;-0.0142;
1261.2000;0.5592;0.0000;
1261.5000;0.5576;0.0000;
1261.8000;0.5568;0.0118;
1262.1000;0.5568;0.0237;
1262.4000;0.5560;0.0190;
1262.7000;0.5568;0.0118;
1263.0000;0.5560;0.0118;
1263.3000;0.5551;0.0095;
1263.6000;0.5551;0.0047;
1263.9000;0.5560;0.0095;
1264.2000;0.5560;0.0024;
1264.5000;0.5560;-0.0024;
1264.8000;0.5527;-0.0095;
1265.1000;0.5576;-0.0095;
1265.4000;0.5560;-0.0142;
1265.7000;0.5568;-0.0118;
1266.0000;0.5568;-0.0024;
1266.3000;0.5551;-0.0024;
1266.6000;0.5568;-0.0024;
1266.9000;0.5584;0.0047;
1267.2000;0.5560;0.0047;
1267.5000;0.5527;-0.0047;
1267.8000;0.5576;0.0000;
1268.1000;0.5551;0.0000;
1268.4000;0.5568;0.0095;
1268.7000;0.5568;0.0000;
1269.0000;0.5576;0.0118;
1269.3000;0.5568;0.0024;
1269.6000;0.5551;-0.0024;
1269.9000;0.5560;-0.0095;
1270.2000;0.5568;-0.0024;
1270.5000;0.5551;-0.0047;
1270.8000;0.5560;-0.0047;
1271.1000;0.5560;-0.0071;
1271.4000;0.5584;0.0000;
1271.7000;0.5584;0.0024;
1272.0000;0.5592;0.0071;
1272.3000;0.5584;0.0071;
1272.6000;0.5576;0.0118;
1272.9000;0.5568;0.0071;
1273.2000;0.5543;-0.0024;
1273.5000;0.5568;-0.0024;
1273.8000;0.5560;-0.0024;
1274.1000;0.5560;0.0047;
1274.4000;0.5551;0.0047;
1274.7000;0.5560;0.0095;
1275.0000;0.5543;0.0071;
1275.3000;0.5551;0.0095;
1275.6000;0.5551;0.0142;
1275.9000;0.5551;0.0190;
1276.2000;0.5568;0.0190;
1276.5000;0.5560;0.0142;
1276.8000;0.5560;0.0142;
1277.1000;0.5560;0.0118;
1277.4000;0.5584;0.0190;
1277.7000;0.5584;0.0118;
1278.0000;0.5568;0.0118;
1278.3000;0.5568;0.0095;
1278.6000;0.5576;0.0095;
1278.9000;0.5560;0.0024;
1279.2000;0.5560;0.0024;
1279.5000;0.5560;0.0047;
1279.8000;0.5568;0.0095;
1280.1000;0.5551;0.0071;
1280.4000;0.5568;0.0071;
1280.7000;0.5560;0.0095;
1281.0000;0.5576;0.0190;
1281.3000;0.5543;0.0166;
1281.6000;0.5551;0.0142;
1281.9000;0.5576;0.0213;
1282.2000;0.5560;0.0213;
1282.5000;0.5560;0.0166;
1282.8000;0.5576;0.0142;
1283.1000;0.5560;0.0095;
1283.4000;0.5568;0.0047;
1283.7000;0.5576;0.0095;
1284.0000;0.5551;0.0142;
1284.3000;0.5568;0.0166;
1284.6000;0.5584;0.0190;
1284.9000;0.5576;0.0095;
1285.2000;0.5560;0.0047;
1285.5000;0.5568;0.0118;
1285.8000;0.5584;0.0213;
1286.1000;0.5568;0.0213;
1286.4000;0.5551;0.0166;
1286.7000;0.5568;0.0213;
1287.0000;0.5535;0.0095;
1287.3000;0.5560;0.0118;
1287.6000;0.5560;0.0071;
1287.9000;0.5535;0.0047;
1288.2000;0.5560;0.0095;
1288.5000;0.5568;0.0095;
1288.8000;0.5568;0.0095;
1289.1000;0.5568;0.0142;
1289.4000;0.5560;0.0047;
1289.7000;0.5568;0.0071;
1290.0000;0.5568;0.0095;
1290.3000;0.5560;0.0095;
1290.6000;0.5568;0.0095;
1290.9000;0.5543;0.0071;
1291.2000;0.5560;0.0071;
1291.5000;0.5568;-0.0024;
1291.8000;0.5511;-0.0118;
1292.1000;0.5560;0.0047;
1292.4000;0.5568;0.0071;
1292.7000;0.5551;0.0000;
1293.0000;0.5560;-0.0047;
1293.3000;0.5568;-0.0047;
1293.6000;0.5568;0.0000;
1293.9000;0.5560;0.0047;
1294.2000;0.5576;0.0047;
1294.5000;0.5568;0.0047;
1294.8000;0.5568;0.0047;
1295.1000;0.5568;0.0166;
1295.4000;0.5576;0.0190;
1295.7000;0.5560;0.0142;
1296.0000;0.5560;0.0166;
1296.3000;0.5560;0.0237;
1296.6000;0.5551;0.0261;
1296.9000;0.5560;0.0190;
1297.2000;0.5543;0.0166;
1297.5000;0.5568;0.0166;
1297.8000;0.5560;0.0095;
1298.1000;0.5495;-0.0142;
1298.4000;0.5543;-0.0071;
1298.7000;0.5551;0.0000;
1299.0000;0.5584;0.0166;
1299.3000;0.5584;0.0261;
1299.6000;0.5535;0.0095;
1299.9000;0.5576;0.0166;
1300.2000;0.5560;0.0095;
1300.5000;0.5568;0.0142;
1300.8000;0.5568;0.0237;
1301.1000;0.5551;0.0308;
1301.4000;0.5568;0.0284;
1301.7000;0.5560;0.0308;
1302.0000;0.5560;0.0332;
1302.3000;0.5543;0.0379;
1302.6000;0.5560;0.0450;
1302.9000;0.5568;0.0521;
1303.2000;0.5568;0.0474;
1303.5000;0.5551;0.0379;
1303.8000;0.5560;0.0355;
1304.1000;0.5568;0.0332;
1304.4000;0.5600;0.0426;
1304.7000;0.5560;0.0332;
1305.0000;0.5568;0.0355;
1305.3000;0.5568;0.0261;
1305.6000;0.5543;0.0261;
1305.9000;0.5568;0.0308;
1306.2000;0.5600;0.0379;
1306.5000;0.5633;0.0284;
1306.8000;0.5560;0.0095;
1307.1000;0.5543;0.0000;
1307.4000;0.5551;0.0047;
1307.7000;0.5576;0.0213;
1308.0000;0.5560;0.0118;
1308.3000;0.5543;0.0095;
1308.6000;0.5576;0.0237;
1308.9000;0.5568;0.0166;
1309.2000;0.5560;0.0118;
1309.5000;0.5568;0.0071;
1309.8000;0.5576;0.0118;
1310.1000;0.5568;-0.0047;
1310.4000;0.5576;-0.0142;
1310.7000;0.5625;-0.0024;
1311.0000;0.5560;-0.0047;
1311.3000;0.5568;0.0047;
1311.6000;0.5551;-0.0024;
1311.9000;0.5584;0.0047;
1312.2000;0.5551;-0.0047;
1312.5000;0.5568;0.0000;
1312.8000;0.5551;-0.0024;
1313.1000;0.5560;-0.0024;
1313.4000;0.5568;0.0000;
1313.7000;0.5560;0.0024;
1314.0000;0.5511;-0.0047;
1314.3000;0.5560;0.0047;
1314.6000;0.5576;0.0047;
1314.9000;0.5584;0.0071;
1315.2000;0.5576;-0.0047;
1315.5000;0.5503;-0.0237;
1315.8000;0.5600;0.0000;
1316.1000;0.5584;-0.0047;
1316.4000;0.5568;-0.0071;
1316.7000;0.5560;-0.0047;
1317.0000;0.5551;-0.0142;
1317.3000;0.5551;-0.0095;
1317.6000;0.5560;-0.0047;
1317.9000;0.5568;-0.0047;
1318.2000;0.5543;-0.0118;
1318.5000;0.5592;0.0024;
1318.8000;0.5576;0.0047;
1319.1000;0.5551;-0.0024;
1319.4000;0.5519;-0.0071;
1319.7000;0.5560;0.0071;
1320.0000;0.5519;-0.0047;
1320.3000;0.5568;0.0047;
1320.6000;0.5551;0.0047;
1320.9000;0.5560;-0.0047;
1321.2000;0.5551;0.0071;
1321.5000;0.5543;0.0095;
1321.8000;0.5551;0.0095;
1322.1000;0.5535;0.0047;
1322.4000;0.5535;-0.0024;
1322.7000;0.5527;-0.0047;
1323.0000;0.5535;-0.0118;
1323.3000;0.5551;-0.0047;
1323.6000;0.5568;0.0024;
1323.9000;0.5511;-0.0213;
1324.2000;0.5543;-0.0190;
1324.5000;0.5551;-0.0071;
1324.8000;0.5551;-0.0024;
1325.1000;0.5551;0.0000;
1325.4000;0.5568;-0.0047;
1325.7000;0.5535;-0.0166;
1326.0000;0.5551;-0.0047;
1326.3000;0.5576;-0.0071;
1326.6000;0.5576;-0.0142;
1326.9000;0.5576;-0.0118;
1327.2000;0.5641;0.0024;
1327.5000;0.5551;-0.0071;
1327.8000;0.5503;-0.0284;
1328.1000;0.5495;-0.0284;
1328.4000;0.5551;-0.0071;
1328.7000;0.5551;-0.0142;
1329.0000;0.5543;-0.0166;
1329.3000;0.5543;-0.0237;
1329.6000;0.5535;-0.0332;
1329.9000;0.5560;-0.0284;
1330.2000;0.5576;-0.0237;
1330.5000;0.5584;-0.0213;
1330.8000;0.5560;-0.0190;
1331.1000;0.5535;-0.0237;
1331.4000;0.5551;-0.0142;
1331.7000;0.5576;-0.0024;
1332.0000;0.5560;-0.0047;
1332.3000;0.5543;-0.0024;
1332.6000;0.5551;-0.0071;
1332.9000;0.5543;-0.0071;
1333.2000;0.5543;0.0024;
1333.5000;0.5543;0.0024;
1333.8000;0.5551;0.0071;
1334.1000;0.5519;-0.0047;
1334.4000;0.5551;0.0071;
1334.7000;0.5543;0.0047;
1335.0000;0.5560;0.0190;
1335.3000;0.5551;0.0166;
1335.6000;0.5551;0.0142;
1335.9000;0.5576;0.0213;
1336.2000;0.5576;0.0284;
1336.5000;0.5535;0.0261;
1336.8000;0.5551;0.0261;
1337.1000;0.5560;0.0213;
1337.4000;0.5560;0.0118;
1337.7000;0.5560;0.0190;
1338.0000;0.5576;0.0237;
1338.3000;0.5551;0.0142;
1338.6000;0.5551;0.0095;
1338.9000;0.5511;0.0047;
1339.2000;0.5543;0.0142;
1339.5000;0.5560;0.0142;
1339.8000;0.5560;0.0213;
1340.1000;0.5576;0.0261;
1340.4000;0.5568;0.0261;
1340.7000;0.5560;0.0355;
1341.0000;0.5543;0.0261;
1341.3000;0.5568;0.0237;
1341.6000;0.5543;0.0118;
1341.9000;0.5495;-0.0024;
1342.2000;0.5641;0.0308;
1342.5000;0.5551;0.0118;
1342.8000;0.5551;0.0095;
1343.1000;0.5535;0.0118;
1343.4000;0.5535;0.0095;
1343.7000;0.5543;0.0166;
1344.0000;0.5617;0.0379;
1344.3000;0.5454;0.0024;
1344.6000;0.5568;0.0261;
1344.9000;0.5592;0.0355;
1345.2000;0.5503;0.0142;
1345.5000;0.5551;0.0166;
1345.8000;0.5535;0.0118;
1346.1000;0.5584;0.0118;
1346.4000;0.5543;-0.0024;
1346.7000;0.5560;0.0047;
1347.0000;0.5568;0.0071;
1347.3000;0.5519;0.0000;
1347.6000;0.5560;0.0024;
1347.9000;0.5560;0.0095;
1348.2000;0.5560;0.0095;
1348.5000;0.5560;0.0024;
1348.8000;0.5560;0.0000;
1349.1000;0.5551;0.0024;
1349.4000;0.5535;-0.0071;
1349.7000;0.5543;-0.0047;
1350.0000;0.5600;0.0047;
1350.3000;0.5576;-0.0047;
1350.6000;0.5551;-0.0095;
1350.9000;0.5551;-0.0047;
1351.2000;0.5527;-0.0071;
1351.5000;0.5560;0.0071;
1351.8000;0.5511;0.0000;
1352.1000;0.5527;0.0047;
1352.4000;0.5551;0.0118;
1352.7000;0.5543;0.0118;
1353.0000;0.5576;0.0213;
1353.3000;0.5543;0.0118;
1353.6000;0.5543;0.0190;
1353.9000;0.5543;0.0213;
1354.2000;0.5535;0.0118;
1354.5000;0.5551;0.0118;
1354.8000;0.5543;0.0071;
1355.1000;0.5535;0.0047;
1355.4000;0.5551;0.0000;
1355.7000;0.5551;0.0071;
1356.0000;0.5560;0.0071;
1356.3000;0.5568;0.0142;
1356.6000;0.5543;0.0095;
1356.9000;0.5560;0.0118;
1357.2000;0.5503;-0.0024;
1357.5000;0.5543;-0.0047;
1357.8000;0.5543;-0.0047;
1358.1000;0.5551;0.0000;
1358.4000;0.5551;0.0047;
1358.7000;0.5543;0.0024;
1359.0000;0.5543;0.0071;
1359.3000;0.5543;0.0095;
1359.6000;0.5535;0.0024;
1359.9000;0.5543;0.0071;
1360.2000;0.5551;0.0142;
1360.5000;0.5543;0.0166;
1360.8000;0.5535;0.0142;
1361.1000;0.5535;0.0190;
1361.4000;0.5560;0.0166;
1361.7000;0.5568;0.0190;
1362.0000;0.5543;0.0118;
1362.3000;0.5560;0.0095;
1362.6000;0.5543;0.0095;
1362.9000;0.5511;0.0024;
1363.2000;0.5568;0.0213;
1363.5000;0.5560;0.0213;
1363.8000;0.5527;0.0213;
1364.1000;0.5511;0.0190;
1364.4000;0.5551;0.0284;
1364.7000;0.5560;0.0308;
1365.0000;0.5560;0.0261;
1365.3000;0.5543;0.0190;
1365.6000;0.5543;0.0118;
1365.9000;0.5560;0.0213;
1366.2000;0.5576;0.0261;
1366.5000;0.5535;0.0118;
1366.8000;0.5576;0.0166;
1367.1000;0.5560;0.0024;
1367.4000;0.5560;0.0000;
1367.7000;0.5551;-0.0024;
1368.0000;0.5511;-0.0142;
1368.3000;0.5560;0.0024;
1368.6000;0.5551;-0.0071;
1368.9000;0.5551;-0.0047;
1369.2000;0.5519;-0.0047;
1369.5000;0.5560;0.0024;
1369.8000;0.5560;-0.0024;
1370.1000;0.5543;-0.0071;
1370.4000;0.5543;0.0024;
1370.7000;0.5543;0.0166;
1371.0000;0.5535;0.0213;
1371.3000;0.5551;0.0213;
1371.6000;0.5543;0.0237;
1371.9000;0.5551;0.0355;
1372.2000;0.5551;0.0332;
1372.5000;0.5551;0.0284;
1372.8000;0.5551;0.0332;
1373.1000;0.5535;0.0261;
1373.4000;0.5543;0.0355;
1373.7000;0.5551;0.0355;
1374.0000;0.5535;0.0261;
1374.3000;0.5511;0.0166;
1374.6000;0.5543;0.0095;
1374.9000;0.5535;0.0166;
1375.2000;0.5551;0.0142;
1375.5000;0.5551;0.0190;
1375.8000;0.5543;0.0237;
1376.1000;0.5560;0.0237;
1376.4000;0.5568;0.0237;
1376.7000;0.5543;0.0284;
1377.0000;0.5527;0.0237;
1377.3000;0.5543;0.0261;
1377.6000;0.5560;0.0190;
1377.9000;0.5543;0.0095;
1378.2000;0.5551;-0.0071;
1378.5000;0.5560;-0.0047;
1378.8000;0.5543;0.0000;
1379.1000;0.5551;0.0000;
1379.4000;0.5543;-0.0024;
1379.7000;0.5551;-0.0024;
1380.0000;0.5543;0.0024;
1380.3000;0.5527;-0.0024;
1380.6000;0.5543;0.0024;
1380.9000;0.5535;0.0047;
1381.2000;0.5600;0.0237;
1381.5000;0.5543;0.0071;
1381.8000;0.5543;0.0095;
1382.1000;0.5535;0.0047;
1382.4000;0.5560;0.0071;
1382.7000;0.5543;0.0024;
1383.0000;0.5568;0.0047;
1383.3000;0.5560;0.0071;
1383.6000;0.5576;0.0071;
1383.9000;0.5560;0.0166;
1384.2000;0.5535;0.0118;
1384.5000;0.5535;0.0095;
1384.8000;0.5543;0.0024;
1385.1000;0.5560;-0.0071;
1385.4000;0.5551;-0.0024;
1385.7000;0.5543;-0.0024;
1386.0000;0.5543;-0.0095;
1386.3000;0.5560;-0.0024;
1386.6000;0.5543;-0.0071;
1386.9000;0.5543;-0.0024;
1387.2000;0.5535;-0.0024;
1387.5000;0.5551;0.0047;
1387.8000;0.5543;0.0047;
1388.1000;0.5495;-0.0190;
1388.4000;0.5560;-0.0118;
1388.7000;0.5568;-0.0071;
1389.0000;0.5560;0.0000;
1389.3000;0.5551;0.0024;
1389.6000;0.5543;0.0024;
1389.9000;0.5543;-0.0071;
1390.2000;0.5568;-0.0071;
1390.5000;0.5543;-0.0142;
1390.8000;0.5527;-0.0261;
1391.1000;0.5511;-0.0332;
1391.4000;0.5551;-0.0261;
1391.7000;0.5519;-0.0166;
1392.0000;0.5543;-0.0095;
1392.3000;0.5543;-0.0071;
1392.6000;0.5568;0.0000;
1392.9000;0.5527;-0.0095;
1393.2000;0.5551;-0.0047;
1393.5000;0.5543;-0.0071;
1393.8000;0.5543;-0.0047;
1394.1000;0.5535;-0.0071;
1394.4000;0.5543;-0.0095;
1394.7000;0.5543;-0.0118;
1395.0000;0.5543;-0.0047;
1395.3000;0.5535;-0.0118;
1395.6000;0.5543;-0.0024;
1395.9000;0.5551;0.0000;
1396.2000;0.5519;0.0024;
1396.5000;0.5535;0.0024;
1396.8000;0.5543;0.0047;
1397.1000;0.5535;0.0000;
1397.4000;0.5535;0.0024;
1397.7000;0.5543;0.0000;
1398.0000;0.5543;0.0000;
1398.3000;0.5560;-0.0024;
1398.6000;0.5527;-0.0095;
1398.9000;0.5543;-0.0095;
1399.2000;0.5551;-0.0095;
1399.5000;0.5535;-0.0095;
1399.8000;0.5576;-0.0024;
