time/ms;Fluo/V;P700 deltaI/I x10³;
-199.8000;0.9353;0.0924;
-199.5000;0.9385;0.0971;
-199.2000;0.9345;0.0877;
-198.9000;0.9361;0.0806;
-198.6000;0.9377;0.0853;
-198.3000;0.9361;0.0782;
-198.0000;0.9353;0.0829;
-197.7000;0.9353;0.0877;
-197.4000;0.9345;0.0948;
-197.1000;0.9328;0.0995;
-196.8000;0.9337;0.1042;
-196.5000;0.9353;0.1019;
-196.2000;0.9312;0.0924;
-195.9000;0.9320;0.0853;
-195.6000;0.9345;0.0877;
-195.3000;0.9345;0.0971;
-195.0000;0.9345;0.0948;
-194.7000;0.9361;0.0995;
-194.4000;0.9353;0.0924;
-194.1000;0.9385;0.0971;
-193.8000;0.9345;0.0877;
-193.5000;0.9345;0.0900;
-193.2000;0.9345;0.0853;
-192.9000;0.9353;0.0877;
-192.6000;0.9345;0.0853;
-192.3000;0.9320;0.0853;
-192.0000;0.9337;0.0948;
-191.7000;0.9337;0.0924;
-191.4000;0.9312;0.0877;
-191.1000;0.9361;0.0948;
-190.8000;0.9328;0.0782;
-190.5000;0.9361;0.0782;
-190.2000;0.9337;0.0806;
-189.9000;0.9353;0.0877;
-189.6000;0.9345;0.0877;
-189.3000;0.9353;0.0900;
-189.0000;0.9377;0.0853;
-188.7000;0.9377;0.0877;
-188.4000;0.9377;0.0924;
-188.1000;0.9353;0.0971;
-187.8000;0.9402;0.1019;
-187.5000;0.9345;0.0900;
-187.2000;0.9345;0.0995;
-186.9000;0.9361;0.1066;
-186.6000;0.9361;0.1042;
-186.3000;0.9337;0.0995;
-186.0000;0.9345;0.1042;
-185.7000;0.9361;0.1042;
-185.4000;0.9361;0.1042;
-185.1000;0.9361;0.0971;
-184.8000;0.9337;0.0924;
-184.5000;0.9304;0.0853;
-184.2000;0.9337;0.0948;
-183.9000;0.9320;0.0900;
-183.6000;0.9328;0.0948;
-183.3000;0.9345;0.0900;
-183.0000;0.9361;0.0853;
-182.7000;0.9361;0.0877;
-182.4000;0.9353;0.0924;
-182.1000;0.9361;0.0924;
-181.8000;0.9328;0.0853;
-181.5000;0.9328;0.0900;
-181.2000;0.9345;0.0900;
-180.9000;0.9345;0.0877;
-180.6000;0.9345;0.0853;
-180.3000;0.9345;0.0782;
-180.0000;0.9353;0.0806;
-179.7000;0.9345;0.0877;
-179.4000;0.9353;0.0971;
-179.1000;0.9369;0.1042;
-178.8000;0.9345;0.0924;
-178.5000;0.9361;0.0948;
-178.2000;0.9337;0.0829;
-177.9000;0.9377;0.0924;
-177.6000;0.9353;0.0971;
-177.3000;0.9377;0.1019;
-177.0000;0.9337;0.0971;
-176.7000;0.9328;0.0900;
-176.4000;0.9361;0.1019;
-176.1000;0.9345;0.0971;
-175.8000;0.9353;0.1137;
-175.5000;0.9345;0.1114;
-175.2000;0.9320;0.1019;
-174.9000;0.9361;0.1161;
-174.6000;0.9345;0.0995;
-174.3000;0.9361;0.1042;
-174.0000;0.9377;0.1137;
-173.7000;0.9337;0.1066;
-173.4000;0.9304;0.0924;
-173.1000;0.9361;0.1042;
-172.8000;0.9345;0.1019;
-172.5000;0.9271;0.0900;
-172.2000;0.9377;0.1042;
-171.9000;0.9337;0.0900;
-171.6000;0.9361;0.0900;
-171.3000;0.9337;0.0924;
-171.0000;0.9361;0.0948;
-170.7000;0.9328;0.0971;
-170.4000;0.9312;0.1019;
-170.1000;0.9353;0.1066;
-169.8000;0.9320;0.0971;
-169.5000;0.9353;0.0971;
-169.2000;0.9337;0.0948;
-168.9000;0.9402;0.0995;
-168.6000;0.9361;0.0948;
-168.3000;0.9369;0.0948;
-168.0000;0.9361;0.0924;
-167.7000;0.9353;0.0924;
-167.4000;0.9345;0.0924;
-167.1000;0.9369;0.1019;
-166.8000;0.9345;0.0971;
-166.5000;0.9353;0.0971;
-166.2000;0.9353;0.0877;
-165.9000;0.9345;0.0806;
-165.6000;0.9345;0.0806;
-165.3000;0.9369;0.0853;
-165.0000;0.9353;0.0853;
-164.7000;0.9353;0.0900;
-164.4000;0.9361;0.0924;
-164.1000;0.9353;0.0924;
-163.8000;0.9345;0.0924;
-163.5000;0.9369;0.0971;
-163.2000;0.9369;0.0948;
-162.9000;0.9353;0.0877;
-162.6000;0.9280;0.0663;
-162.3000;0.9361;0.0853;
-162.0000;0.9361;0.0900;
-161.7000;0.9345;0.0758;
-161.4000;0.9353;0.0782;
-161.1000;0.9337;0.0806;
-160.8000;0.9377;0.0995;
-160.5000;0.9320;0.0948;
-160.2000;0.9353;0.1019;
-159.9000;0.9337;0.1019;
-159.6000;0.9353;0.1019;
-159.3000;0.9328;0.0948;
-159.0000;0.9328;0.0924;
-158.7000;0.9353;0.0877;
-158.4000;0.9369;0.0924;
-158.1000;0.9377;0.0948;
-157.8000;0.9320;0.0829;
-157.5000;0.9337;0.0877;
-157.2000;0.9345;0.0900;
-156.9000;0.9402;0.0995;
-156.6000;0.9345;0.0829;
-156.3000;0.9320;0.0782;
-156.0000;0.9361;0.0853;
-155.7000;0.9296;0.0711;
-155.4000;0.9328;0.0806;
-155.1000;0.9353;0.0900;
-154.8000;0.9402;0.0995;
-154.5000;0.9361;0.0877;
-154.2000;0.9353;0.0948;
-153.9000;0.9345;0.0948;
-153.6000;0.9385;0.1114;
-153.3000;0.9312;0.0995;
-153.0000;0.9353;0.1019;
-152.7000;0.9345;0.0900;
-152.4000;0.9369;0.0900;
-152.1000;0.9353;0.0806;
-151.8000;0.9377;0.0877;
-151.5000;0.9369;0.0924;
-151.2000;0.9369;0.0995;
-150.9000;0.9369;0.0948;
-150.6000;0.9353;0.0829;
-150.3000;0.9361;0.0782;
-150.0000;0.9353;0.0734;
-149.7000;0.9345;0.0711;
-149.4000;0.9353;0.0782;
-149.1000;0.9345;0.0806;
-148.8000;0.9328;0.0853;
-148.5000;0.9353;0.0900;
-148.2000;0.9353;0.0853;
-147.9000;0.9345;0.0782;
-147.6000;0.9337;0.0758;
-147.3000;0.9345;0.0711;
-147.0000;0.9361;0.0782;
-146.7000;0.9377;0.0663;
-146.4000;0.9328;0.0545;
-146.1000;0.9337;0.0545;
-145.8000;0.9361;0.0616;
-145.5000;0.9353;0.0592;
-145.2000;0.9361;0.0569;
-144.9000;0.9353;0.0640;
-144.6000;0.9361;0.0616;
-144.3000;0.9353;0.0640;
-144.0000;0.9361;0.0687;
-143.7000;0.9345;0.0640;
-143.4000;0.9337;0.0663;
-143.1000;0.9353;0.0663;
-142.8000;0.9353;0.0687;
-142.5000;0.9353;0.0687;
-142.2000;0.9369;0.0687;
-141.9000;0.9369;0.0711;
-141.6000;0.9385;0.0806;
-141.3000;0.9353;0.0711;
-141.0000;0.9369;0.0758;
-140.7000;0.9369;0.0758;
-140.4000;0.9369;0.0806;
-140.1000;0.9312;0.0687;
-139.8000;0.9345;0.0782;
-139.5000;0.9361;0.0758;
-139.2000;0.9353;0.0829;
-138.9000;0.9345;0.0829;
-138.6000;0.9410;0.1019;
-138.3000;0.9353;0.0853;
-138.0000;0.9361;0.0877;
-137.7000;0.9377;0.0971;
-137.4000;0.9353;0.0948;
-137.1000;0.9345;0.0948;
-136.8000;0.9353;0.0924;
-136.5000;0.9337;0.0829;
-136.2000;0.9353;0.0806;
-135.9000;0.9337;0.0758;
-135.6000;0.9345;0.0806;
-135.3000;0.9328;0.0782;
-135.0000;0.9320;0.0806;
-134.7000;0.9328;0.0853;
-134.4000;0.9328;0.0877;
-134.1000;0.9353;0.0877;
-133.8000;0.9337;0.0806;
-133.5000;0.9328;0.0687;
-133.2000;0.9353;0.0734;
-132.9000;0.9361;0.0782;
-132.6000;0.9337;0.0829;
-132.3000;0.9353;0.0782;
-132.0000;0.9345;0.0758;
-131.7000;0.9361;0.0782;
-131.4000;0.9361;0.0782;
-131.1000;0.9337;0.0806;
-130.8000;0.9418;0.1066;
-130.5000;0.9337;0.0900;
-130.2000;0.9361;0.0971;
-129.9000;0.9337;0.0995;
-129.6000;0.9353;0.0971;
-129.3000;0.9337;0.0948;
-129.0000;0.9353;0.0948;
-128.7000;0.9353;0.0877;
-128.4000;0.9320;0.0829;
-128.1000;0.9337;0.0829;
-127.8000;0.9361;0.0687;
-127.5000;0.9337;0.0663;
-127.2000;0.9361;0.0687;
-126.9000;0.9353;0.0711;
-126.6000;0.9361;0.0663;
-126.3000;0.9369;0.0734;
-126.0000;0.9337;0.0758;
-125.7000;0.9353;0.0663;
-125.4000;0.9353;0.0687;
-125.1000;0.9369;0.0829;
-124.8000;0.9353;0.0782;
-124.5000;0.9353;0.0806;
-124.2000;0.9353;0.0806;
-123.9000;0.9353;0.0806;
-123.6000;0.9353;0.0900;
-123.3000;0.9345;0.0900;
-123.0000;0.9337;0.0924;
-122.7000;0.9345;0.0877;
-122.4000;0.9369;0.0900;
-122.1000;0.9353;0.0829;
-121.8000;0.9353;0.0853;
-121.5000;0.9353;0.0853;
-121.2000;0.9296;0.0687;
-120.9000;0.9353;0.0853;
-120.6000;0.9328;0.0853;
-120.3000;0.9361;0.0900;
-120.0000;0.9345;0.0829;
-119.7000;0.9361;0.0829;
-119.4000;0.9353;0.0758;
-119.1000;0.9361;0.0782;
-118.8000;0.9353;0.0734;
-118.5000;0.9353;0.0829;
-118.2000;0.9320;0.0829;
-117.9000;0.9345;0.0806;
-117.6000;0.9361;0.0782;
-117.3000;0.9353;0.0758;
-117.0000;0.9345;0.0711;
-116.7000;0.9345;0.0711;
-116.4000;0.9345;0.0687;
-116.1000;0.9345;0.0782;
-115.8000;0.9353;0.0758;
-115.5000;0.9345;0.0782;
-115.2000;0.9369;0.0829;
-114.9000;0.9394;0.0877;
-114.6000;0.9410;0.0948;
-114.3000;0.9345;0.0734;
-114.0000;0.9353;0.0663;
-113.7000;0.9353;0.0734;
-113.4000;0.9418;0.0948;
-113.1000;0.9337;0.0829;
-112.8000;0.9337;0.0806;
-112.5000;0.9345;0.0782;
-112.2000;0.9353;0.0782;
-111.9000;0.9337;0.0806;
-111.6000;0.9353;0.0971;
-111.3000;0.9328;0.0995;
-111.0000;0.9377;0.0971;
-110.7000;0.9353;0.0900;
-110.4000;0.9328;0.0853;
-110.1000;0.9402;0.1042;
-109.8000;0.9369;0.0948;
-109.5000;0.9353;0.0948;
-109.2000;0.9353;0.0924;
-108.9000;0.9345;0.0948;
-108.6000;0.9345;0.1019;
-108.3000;0.9377;0.1066;
-108.0000;0.9377;0.1066;
-107.7000;0.9320;0.0971;
-107.4000;0.9337;0.1042;
-107.1000;0.9361;0.1042;
-106.8000;0.9345;0.1019;
-106.5000;0.9345;0.0948;
-106.2000;0.9337;0.0924;
-105.9000;0.9369;0.0995;
-105.6000;0.9353;0.0877;
-105.3000;0.9337;0.0853;
-105.0000;0.9410;0.1019;
-104.7000;0.9345;0.0806;
-104.4000;0.9410;0.0995;
-104.1000;0.9320;0.0782;
-103.8000;0.9328;0.0782;
-103.5000;0.9345;0.0782;
-103.2000;0.9337;0.0829;
-102.9000;0.9320;0.0853;
-102.6000;0.9337;0.0900;
-102.3000;0.9337;0.0924;
-102.0000;0.9320;0.0948;
-101.7000;0.9345;0.1042;
-101.4000;0.9337;0.0995;
-101.1000;0.9353;0.0971;
-100.8000;0.9353;0.0971;
-100.5000;0.9353;0.0971;
-100.2000;0.9377;0.0995;
-99.9000;0.9304;0.0734;
-99.6000;0.9353;0.0853;
-99.3000;0.9361;0.0948;
-99.0000;0.9377;0.1042;
-98.7000;0.9353;0.0924;
-98.4000;0.9345;0.0877;
-98.1000;0.9361;0.0948;
-97.8000;0.9385;0.1042;
-97.5000;0.9337;0.0971;
-97.2000;0.9361;0.0995;
-96.9000;0.9353;0.1019;
-96.6000;0.9377;0.1042;
-96.3000;0.9345;0.0971;
-96.0000;0.9369;0.0948;
-95.7000;0.9353;0.0829;
-95.4000;0.9345;0.0829;
-95.1000;0.9353;0.0877;
-94.8000;0.9353;0.0995;
-94.5000;0.9361;0.1042;
-94.2000;0.9361;0.1019;
-93.9000;0.9345;0.0924;
-93.6000;0.9345;0.0948;
-93.3000;0.9345;0.0995;
-93.0000;0.9361;0.0948;
-92.7000;0.9361;0.0900;
-92.4000;0.9304;0.0687;
-92.1000;0.9288;0.0640;
-91.8000;0.9345;0.0711;
-91.5000;0.9353;0.0806;
-91.2000;0.9337;0.0782;
-90.9000;0.9337;0.0806;
-90.6000;0.9394;0.0924;
-90.3000;0.9353;0.0758;
-90.0000;0.9361;0.0758;
-89.7000;0.9361;0.0829;
-89.4000;0.9345;0.0782;
-89.1000;0.9337;0.0711;
-88.8000;0.9353;0.0806;
-88.5000;0.9353;0.0806;
-88.2000;0.9361;0.0711;
-87.9000;0.9345;0.0734;
-87.6000;0.9353;0.0806;
-87.3000;0.9337;0.0758;
-87.0000;0.9337;0.0782;
-86.7000;0.9345;0.0806;
-86.4000;0.9353;0.0758;
-86.1000;0.9337;0.0663;
-85.8000;0.9328;0.0592;
-85.5000;0.9345;0.0640;
-85.2000;0.9369;0.0711;
-84.9000;0.9345;0.0687;
-84.6000;0.9312;0.0592;
-84.3000;0.9353;0.0592;
-84.0000;0.9345;0.0474;
-83.7000;0.9304;0.0498;
-83.4000;0.9385;0.0616;
-83.1000;0.9353;0.0498;
-82.8000;0.9361;0.0545;
-82.5000;0.9385;0.0616;
-82.2000;0.9353;0.0545;
-81.9000;0.9337;0.0498;
-81.6000;0.9320;0.0498;
-81.3000;0.9345;0.0616;
-81.0000;0.9288;0.0569;
-80.7000;0.9337;0.0711;
-80.4000;0.9337;0.0640;
-80.1000;0.9328;0.0663;
-79.8000;0.9353;0.0687;
-79.5000;0.9345;0.0640;
-79.2000;0.9345;0.0687;
-78.9000;0.9345;0.0687;
-78.6000;0.9353;0.0782;
-78.3000;0.9353;0.0734;
-78.0000;0.9353;0.0806;
-77.7000;0.9451;0.1042;
-77.4000;0.9353;0.0877;
-77.1000;0.9361;0.0877;
-76.8000;0.9337;0.0734;
-76.5000;0.9328;0.0734;
-76.2000;0.9353;0.0758;
-75.9000;0.9353;0.0734;
-75.6000;0.9353;0.0734;
-75.3000;0.9328;0.0734;
-75.0000;0.9361;0.0806;
-74.7000;0.9361;0.0806;
-74.4000;0.9345;0.0924;
-74.1000;0.9385;0.1042;
-73.8000;0.9353;0.0924;
-73.5000;0.9361;0.0900;
-73.2000;0.9353;0.0877;
-72.9000;0.9337;0.0948;
-72.6000;0.9328;0.0995;
-72.3000;0.9353;0.1090;
-72.0000;0.9312;0.0853;
-71.7000;0.9337;0.0924;
-71.4000;0.9361;0.0877;
-71.1000;0.9385;0.0900;
-70.8000;0.9345;0.0829;
-70.5000;0.9345;0.0853;
-70.2000;0.9320;0.0829;
-69.9000;0.9312;0.0829;
-69.6000;0.9328;0.0877;
-69.3000;0.9320;0.0758;
-69.0000;0.9296;0.0640;
-68.7000;0.9361;0.0829;
-68.4000;0.9345;0.0806;
-68.1000;0.9353;0.0829;
-67.8000;0.9296;0.0782;
-67.5000;0.9337;0.0853;
-67.2000;0.9353;0.0853;
-66.9000;0.9345;0.0806;
-66.6000;0.9337;0.0758;
-66.3000;0.9345;0.0687;
-66.0000;0.9345;0.0758;
-65.7000;0.9337;0.0758;
-65.4000;0.9345;0.0782;
-65.1000;0.9345;0.0734;
-64.8000;0.9337;0.0711;
-64.5000;0.9353;0.0687;
-64.2000;0.9361;0.0782;
-63.9000;0.9337;0.0758;
-63.6000;0.9369;0.0853;
-63.3000;0.9345;0.0663;
-63.0000;0.9361;0.0734;
-62.7000;0.9345;0.0758;
-62.4000;0.9345;0.0734;
-62.1000;0.9353;0.0663;
-61.8000;0.9353;0.0616;
-61.5000;0.9345;0.0545;
-61.2000;0.9418;0.0711;
-60.9000;0.9353;0.0545;
-60.6000;0.9288;0.0355;
-60.3000;0.9328;0.0450;
-60.0000;0.9345;0.0474;
-59.7000;0.9312;0.0450;
-59.4000;0.9353;0.0498;
-59.1000;0.9353;0.0498;
-58.8000;0.9337;0.0450;
-58.5000;0.9345;0.0450;
-58.2000;0.9345;0.0521;
-57.9000;0.9328;0.0545;
-57.6000;0.9361;0.0592;
-57.3000;0.9345;0.0474;
-57.0000;0.9353;0.0545;
-56.7000;0.9337;0.0569;
-56.4000;0.9426;0.0734;
-56.1000;0.9361;0.0640;
-55.8000;0.9280;0.0498;
-55.5000;0.9328;0.0782;
-55.2000;0.9353;0.0900;
-54.9000;0.9337;0.0853;
-54.6000;0.9353;0.0877;
-54.3000;0.9328;0.0853;
-54.0000;0.9361;0.0971;
-53.7000;0.9337;0.0900;
-53.4000;0.9353;0.0758;
-53.1000;0.9361;0.0734;
-52.8000;0.9361;0.0711;
-52.5000;0.9361;0.0782;
-52.2000;0.9345;0.0758;
-51.9000;0.9369;0.0877;
-51.6000;0.9353;0.0829;
-51.3000;0.9353;0.0711;
-51.0000;0.9345;0.0640;
-50.7000;0.9369;0.0687;
-50.4000;0.9345;0.0687;
-50.1000;0.9369;0.0663;
-49.8000;0.9345;0.0616;
-49.5000;0.9361;0.0592;
-49.2000;0.9345;0.0545;
-48.9000;0.9337;0.0545;
-48.6000;0.9328;0.0569;
-48.3000;0.9328;0.0569;
-48.0000;0.9353;0.0569;
-47.7000;0.9328;0.0545;
-47.4000;0.9337;0.0545;
-47.1000;0.9320;0.0450;
-46.8000;0.9345;0.0450;
-46.5000;0.9369;0.0545;
-46.2000;0.9337;0.0545;
-45.9000;0.9353;0.0498;
-45.6000;0.9353;0.0474;
-45.3000;0.9353;0.0521;
-45.0000;0.9280;0.0403;
-44.7000;0.9345;0.0521;
-44.4000;0.9369;0.0616;
-44.1000;0.9361;0.0687;
-43.8000;0.9345;0.0711;
-43.5000;0.9312;0.0616;
-43.2000;0.9353;0.0545;
-42.9000;0.9353;0.0521;
-42.6000;0.9361;0.0450;
-42.3000;0.9337;0.0308;
-42.0000;0.9361;0.0403;
-41.7000;0.9369;0.0450;
-41.4000;0.9361;0.0545;
-41.1000;0.9280;0.0332;
-40.8000;0.9369;0.0592;
-40.5000;0.9369;0.0711;
-40.2000;0.9328;0.0521;
-39.9000;0.9418;0.0734;
-39.6000;0.9345;0.0569;
-39.3000;0.9353;0.0498;
-39.0000;0.9361;0.0569;
-38.7000;0.9361;0.0592;
-38.4000;0.9361;0.0663;
-38.1000;0.9402;0.0782;
-37.8000;0.9328;0.0640;
-37.5000;0.9361;0.0616;
-37.2000;0.9337;0.0592;
-36.9000;0.9345;0.0640;
-36.6000;0.9328;0.0616;
-36.3000;0.9345;0.0498;
-36.0000;0.9369;0.0450;
-35.7000;0.9361;0.0474;
-35.4000;0.9369;0.0498;
-35.1000;0.9345;0.0569;
-34.8000;0.9304;0.0498;
-34.5000;0.9345;0.0640;
-34.2000;0.9361;0.0734;
-33.9000;0.9369;0.0806;
-33.6000;0.9345;0.0687;
-33.3000;0.9304;0.0663;
-33.0000;0.9337;0.0806;
-32.7000;0.9337;0.0853;
-32.4000;0.9337;0.0877;
-32.1000;0.9353;0.0853;
-31.8000;0.9337;0.0829;
-31.5000;0.9345;0.0758;
-31.2000;0.9369;0.0782;
-30.9000;0.9361;0.0734;
-30.6000;0.9328;0.0711;
-30.3000;0.9353;0.0734;
-30.0000;0.9361;0.0758;
-29.7000;0.9353;0.0711;
-29.4000;0.9369;0.0782;
-29.1000;0.9361;0.0877;
-28.8000;0.9353;0.0948;
-28.5000;0.9345;0.0971;
-28.2000;0.9337;0.0782;
-27.9000;0.9361;0.0806;
-27.6000;0.9361;0.0758;
-27.3000;0.9328;0.0782;
-27.0000;0.9353;0.0853;
-26.7000;0.9345;0.0948;
-26.4000;0.9345;0.0971;
-26.1000;0.9345;0.0924;
-25.8000;0.9345;0.0971;
-25.5000;0.9337;0.0900;
-25.2000;0.9361;0.1019;
-24.9000;0.9361;0.0948;
-24.6000;0.9353;0.0877;
-24.3000;0.9353;0.0853;
-24.0000;0.9353;0.0853;
-23.7000;0.9361;0.0782;
-23.4000;0.9369;0.0734;
-23.1000;0.9328;0.0734;
-22.8000;0.9320;0.0734;
-22.5000;0.9328;0.0806;
-22.2000;0.9353;0.0853;
-21.9000;0.9345;0.0971;
-21.6000;0.9345;0.0995;
-21.3000;0.9337;0.0924;
-21.0000;0.9345;0.0877;
-20.7000;0.9361;0.0877;
-20.4000;0.9296;0.0758;
-20.1000;0.9353;0.0877;
-19.8000;0.9353;0.0782;
-19.5000;0.9410;0.0829;
-19.2000;0.9361;0.0640;
-18.9000;0.9328;0.0521;
-18.6000;0.9369;0.0521;
-18.3000;0.9418;0.0569;
-18.0000;0.9345;0.0355;
-17.7000;0.9361;0.0332;
-17.4000;0.9402;0.0403;
-17.1000;0.9345;0.0379;
-16.8000;0.9394;0.0569;
-16.5000;0.9345;0.0498;
-16.2000;0.9337;0.0545;
-15.9000;0.9369;0.0569;
-15.6000;0.9369;0.0545;
-15.3000;0.9410;0.0569;
-15.0000;0.9353;0.0521;
-14.7000;0.9369;0.0592;
-14.4000;0.9361;0.0592;
-14.1000;0.9353;0.0498;
-13.8000;0.9402;0.0545;
-13.5000;0.9361;0.0474;
-13.2000;0.9345;0.0663;
-12.9000;0.9353;0.0734;
-12.6000;0.9361;0.0829;
-12.3000;0.9320;0.0758;
-12.0000;0.9345;0.0758;
-11.7000;0.9328;0.0734;
-11.4000;0.9337;0.0687;
-11.1000;0.9434;0.0924;
-10.8000;0.9312;0.0640;
-10.5000;0.9361;0.0734;
-10.2000;0.9345;0.0758;
-9.9000;0.9353;0.0877;
-9.6000;0.9345;0.0900;
-9.3000;0.9337;0.0877;
-9.0000;0.9345;0.0853;
-8.7000;0.9337;0.0853;
-8.4000;0.9353;0.0900;
-8.1000;0.9353;0.0900;
-7.8000;0.9328;0.0806;
-7.5000;0.9328;0.0900;
-7.2000;0.9345;0.0900;
-6.9000;0.9337;0.0829;
-6.6000;0.9337;0.0711;
-6.3000;0.9353;0.0663;
-6.0000;0.9288;0.0521;
-5.7000;0.9328;0.0663;
-5.4000;0.9337;0.0640;
-5.1000;0.9345;0.0640;
-4.8000;0.9337;0.0687;
-4.5000;0.9337;0.0663;
-4.2000;0.9353;0.0734;
-3.9000;0.9337;0.0711;
-3.6000;0.9345;0.0663;
-3.3000;0.9345;0.0758;
-3.0000;0.9353;0.0782;
-2.7000;0.9361;0.0711;
-2.4000;0.9361;0.0616;
-2.1000;0.9353;0.0569;
-1.8000;0.9369;0.0640;
-1.5000;0.9288;0.0498;
-1.2000;0.9353;0.0569;
-0.9000;0.9337;0.0592;
-0.6000;0.9337;0.0521;
-0.3000;0.9328;0.0426;
0.0000;0.9328;0.0426;
0.3000;0.9418;0.0190;
0.6000;0.9475;0.0711;
0.9000;0.9499;0.1042;
1.2000;0.9540;0.1469;
1.5000;0.9532;0.1635;
1.8000;0.9597;0.2038;
2.1000;0.9613;0.2251;
2.4000;0.9605;0.2488;
2.7000;0.9630;0.2583;
3.0000;0.9646;0.2725;
3.3000;0.9638;0.2772;
3.6000;0.9678;0.2867;
3.9000;0.9670;0.2914;
4.2000;0.9687;0.3056;
4.5000;0.9703;0.3175;
4.8000;0.9621;0.2985;
5.1000;0.9695;0.3175;
5.4000;0.9695;0.3104;
5.7000;0.9678;0.2938;
6.0000;0.9711;0.3080;
6.3000;0.9711;0.3246;
6.6000;0.9711;0.3270;
6.9000;0.9744;0.3435;
7.2000;0.9735;0.3435;
7.5000;0.9719;0.3246;
7.8000;0.9703;0.3199;
8.1000;0.9719;0.3293;
8.4000;0.9678;0.3222;
8.7000;0.9744;0.3341;
9.0000;0.9727;0.3364;
9.3000;0.9662;0.3293;
9.6000;0.9735;0.3483;
9.9000;0.9760;0.3483;
10.2000;0.9735;0.3412;
10.5000;0.9727;0.3435;
10.8000;0.9735;0.3459;
11.1000;0.9703;0.3364;
11.4000;0.9768;0.3530;
11.7000;0.9752;0.3507;
12.0000;0.9752;0.3507;
12.3000;0.9776;0.3554;
12.6000;0.9711;0.3412;
12.9000;0.9760;0.3412;
13.2000;0.9752;0.3412;
13.5000;0.9752;0.3435;
13.8000;0.9768;0.3412;
14.1000;0.9768;0.3388;
14.4000;0.9752;0.3270;
14.7000;0.9760;0.3293;
15.0000;0.9768;0.3341;
15.3000;0.9752;0.3270;
15.6000;0.9735;0.3175;
15.9000;0.9744;0.3270;
16.2000;0.9776;0.3435;
16.5000;0.9760;0.3388;
16.8000;0.9760;0.3435;
17.1000;0.9776;0.3507;
17.4000;0.9776;0.3530;
17.7000;0.9768;0.3483;
18.0000;0.9776;0.3459;
18.3000;0.9760;0.3435;
18.6000;0.9776;0.3483;
18.9000;0.9760;0.3483;
19.2000;0.9776;0.3459;
19.5000;0.9768;0.3459;
19.8000;0.9784;0.3459;
20.1000;0.9776;0.3412;
20.4000;0.9784;0.3293;
20.7000;0.9768;0.3199;
21.0000;0.9776;0.3246;
21.3000;0.9801;0.3317;
21.6000;0.9801;0.3293;
21.9000;0.9768;0.3246;
22.2000;0.9768;0.3270;
22.5000;0.9784;0.3341;
22.8000;0.9784;0.3246;
23.1000;0.9719;0.3104;
23.4000;0.9776;0.3222;
23.7000;0.9768;0.3246;
24.0000;0.9792;0.3317;
24.3000;0.9776;0.3270;
24.6000;0.9760;0.3270;
24.9000;0.9776;0.3270;
25.2000;0.9768;0.3270;
25.5000;0.9776;0.3293;
25.8000;0.9744;0.3246;
26.1000;0.9776;0.3270;
26.4000;0.9752;0.3270;
26.7000;0.9784;0.3459;
27.0000;0.9768;0.3435;
27.3000;0.9792;0.3459;
27.6000;0.9744;0.3341;
27.9000;0.9792;0.3435;
28.2000;0.9776;0.3412;
28.5000;0.9752;0.3388;
28.8000;0.9776;0.3483;
29.1000;0.9801;0.3435;
29.4000;0.9792;0.3341;
29.7000;0.9792;0.3270;
30.0000;0.9817;0.3412;
30.3000;0.9825;0.3459;
30.6000;0.9776;0.3435;
30.9000;0.9768;0.3435;
31.2000;0.9784;0.3364;
31.5000;0.9776;0.3341;
31.8000;0.9744;0.3388;
32.1000;0.9801;0.3459;
32.4000;0.9776;0.3388;
32.7000;0.9784;0.3341;
33.0000;0.9801;0.3341;
33.3000;0.9776;0.3364;
33.6000;0.9776;0.3388;
33.9000;0.9833;0.3435;
34.2000;0.9792;0.3412;
34.5000;0.9817;0.3459;
34.8000;0.9792;0.3412;
35.1000;0.9784;0.3435;
35.4000;0.9784;0.3483;
35.7000;0.9727;0.3341;
36.0000;0.9760;0.3483;
36.3000;0.9760;0.3601;
36.6000;0.9776;0.3672;
36.9000;0.9784;0.3578;
37.2000;0.9776;0.3578;
37.5000;0.9849;0.3720;
37.8000;0.9792;0.3578;
38.1000;0.9792;0.3483;
38.4000;0.9776;0.3412;
38.7000;0.9784;0.3388;
39.0000;0.9792;0.3412;
39.3000;0.9801;0.3507;
39.6000;0.9792;0.3554;
39.9000;0.9752;0.3435;
40.2000;0.9801;0.3483;
40.5000;0.9792;0.3507;
40.8000;0.9792;0.3483;
41.1000;0.9776;0.3435;
41.4000;0.9792;0.3507;
41.7000;0.9809;0.3554;
42.0000;0.9784;0.3530;
42.3000;0.9809;0.3601;
42.6000;0.9776;0.3554;
42.9000;0.9776;0.3625;
43.2000;0.9809;0.3696;
43.5000;0.9801;0.3601;
43.8000;0.9784;0.3601;
44.1000;0.9792;0.3649;
44.4000;0.9792;0.3625;
44.7000;0.9801;0.3601;
45.0000;0.9719;0.3341;
45.3000;0.9809;0.3601;
45.6000;0.9768;0.3507;
45.9000;0.9784;0.3601;
46.2000;0.9817;0.3649;
46.5000;0.9776;0.3435;
46.8000;0.9776;0.3412;
47.1000;0.9784;0.3412;
47.4000;0.9768;0.3459;
47.7000;0.9776;0.3459;
48.0000;0.9760;0.3483;
48.3000;0.9784;0.3601;
48.6000;0.9784;0.3507;
48.9000;0.9768;0.3388;
49.2000;0.9784;0.3364;
49.5000;0.9784;0.3317;
49.8000;0.9792;0.3270;
50.1000;0.9768;0.3246;
50.4000;0.9776;0.3341;
50.7000;0.9792;0.3364;
51.0000;0.9801;0.3412;
51.3000;0.9776;0.3388;
51.6000;0.9711;0.3317;
51.9000;0.9801;0.3530;
52.2000;0.9776;0.3459;
52.5000;0.9784;0.3483;
52.8000;0.9711;0.3270;
53.1000;0.9801;0.3483;
53.4000;0.9768;0.3412;
53.7000;0.9768;0.3412;
54.0000;0.9784;0.3459;
54.3000;0.9776;0.3412;
54.6000;0.9760;0.3317;
54.9000;0.9776;0.3364;
55.2000;0.9776;0.3341;
55.5000;0.9792;0.3341;
55.8000;0.9768;0.3293;
56.1000;0.9801;0.3341;
56.4000;0.9735;0.3199;
56.7000;0.9776;0.3341;
57.0000;0.9768;0.3293;
57.3000;0.9792;0.3341;
57.6000;0.9760;0.3388;
57.9000;0.9752;0.3578;
58.2000;0.9825;0.3696;
58.5000;0.9784;0.3530;
58.8000;0.9801;0.3483;
59.1000;0.9760;0.3412;
59.4000;0.9776;0.3412;
59.7000;0.9760;0.3364;
60.0000;0.9776;0.3364;
60.3000;0.9768;0.3364;
60.6000;0.9768;0.3388;
60.9000;0.9784;0.3435;
61.2000;0.9768;0.3388;
61.5000;0.9768;0.3507;
61.8000;0.9768;0.3483;
62.1000;0.9768;0.3554;
62.4000;0.9768;0.3507;
62.7000;0.9760;0.3483;
63.0000;0.9760;0.3530;
63.3000;0.9760;0.3554;
63.6000;0.9792;0.3530;
63.9000;0.9776;0.3507;
64.2000;0.9768;0.3435;
64.5000;0.9719;0.3341;
64.8000;0.9752;0.3507;
65.1000;0.9784;0.3554;
65.4000;0.9768;0.3578;
65.7000;0.9752;0.3578;
66.0000;0.9833;0.3744;
66.3000;0.9768;0.3625;
66.6000;0.9784;0.3625;
66.9000;0.9760;0.3578;
67.2000;0.9776;0.3554;
67.5000;0.9801;0.3601;
67.8000;0.9768;0.3507;
68.1000;0.9776;0.3554;
68.4000;0.9768;0.3483;
68.7000;0.9776;0.3483;
69.0000;0.9768;0.3412;
69.3000;0.9768;0.3507;
69.6000;0.9768;0.3578;
69.9000;0.9768;0.3601;
70.2000;0.9784;0.3672;
70.5000;0.9776;0.3649;
70.8000;0.9768;0.3554;
71.1000;0.9776;0.3601;
71.4000;0.9784;0.3649;
71.7000;0.9744;0.3483;
72.0000;0.9760;0.3459;
72.3000;0.9735;0.3435;
72.6000;0.9784;0.3649;
72.9000;0.9768;0.3696;
73.2000;0.9784;0.3767;
73.5000;0.9687;0.3483;
73.8000;0.9792;0.3744;
74.1000;0.9792;0.3649;
74.4000;0.9760;0.3578;
74.7000;0.9760;0.3649;
75.0000;0.9776;0.3744;
75.3000;0.9768;0.3744;
75.6000;0.9768;0.3720;
75.9000;0.9784;0.3767;
76.2000;0.9776;0.3744;
76.5000;0.9768;0.3672;
76.8000;0.9768;0.3625;
77.1000;0.9744;0.3578;
77.4000;0.9776;0.3625;
77.7000;0.9809;0.3672;
78.0000;0.9760;0.3672;
78.3000;0.9768;0.3767;
78.6000;0.9752;0.3767;
78.9000;0.9760;0.3838;
79.2000;0.9760;0.3767;
79.5000;0.9768;0.3744;
79.8000;0.9768;0.3720;
80.1000;0.9784;0.3720;
80.4000;0.9776;0.3720;
80.7000;0.9776;0.3672;
81.0000;0.9760;0.3625;
81.3000;0.9760;0.3696;
81.6000;0.9768;0.3672;
81.9000;0.9760;0.3672;
82.2000;0.9744;0.3649;
82.5000;0.9752;0.3649;
82.8000;0.9744;0.3672;
83.1000;0.9752;0.3672;
83.4000;0.9760;0.3672;
83.7000;0.9776;0.3672;
84.0000;0.9752;0.3601;
84.3000;0.9752;0.3625;
84.6000;0.9752;0.3625;
84.9000;0.9760;0.3649;
85.2000;0.9768;0.3601;
85.5000;0.9768;0.3696;
85.8000;0.9768;0.3672;
86.1000;0.9744;0.3625;
86.4000;0.9752;0.3601;
86.7000;0.9776;0.3601;
87.0000;0.9768;0.3578;
87.3000;0.9735;0.3507;
87.6000;0.9752;0.3554;
87.9000;0.9768;0.3601;
88.2000;0.9776;0.3696;
88.5000;0.9752;0.3744;
88.8000;0.9760;0.3720;
89.1000;0.9768;0.3720;
89.4000;0.9768;0.3720;
89.7000;0.9768;0.3720;
90.0000;0.9752;0.3696;
90.3000;0.9760;0.3696;
90.6000;0.9776;0.3767;
90.9000;0.9768;0.3672;
91.2000;0.9727;0.3578;
91.5000;0.9760;0.3649;
91.8000;0.9768;0.3554;
92.1000;0.9768;0.3483;
92.4000;0.9760;0.3554;
92.7000;0.9768;0.3554;
93.0000;0.9760;0.3435;
93.3000;0.9727;0.3341;
93.6000;0.9768;0.3459;
93.9000;0.9735;0.3341;
94.2000;0.9744;0.3435;
94.5000;0.9752;0.3530;
94.8000;0.9752;0.3601;
95.1000;0.9744;0.3625;
95.4000;0.9760;0.3601;
95.7000;0.9735;0.3601;
96.0000;0.9744;0.3554;
96.3000;0.9752;0.3554;
96.6000;0.9752;0.3530;
96.9000;0.9768;0.3625;
97.2000;0.9784;0.3696;
97.5000;0.9776;0.3696;
97.8000;0.9719;0.3530;
98.1000;0.9760;0.3649;
98.4000;0.9752;0.3625;
98.7000;0.9752;0.3649;
99.0000;0.9744;0.3601;
99.3000;0.9752;0.3578;
99.6000;0.9744;0.3554;
99.9000;0.9752;0.3530;
100.2000;0.9768;0.3530;
100.5000;0.9735;0.3507;
100.8000;0.9752;0.3530;
101.1000;0.9752;0.3530;
101.4000;0.9784;0.3459;
101.7000;0.9760;0.3435;
102.0000;0.9752;0.3459;
102.3000;0.9752;0.3412;
102.6000;0.9760;0.3364;
102.9000;0.9760;0.3341;
103.2000;0.9752;0.3270;
103.5000;0.9760;0.3246;
103.8000;0.9768;0.3199;
104.1000;0.9744;0.3175;
104.4000;0.9744;0.3293;
104.7000;0.9752;0.3412;
105.0000;0.9760;0.3483;
105.3000;0.9735;0.3530;
105.6000;0.9744;0.3507;
105.9000;0.9760;0.3601;
106.2000;0.9760;0.3625;
106.5000;0.9760;0.3625;
106.8000;0.9752;0.3530;
107.1000;0.9752;0.3507;
107.4000;0.9760;0.3554;
107.7000;0.9744;0.3507;
108.0000;0.9662;0.3199;
108.3000;0.9760;0.3435;
108.6000;0.9809;0.3625;
108.9000;0.9776;0.3554;
109.2000;0.9752;0.3554;
109.5000;0.9752;0.3601;
109.8000;0.9744;0.3601;
110.1000;0.9744;0.3530;
110.4000;0.9744;0.3530;
110.7000;0.9752;0.3578;
111.0000;0.9760;0.3554;
111.3000;0.9760;0.3578;
111.6000;0.9760;0.3578;
111.9000;0.9744;0.3507;
112.2000;0.9768;0.3507;
112.5000;0.9768;0.3435;
112.8000;0.9744;0.3435;
113.1000;0.9744;0.3364;
113.4000;0.9744;0.3317;
113.7000;0.9760;0.3293;
114.0000;0.9744;0.3341;
114.3000;0.9744;0.3270;
114.6000;0.9719;0.3246;
114.9000;0.9735;0.3246;
115.2000;0.9727;0.3246;
115.5000;0.9727;0.3246;
115.8000;0.9711;0.3246;
116.1000;0.9735;0.3364;
116.4000;0.9784;0.3435;
116.7000;0.9744;0.3364;
117.0000;0.9735;0.3435;
117.3000;0.9744;0.3459;
117.6000;0.9776;0.3459;
117.9000;0.9752;0.3364;
118.2000;0.9752;0.3317;
118.5000;0.9825;0.3483;
118.8000;0.9768;0.3412;
119.1000;0.9752;0.3388;
119.4000;0.9735;0.3435;
119.7000;0.9744;0.3459;
120.0000;0.9752;0.3412;
120.3000;0.9735;0.3246;
120.6000;0.9735;0.3341;
120.9000;0.9727;0.3341;
121.2000;0.9768;0.3388;
121.5000;0.9752;0.3364;
121.8000;0.9760;0.3483;
122.1000;0.9760;0.3435;
122.4000;0.9744;0.3459;
122.7000;0.9744;0.3507;
123.0000;0.9744;0.3530;
123.3000;0.9744;0.3530;
123.6000;0.9735;0.3601;
123.9000;0.9752;0.3507;
124.2000;0.9760;0.3459;
124.5000;0.9768;0.3412;
124.8000;0.9760;0.3483;
125.1000;0.9735;0.3435;
125.4000;0.9744;0.3412;
125.7000;0.9744;0.3412;
126.0000;0.9727;0.3293;
126.3000;0.9809;0.3578;
126.6000;0.9735;0.3435;
126.9000;0.9719;0.3412;
127.2000;0.9735;0.3459;
127.5000;0.9760;0.3507;
127.8000;0.9735;0.3412;
128.1000;0.9760;0.3459;
128.4000;0.9752;0.3459;
128.7000;0.9768;0.3530;
129.0000;0.9744;0.3578;
129.3000;0.9744;0.3578;
129.6000;0.9744;0.3649;
129.9000;0.9719;0.3530;
130.2000;0.9711;0.3507;
130.5000;0.9735;0.3578;
130.8000;0.9752;0.3578;
131.1000;0.9752;0.3554;
131.4000;0.9752;0.3554;
131.7000;0.9752;0.3625;
132.0000;0.9752;0.3601;
132.3000;0.9727;0.3554;
132.6000;0.9735;0.3601;
132.9000;0.9752;0.3672;
133.2000;0.9735;0.3601;
133.5000;0.9752;0.3696;
133.8000;0.9744;0.3696;
134.1000;0.9760;0.3625;
134.4000;0.9752;0.3530;
134.7000;0.9735;0.3388;
135.0000;0.9719;0.3293;
135.3000;0.9719;0.3317;
135.6000;0.9760;0.3388;
135.9000;0.9744;0.3435;
136.2000;0.9727;0.3388;
136.5000;0.9752;0.3435;
136.8000;0.9760;0.3507;
137.1000;0.9727;0.3388;
137.4000;0.9744;0.3412;
137.7000;0.9727;0.3388;
138.0000;0.9735;0.3459;
138.3000;0.9735;0.3507;
138.6000;0.9744;0.3578;
138.9000;0.9752;0.3530;
139.2000;0.9801;0.3601;
139.5000;0.9768;0.3554;
139.8000;0.9744;0.3459;
140.1000;0.9735;0.3435;
140.4000;0.9768;0.3625;
140.7000;0.9744;0.3507;
141.0000;0.9744;0.3483;
141.3000;0.9727;0.3412;
141.6000;0.9752;0.3530;
141.9000;0.9752;0.3530;
142.2000;0.9727;0.3507;
142.5000;0.9744;0.3601;
142.8000;0.9744;0.3507;
143.1000;0.9735;0.3578;
143.4000;0.9768;0.3649;
143.7000;0.9776;0.3625;
144.0000;0.9727;0.3530;
144.3000;0.9744;0.3530;
144.6000;0.9735;0.3554;
144.9000;0.9727;0.3507;
145.2000;0.9711;0.3507;
145.5000;0.9719;0.3672;
145.8000;0.9727;0.3649;
146.1000;0.9719;0.3672;
146.4000;0.9703;0.3696;
146.7000;0.9727;0.3720;
147.0000;0.9760;0.3791;
147.3000;0.9719;0.3672;
147.6000;0.9760;0.3720;
147.9000;0.9703;0.3554;
148.2000;0.9760;0.3720;
148.5000;0.9760;0.3767;
148.8000;0.9744;0.3720;
149.1000;0.9735;0.3720;
149.4000;0.9784;0.3815;
149.7000;0.9744;0.3744;
150.0000;0.9678;0.3578;
150.3000;0.9735;0.3744;
150.6000;0.9711;0.3744;
150.9000;0.9703;0.3720;
151.2000;0.9735;0.3815;
151.5000;0.9695;0.3744;
151.8000;0.9719;0.3815;
152.1000;0.9744;0.3909;
152.4000;0.9744;0.3933;
152.7000;0.9744;0.3862;
153.0000;0.9744;0.3744;
153.3000;0.9760;0.3815;
153.6000;0.9711;0.3649;
153.9000;0.9727;0.3696;
154.2000;0.9744;0.3744;
154.5000;0.9695;0.3601;
154.8000;0.9735;0.3744;
155.1000;0.9744;0.3767;
155.4000;0.9760;0.3791;
155.7000;0.9727;0.3744;
156.0000;0.9719;0.3672;
156.3000;0.9752;0.3744;
156.6000;0.9711;0.3649;
156.9000;0.9760;0.3672;
157.2000;0.9752;0.3649;
157.5000;0.9727;0.3554;
157.8000;0.9735;0.3530;
158.1000;0.9752;0.3578;
158.4000;0.9727;0.3672;
158.7000;0.9752;0.3696;
159.0000;0.9752;0.3649;
159.3000;0.9735;0.3578;
159.6000;0.9719;0.3601;
159.9000;0.9744;0.3696;
160.2000;0.9752;0.3744;
160.5000;0.9727;0.3744;
160.8000;0.9727;0.3696;
161.1000;0.9744;0.3672;
161.4000;0.9727;0.3649;
161.7000;0.9719;0.3601;
162.0000;0.9735;0.3625;
162.3000;0.9727;0.3649;
162.6000;0.9735;0.3672;
162.9000;0.9662;0.3530;
163.2000;0.9760;0.3767;
163.5000;0.9752;0.3696;
163.8000;0.9801;0.3838;
164.1000;0.9703;0.3530;
164.4000;0.9744;0.3601;
164.7000;0.9744;0.3744;
165.0000;0.9735;0.3696;
165.3000;0.9784;0.3815;
165.6000;0.9760;0.3767;
165.9000;0.9727;0.3672;
166.2000;0.9727;0.3696;
166.5000;0.9646;0.3530;
166.8000;0.9678;0.3625;
167.1000;0.9711;0.3672;
167.4000;0.9727;0.3720;
167.7000;0.9744;0.3744;
168.0000;0.9719;0.3625;
168.3000;0.9719;0.3649;
168.6000;0.9719;0.3649;
168.9000;0.9727;0.3672;
169.2000;0.9776;0.3767;
169.5000;0.9719;0.3578;
169.8000;0.9662;0.3435;
170.1000;0.9703;0.3554;
170.4000;0.9784;0.3720;
170.7000;0.9719;0.3554;
171.0000;0.9727;0.3696;
171.3000;0.9760;0.3838;
171.6000;0.9719;0.3720;
171.9000;0.9735;0.3791;
172.2000;0.9760;0.3838;
172.5000;0.9735;0.3815;
172.8000;0.9727;0.3838;
173.1000;0.9744;0.3909;
173.4000;0.9727;0.3838;
173.7000;0.9719;0.3838;
174.0000;0.9719;0.3791;
174.3000;0.9695;0.3649;
174.6000;0.9719;0.3649;
174.9000;0.9727;0.3649;
175.2000;0.9727;0.3649;
175.5000;0.9744;0.3601;
175.8000;0.9719;0.3483;
176.1000;0.9711;0.3459;
176.4000;0.9727;0.3578;
176.7000;0.9752;0.3578;
177.0000;0.9703;0.3388;
177.3000;0.9719;0.3435;
177.6000;0.9735;0.3530;
177.9000;0.9760;0.3649;
178.2000;0.9735;0.3625;
178.5000;0.9719;0.3578;
178.8000;0.9703;0.3554;
179.1000;0.9727;0.3578;
179.4000;0.9735;0.3649;
179.7000;0.9727;0.3601;
180.0000;0.9735;0.3578;
180.3000;0.9744;0.3601;
180.6000;0.9735;0.3530;
180.9000;0.9719;0.3507;
181.2000;0.9735;0.3601;
181.5000;0.9744;0.3625;
181.8000;0.9670;0.3554;
182.1000;0.9727;0.3744;
182.4000;0.9719;0.3744;
182.7000;0.9735;0.3744;
183.0000;0.9735;0.3696;
183.3000;0.9735;0.3696;
183.6000;0.9719;0.3696;
183.9000;0.9719;0.3649;
184.2000;0.9719;0.3696;
184.5000;0.9735;0.3672;
184.8000;0.9727;0.3649;
185.1000;0.9711;0.3625;
185.4000;0.9719;0.3672;
185.7000;0.9735;0.3696;
186.0000;0.9735;0.3601;
186.3000;0.9735;0.3744;
186.6000;0.9703;0.3625;
186.9000;0.9727;0.3696;
187.2000;0.9735;0.3672;
187.5000;0.9833;0.3815;
187.8000;0.9727;0.3578;
188.1000;0.9727;0.3601;
188.4000;0.9719;0.3554;
188.7000;0.9719;0.3601;
189.0000;0.9727;0.3672;
189.3000;0.9719;0.3625;
189.6000;0.9711;0.3696;
189.9000;0.9711;0.3672;
190.2000;0.9711;0.3625;
190.5000;0.9735;0.3672;
190.8000;0.9703;0.3554;
191.1000;0.9744;0.3720;
191.4000;0.9719;0.3672;
191.7000;0.9776;0.3791;
192.0000;0.9727;0.3767;
192.3000;0.9727;0.3838;
192.6000;0.9719;0.3791;
192.9000;0.9719;0.3815;
193.2000;0.9735;0.3838;
193.5000;0.9735;0.3909;
193.8000;0.9727;0.3909;
194.1000;0.9744;0.3886;
194.4000;0.9719;0.3838;
194.7000;0.9703;0.3744;
195.0000;0.9711;0.3672;
195.3000;0.9662;0.3530;
195.6000;0.9719;0.3625;
195.9000;0.9719;0.3601;
196.2000;0.9719;0.3625;
196.5000;0.9727;0.3625;
196.8000;0.9719;0.3601;
197.1000;0.9719;0.3625;
197.4000;0.9719;0.3601;
197.7000;0.9711;0.3601;
198.0000;0.9711;0.3601;
198.3000;0.9711;0.3672;
198.6000;0.9735;0.3672;
198.9000;0.9719;0.3672;
199.2000;0.9711;0.3625;
199.5000;0.9703;0.3649;
199.8000;0.9719;0.3696;
200.1000;0.9727;0.3649;
200.4000;0.9719;0.3601;
200.7000;0.9719;0.3554;
201.0000;0.9735;0.3554;
201.3000;0.9735;0.3625;
201.6000;0.9719;0.3696;
201.9000;0.9719;0.3649;
202.2000;0.9719;0.3672;
202.5000;0.9711;0.3649;
202.8000;0.9719;0.3720;
203.1000;0.9703;0.3696;
203.4000;0.9719;0.3672;
203.7000;0.9719;0.3672;
204.0000;0.9711;0.3554;
204.3000;0.9703;0.3578;
204.6000;0.9719;0.3554;
204.9000;0.9735;0.3530;
205.2000;0.9719;0.3483;
205.5000;0.9719;0.3625;
205.8000;0.9703;0.3601;
206.1000;0.9735;0.3744;
206.4000;0.9711;0.3720;
206.7000;0.9711;0.3744;
207.0000;0.9719;0.3767;
207.3000;0.9711;0.3625;
207.6000;0.9727;0.3625;
207.9000;0.9687;0.3530;
208.2000;0.9727;0.3578;
208.5000;0.9703;0.3578;
208.8000;0.9711;0.3578;
209.1000;0.9703;0.3554;
209.4000;0.9711;0.3625;
209.7000;0.9703;0.3649;
210.0000;0.9695;0.3767;
210.3000;0.9727;0.3791;
210.6000;0.9744;0.3791;
210.9000;0.9695;0.3649;
211.2000;0.9711;0.3649;
211.5000;0.9760;0.3744;
211.8000;0.9719;0.3554;
212.1000;0.9719;0.3530;
212.4000;0.9776;0.3625;
212.7000;0.9719;0.3507;
213.0000;0.9703;0.3530;
213.3000;0.9711;0.3578;
213.6000;0.9719;0.3672;
213.9000;0.9711;0.3578;
214.2000;0.9719;0.3578;
214.5000;0.9703;0.3601;
214.8000;0.9711;0.3649;
215.1000;0.9727;0.3601;
215.4000;0.9719;0.3578;
215.7000;0.9687;0.3483;
216.0000;0.9719;0.3601;
216.3000;0.9719;0.3649;
216.6000;0.9711;0.3625;
216.9000;0.9727;0.3554;
217.2000;0.9703;0.3578;
217.5000;0.9703;0.3601;
217.8000;0.9752;0.3767;
218.1000;0.9711;0.3744;
218.4000;0.9711;0.3791;
218.7000;0.9727;0.3791;
219.0000;0.9711;0.3720;
219.3000;0.9670;0.3672;
219.6000;0.9711;0.3720;
219.9000;0.9719;0.3744;
220.2000;0.9727;0.3744;
220.5000;0.9719;0.3625;
220.8000;0.9711;0.3649;
221.1000;0.9703;0.3672;
221.4000;0.9727;0.3672;
221.7000;0.9695;0.3578;
222.0000;0.9719;0.3625;
222.3000;0.9711;0.3672;
222.6000;0.9727;0.3720;
222.9000;0.9719;0.3838;
223.2000;0.9711;0.3791;
223.5000;0.9703;0.3791;
223.8000;0.9719;0.3862;
224.1000;0.9727;0.3933;
224.4000;0.9727;0.3933;
224.7000;0.9719;0.3933;
225.0000;0.9719;0.3838;
225.3000;0.9719;0.3886;
225.6000;0.9711;0.3862;
225.9000;0.9719;0.3909;
226.2000;0.9711;0.3886;
226.5000;0.9711;0.3957;
226.8000;0.9695;0.3815;
227.1000;0.9719;0.3767;
227.4000;0.9711;0.3672;
227.7000;0.9719;0.3744;
228.0000;0.9727;0.3720;
228.3000;0.9735;0.3672;
228.6000;0.9711;0.3672;
228.9000;0.9719;0.3744;
229.2000;0.9719;0.3720;
229.5000;0.9719;0.3696;
229.8000;0.9703;0.3625;
230.1000;0.9703;0.3625;
230.4000;0.9719;0.3625;
230.7000;0.9695;0.3649;
231.0000;0.9695;0.3649;
231.3000;0.9719;0.3672;
231.6000;0.9703;0.3625;
231.9000;0.9703;0.3649;
232.2000;0.9711;0.3672;
232.5000;0.9719;0.3625;
232.8000;0.9703;0.3530;
233.1000;0.9719;0.3483;
233.4000;0.9711;0.3412;
233.7000;0.9703;0.3483;
234.0000;0.9703;0.3530;
234.3000;0.9695;0.3554;
234.6000;0.9695;0.3601;
234.9000;0.9711;0.3672;
235.2000;0.9695;0.3554;
235.5000;0.9752;0.3672;
235.8000;0.9776;0.3696;
236.1000;0.9678;0.3601;
236.4000;0.9670;0.3601;
236.7000;0.9719;0.3720;
237.0000;0.9703;0.3720;
237.3000;0.9703;0.3696;
237.6000;0.9711;0.3744;
237.9000;0.9695;0.3767;
238.2000;0.9711;0.3886;
238.5000;0.9621;0.3696;
238.8000;0.9711;0.3886;
239.1000;0.9711;0.3791;
239.4000;0.9760;0.3886;
239.7000;0.9768;0.3862;
240.0000;0.9727;0.3838;
240.3000;0.9752;0.3886;
240.6000;0.9719;0.3720;
240.9000;0.9727;0.3696;
241.2000;0.9695;0.3601;
241.5000;0.9703;0.3578;
241.8000;0.9719;0.3625;
242.1000;0.9695;0.3554;
242.4000;0.9703;0.3459;
242.7000;0.9744;0.3507;
243.0000;0.9711;0.3459;
243.3000;0.9687;0.3507;
243.6000;0.9711;0.3601;
243.9000;0.9719;0.3696;
244.2000;0.9703;0.3696;
244.5000;0.9711;0.3720;
244.8000;0.9719;0.3696;
245.1000;0.9711;0.3696;
245.4000;0.9703;0.3601;
245.7000;0.9711;0.3554;
246.0000;0.9735;0.3578;
246.3000;0.9711;0.3507;
246.6000;0.9703;0.3435;
246.9000;0.9703;0.3530;
247.2000;0.9703;0.3578;
247.5000;0.9703;0.3649;
247.8000;0.9703;0.3649;
248.1000;0.9719;0.3672;
248.4000;0.9719;0.3649;
248.7000;0.9703;0.3672;
249.0000;0.9703;0.3720;
249.3000;0.9711;0.3791;
249.6000;0.9719;0.3838;
249.9000;0.9703;0.3791;
250.2000;0.9695;0.3744;
250.5000;0.9638;0.3530;
250.8000;0.9711;0.3696;
251.1000;0.9752;0.3720;
251.4000;0.9695;0.3744;
251.7000;0.9695;0.3649;
252.0000;0.9727;0.3744;
252.3000;0.9711;0.3744;
252.6000;0.9760;0.3838;
252.9000;0.9670;0.3672;
253.2000;0.9695;0.3696;
253.5000;0.9695;0.3696;
253.8000;0.9695;0.3791;
254.1000;0.9703;0.3672;
254.4000;0.9703;0.3649;
254.7000;0.9711;0.3625;
255.0000;0.9719;0.3530;
255.3000;0.9662;0.3435;
255.6000;0.9695;0.3483;
255.9000;0.9662;0.3364;
256.2000;0.9719;0.3554;
256.5000;0.9703;0.3625;
256.8000;0.9703;0.3601;
257.1000;0.9752;0.3720;
257.4000;0.9703;0.3720;
257.7000;0.9719;0.3791;
258.0000;0.9711;0.3767;
258.3000;0.9735;0.3767;
258.6000;0.9695;0.3672;
258.9000;0.9727;0.3649;
259.2000;0.9638;0.3435;
259.5000;0.9711;0.3625;
259.8000;0.9711;0.3744;
260.1000;0.9727;0.3838;
260.4000;0.9719;0.3815;
260.7000;0.9752;0.3815;
261.0000;0.9711;0.3720;
261.3000;0.9695;0.3744;
261.6000;0.9744;0.3838;
261.9000;0.9695;0.3696;
262.2000;0.9719;0.3696;
262.5000;0.9695;0.3696;
262.8000;0.9703;0.3744;
263.1000;0.9695;0.3767;
263.4000;0.9678;0.3744;
263.7000;0.9638;0.3672;
264.0000;0.9727;0.3886;
264.3000;0.9711;0.3862;
264.6000;0.9711;0.3909;
264.9000;0.9711;0.3957;
265.2000;0.9711;0.3909;
265.5000;0.9695;0.3838;
265.8000;0.9662;0.3672;
266.1000;0.9695;0.3815;
266.4000;0.9695;0.3744;
266.7000;0.9711;0.3862;
267.0000;0.9678;0.3862;
267.3000;0.9776;0.4004;
267.6000;0.9703;0.3767;
267.9000;0.9711;0.3791;
268.2000;0.9678;0.3791;
268.5000;0.9711;0.3838;
268.8000;0.9687;0.3815;
269.1000;0.9687;0.3838;
269.4000;0.9695;0.3815;
269.7000;0.9695;0.3862;
270.0000;0.9654;0.3791;
270.3000;0.9711;0.3862;
270.6000;0.9711;0.3815;
270.9000;0.9687;0.3815;
271.2000;0.9695;0.3767;
271.5000;0.9695;0.3744;
271.8000;0.9687;0.3767;
272.1000;0.9687;0.3815;
272.4000;0.9687;0.3744;
272.7000;0.9711;0.3767;
273.0000;0.9703;0.3815;
273.3000;0.9711;0.3791;
273.6000;0.9695;0.3838;
273.9000;0.9678;0.3720;
274.2000;0.9687;0.3744;
274.5000;0.9719;0.3838;
274.8000;0.9687;0.3791;
275.1000;0.9670;0.3791;
275.4000;0.9695;0.3838;
275.7000;0.9662;0.3767;
276.0000;0.9760;0.3957;
276.3000;0.9711;0.3886;
276.6000;0.9695;0.3838;
276.9000;0.9703;0.3957;
277.2000;0.9678;0.3886;
277.5000;0.9703;0.3838;
277.8000;0.9703;0.3886;
278.1000;0.9687;0.3767;
278.4000;0.9695;0.3744;
278.7000;0.9687;0.3696;
279.0000;0.9687;0.3720;
279.3000;0.9711;0.3815;
279.6000;0.9687;0.3815;
279.9000;0.9695;0.3815;
280.2000;0.9711;0.3886;
280.5000;0.9711;0.3886;
280.8000;0.9687;0.3815;
281.1000;0.9687;0.3815;
281.4000;0.9662;0.3815;
281.7000;0.9703;0.3909;
282.0000;0.9711;0.3886;
282.3000;0.9678;0.3862;
282.6000;0.9703;0.3862;
282.9000;0.9703;0.3767;
283.2000;0.9654;0.3554;
283.5000;0.9646;0.3554;
283.8000;0.9678;0.3696;
284.1000;0.9703;0.3767;
284.4000;0.9727;0.3838;
284.7000;0.9687;0.3815;
285.0000;0.9719;0.3909;
285.3000;0.9695;0.3886;
285.6000;0.9711;0.3933;
285.9000;0.9703;0.3862;
286.2000;0.9695;0.3815;
286.5000;0.9678;0.3767;
286.8000;0.9744;0.3980;
287.1000;0.9695;0.3838;
287.4000;0.9687;0.3838;
287.7000;0.9670;0.3767;
288.0000;0.9687;0.3744;
288.3000;0.9735;0.3886;
288.6000;0.9678;0.3862;
288.9000;0.9678;0.3957;
289.2000;0.9678;0.3957;
289.5000;0.9695;0.3862;
289.8000;0.9687;0.3838;
290.1000;0.9678;0.3744;
290.4000;0.9662;0.3649;
290.7000;0.9695;0.3767;
291.0000;0.9695;0.3767;
291.3000;0.9695;0.3815;
291.6000;0.9711;0.3791;
291.9000;0.9711;0.3862;
292.2000;0.9703;0.3886;
292.5000;0.9687;0.3815;
292.8000;0.9687;0.3862;
293.1000;0.9687;0.3909;
293.4000;0.9695;0.3909;
293.7000;0.9678;0.3909;
294.0000;0.9678;0.3933;
294.3000;0.9687;0.3933;
294.6000;0.9687;0.3886;
294.9000;0.9711;0.3933;
295.2000;0.9711;0.3815;
295.5000;0.9703;0.3886;
295.8000;0.9703;0.3815;
296.1000;0.9703;0.3791;
296.4000;0.9695;0.3767;
296.7000;0.9727;0.3815;
297.0000;0.9695;0.3815;
297.3000;0.9687;0.3815;
297.6000;0.9670;0.3791;
297.9000;0.9695;0.3862;
298.2000;0.9678;0.3815;
298.5000;0.9662;0.3791;
298.8000;0.9703;0.3838;
299.1000;0.9687;0.3838;
299.4000;0.9695;0.3815;
299.7000;0.9687;0.3791;
300.0000;0.9670;0.3744;
300.3000;0.9703;0.3720;
300.6000;0.9776;0.3980;
300.9000;0.9646;0.3744;
301.2000;0.9687;0.3791;
301.5000;0.9703;0.3909;
301.8000;0.9703;0.3909;
302.1000;0.9695;0.3980;
302.4000;0.9703;0.4028;
302.7000;0.9695;0.3933;
303.0000;0.9687;0.3933;
303.3000;0.9719;0.3838;
303.6000;0.9695;0.3767;
303.9000;0.9662;0.3767;
304.2000;0.9678;0.3862;
304.5000;0.9687;0.3838;
304.8000;0.9687;0.3767;
305.1000;0.9687;0.3909;
305.4000;0.9695;0.3980;
305.7000;0.9687;0.3909;
306.0000;0.9662;0.3862;
306.3000;0.9687;0.3909;
306.6000;0.9638;0.3838;
306.9000;0.9687;0.3957;
307.2000;0.9711;0.4028;
307.5000;0.9727;0.4123;
307.8000;0.9687;0.4052;
308.1000;0.9744;0.4170;
308.4000;0.9727;0.4052;
308.7000;0.9695;0.3886;
309.0000;0.9687;0.3862;
309.3000;0.9678;0.3838;
309.6000;0.9687;0.3957;
309.9000;0.9662;0.3980;
310.2000;0.9695;0.4004;
310.5000;0.9678;0.3909;
310.8000;0.9727;0.4028;
311.1000;0.9670;0.3838;
311.4000;0.9695;0.3862;
311.7000;0.9695;0.3862;
312.0000;0.9687;0.3886;
312.3000;0.9719;0.3957;
312.6000;0.9678;0.3815;
312.9000;0.9687;0.3862;
313.2000;0.9687;0.3838;
313.5000;0.9695;0.3838;
313.8000;0.9768;0.3980;
314.1000;0.9687;0.3767;
314.4000;0.9687;0.3767;
314.7000;0.9670;0.3744;
315.0000;0.9695;0.3791;
315.3000;0.9678;0.3862;
315.6000;0.9670;0.3862;
315.9000;0.9670;0.3815;
316.2000;0.9695;0.3791;
316.5000;0.9695;0.3767;
316.8000;0.9638;0.3696;
317.1000;0.9678;0.3791;
317.4000;0.9678;0.3791;
317.7000;0.9662;0.3720;
318.0000;0.9678;0.3767;
318.3000;0.9670;0.3672;
318.6000;0.9678;0.3649;
318.9000;0.9678;0.3649;
319.2000;0.9695;0.3672;
319.5000;0.9678;0.3625;
319.8000;0.9613;0.3435;
320.1000;0.9744;0.3696;
320.4000;0.9678;0.3483;
320.7000;0.9687;0.3507;
321.0000;0.9719;0.3507;
321.3000;0.9678;0.3364;
321.6000;0.9678;0.3412;
321.9000;0.9687;0.3459;
322.2000;0.9678;0.3554;
322.5000;0.9662;0.3459;
322.8000;0.9695;0.3625;
323.1000;0.9687;0.3720;
323.4000;0.9678;0.3815;
323.7000;0.9621;0.3720;
324.0000;0.9687;0.3933;
324.3000;0.9678;0.3886;
324.6000;0.9670;0.3886;
324.9000;0.9670;0.3791;
325.2000;0.9678;0.3767;
325.5000;0.9687;0.3791;
325.8000;0.9687;0.3815;
326.1000;0.9711;0.3909;
326.4000;0.9687;0.3862;
326.7000;0.9695;0.3838;
327.0000;0.9687;0.3791;
327.3000;0.9670;0.3815;
327.6000;0.9678;0.3791;
327.9000;0.9695;0.3815;
328.2000;0.9695;0.3815;
328.5000;0.9695;0.3744;
328.8000;0.9695;0.3791;
329.1000;0.9719;0.3815;
329.4000;0.9687;0.3791;
329.7000;0.9695;0.3862;
330.0000;0.9678;0.3838;
330.3000;0.9621;0.3720;
330.6000;0.9678;0.3862;
330.9000;0.9646;0.3815;
331.2000;0.9711;0.3933;
331.5000;0.9678;0.3838;
331.8000;0.9687;0.3791;
332.1000;0.9687;0.3744;
332.4000;0.9678;0.3791;
332.7000;0.9678;0.3791;
333.0000;0.9703;0.3838;
333.3000;0.9695;0.3886;
333.6000;0.9711;0.3838;
333.9000;0.9695;0.3815;
334.2000;0.9744;0.3909;
334.5000;0.9703;0.3815;
334.8000;0.9687;0.3767;
335.1000;0.9678;0.3720;
335.4000;0.9719;0.3933;
335.7000;0.9727;0.3980;
336.0000;0.9695;0.3933;
336.3000;0.9678;0.3909;
336.6000;0.9678;0.3957;
336.9000;0.9621;0.3862;
337.2000;0.9703;0.4028;
337.5000;0.9678;0.3980;
337.8000;0.9678;0.3957;
338.1000;0.9695;0.3909;
338.4000;0.9727;0.3909;
338.7000;0.9703;0.3862;
339.0000;0.9703;0.3838;
339.3000;0.9678;0.3791;
339.6000;0.9695;0.3720;
339.9000;0.9695;0.3649;
340.2000;0.9670;0.3578;
340.5000;0.9687;0.3578;
340.8000;0.9687;0.3601;
341.1000;0.9678;0.3530;
341.4000;0.9687;0.3601;
341.7000;0.9670;0.3578;
342.0000;0.9703;0.3601;
342.3000;0.9695;0.3578;
342.6000;0.9670;0.3507;
342.9000;0.9687;0.3530;
343.2000;0.9703;0.3554;
343.5000;0.9744;0.3578;
343.8000;0.9662;0.3341;
344.1000;0.9605;0.3364;
344.4000;0.9687;0.3649;
344.7000;0.9711;0.3649;
345.0000;0.9687;0.3672;
345.3000;0.9687;0.3720;
345.6000;0.9670;0.3696;
345.9000;0.9678;0.3744;
346.2000;0.9695;0.3815;
346.5000;0.9719;0.3933;
346.8000;0.9662;0.3933;
347.1000;0.9695;0.4004;
347.4000;0.9670;0.3909;
347.7000;0.9670;0.3909;
348.0000;0.9687;0.3980;
348.3000;0.9670;0.3862;
348.6000;0.9678;0.3862;
348.9000;0.9670;0.3886;
349.2000;0.9662;0.3886;
349.5000;0.9670;0.3980;
349.8000;0.9670;0.4028;
350.1000;0.9662;0.3957;
350.4000;0.9670;0.3909;
350.7000;0.9654;0.3957;
351.0000;0.9662;0.3886;
351.3000;0.9752;0.4075;
351.6000;0.9678;0.3933;
351.9000;0.9670;0.3767;
352.2000;0.9654;0.3649;
352.5000;0.9670;0.3720;
352.8000;0.9670;0.3815;
353.1000;0.9703;0.3815;
353.4000;0.9711;0.3791;
353.7000;0.9703;0.3791;
354.0000;0.9703;0.3767;
354.3000;0.9695;0.3720;
354.6000;0.9678;0.3744;
354.9000;0.9695;0.3791;
355.2000;0.9687;0.3744;
355.5000;0.9687;0.3815;
355.8000;0.9695;0.3886;
356.1000;0.9687;0.3933;
356.4000;0.9678;0.4028;
356.7000;0.9687;0.3933;
357.0000;0.9727;0.3957;
357.3000;0.9695;0.3933;
357.6000;0.9695;0.3886;
357.9000;0.9703;0.3838;
358.2000;0.9752;0.4028;
358.5000;0.9678;0.3980;
358.8000;0.9678;0.4028;
359.1000;0.9687;0.3957;
359.4000;0.9670;0.3838;
359.7000;0.9670;0.3815;
360.0000;0.9703;0.3933;
360.3000;0.9695;0.3862;
360.6000;0.9695;0.3838;
360.9000;0.9695;0.3838;
361.2000;0.9605;0.3672;
361.5000;0.9670;0.3862;
361.8000;0.9646;0.3767;
362.1000;0.9654;0.3791;
362.4000;0.9662;0.3791;
362.7000;0.9662;0.3767;
363.0000;0.9670;0.3838;
363.3000;0.9654;0.3886;
363.6000;0.9662;0.3886;
363.9000;0.9670;0.3886;
364.2000;0.9687;0.3957;
364.5000;0.9678;0.3862;
364.8000;0.9727;0.3957;
365.1000;0.9687;0.3862;
365.4000;0.9687;0.3862;
365.7000;0.9678;0.3791;
366.0000;0.9638;0.3720;
366.3000;0.9687;0.3815;
366.6000;0.9662;0.3696;
366.9000;0.9678;0.3791;
367.2000;0.9670;0.3791;
367.5000;0.9662;0.3791;
367.8000;0.9670;0.3909;
368.1000;0.9695;0.3933;
368.4000;0.9670;0.3862;
368.7000;0.9670;0.3815;
369.0000;0.9719;0.3933;
369.3000;0.9687;0.3838;
369.6000;0.9670;0.3815;
369.9000;0.9670;0.3838;
370.2000;0.9654;0.3744;
370.5000;0.9662;0.3672;
370.8000;0.9670;0.3744;
371.1000;0.9654;0.3767;
371.4000;0.9678;0.3838;
371.7000;0.9630;0.3791;
372.0000;0.9678;0.3886;
372.3000;0.9678;0.3838;
372.6000;0.9662;0.3838;
372.9000;0.9630;0.3767;
373.2000;0.9670;0.3815;
373.5000;0.9654;0.3744;
373.8000;0.9621;0.3720;
374.1000;0.9711;0.3957;
374.4000;0.9687;0.3909;
374.7000;0.9613;0.3744;
375.0000;0.9662;0.3767;
375.3000;0.9670;0.3767;
375.6000;0.9662;0.3649;
375.9000;0.9662;0.3578;
376.2000;0.9654;0.3601;
376.5000;0.9670;0.3696;
376.8000;0.9638;0.3625;
377.1000;0.9703;0.3720;
377.4000;0.9670;0.3601;
377.7000;0.9670;0.3696;
378.0000;0.9678;0.3767;
378.3000;0.9662;0.3862;
378.6000;0.9662;0.3815;
378.9000;0.9662;0.3957;
379.2000;0.9678;0.4099;
379.5000;0.9687;0.4170;
379.8000;0.9695;0.4170;
380.1000;0.9687;0.4052;
380.4000;0.9695;0.4028;
380.7000;0.9662;0.3933;
381.0000;0.9670;0.3957;
381.3000;0.9695;0.3933;
381.6000;0.9687;0.3862;
381.9000;0.9670;0.3909;
382.2000;0.9703;0.3886;
382.5000;0.9670;0.3767;
382.8000;0.9662;0.3696;
383.1000;0.9678;0.3815;
383.4000;0.9687;0.3815;
383.7000;0.9695;0.3791;
384.0000;0.9670;0.3767;
384.3000;0.9678;0.3838;
384.6000;0.9670;0.3767;
384.9000;0.9703;0.3815;
385.2000;0.9670;0.3767;
385.5000;0.9678;0.3791;
385.8000;0.9638;0.3720;
386.1000;0.9670;0.3862;
386.4000;0.9662;0.3838;
386.7000;0.9670;0.3838;
387.0000;0.9678;0.3838;
387.3000;0.9670;0.3909;
387.6000;0.9670;0.3933;
387.9000;0.9678;0.3933;
388.2000;0.9695;0.3933;
388.5000;0.9670;0.3886;
388.8000;0.9695;0.4004;
389.1000;0.9662;0.3980;
389.4000;0.9654;0.3886;
389.7000;0.9654;0.3886;
390.0000;0.9670;0.3815;
390.3000;0.9670;0.3815;
390.6000;0.9662;0.3744;
390.9000;0.9670;0.3720;
391.2000;0.9678;0.3838;
391.5000;0.9662;0.3862;
391.8000;0.9670;0.3838;
392.1000;0.9695;0.3980;
392.4000;0.9678;0.3909;
392.7000;0.9621;0.3720;
393.0000;0.9670;0.3909;
393.3000;0.9670;0.3980;
393.6000;0.9662;0.3838;
393.9000;0.9662;0.3838;
394.2000;0.9670;0.3838;
394.5000;0.9654;0.3909;
394.8000;0.9662;0.3933;
395.1000;0.9662;0.3909;
395.4000;0.9695;0.3933;
395.7000;0.9654;0.3815;
396.0000;0.9654;0.3815;
396.3000;0.9662;0.3862;
396.6000;0.9613;0.3791;
396.9000;0.9670;0.3909;
397.2000;0.9654;0.3909;
397.5000;0.9613;0.3744;
397.8000;0.9662;0.3862;
398.1000;0.9613;0.3886;
398.4000;0.9638;0.3909;
398.7000;0.9662;0.3838;
399.0000;0.9654;0.3838;
399.3000;0.9654;0.3767;
399.6000;0.9744;0.4004;
399.9000;0.9630;0.3791;
400.2000;0.9735;0.4004;
400.5000;0.9654;0.3744;
400.8000;0.9638;0.3744;
401.1000;0.9744;0.3980;
401.4000;0.9670;0.3862;
401.7000;0.9654;0.3696;
402.0000;0.9654;0.3649;
402.3000;0.9670;0.3649;
402.6000;0.9678;0.3744;
402.9000;0.9670;0.3862;
403.2000;0.9670;0.3886;
403.5000;0.9670;0.3862;
403.8000;0.9662;0.3838;
404.1000;0.9670;0.3886;
404.4000;0.9670;0.3909;
404.7000;0.9662;0.3838;
405.0000;0.9646;0.3720;
405.3000;0.9678;0.3838;
405.6000;0.9662;0.3791;
405.9000;0.9687;0.3862;
406.2000;0.9670;0.3909;
406.5000;0.9662;0.3815;
406.8000;0.9654;0.3933;
407.1000;0.9670;0.3957;
407.4000;0.9654;0.3957;
407.7000;0.9670;0.3980;
408.0000;0.9670;0.4004;
408.3000;0.9711;0.3980;
408.6000;0.9662;0.3862;
408.9000;0.9687;0.3862;
409.2000;0.9687;0.3744;
409.5000;0.9687;0.3791;
409.8000;0.9654;0.3696;
410.1000;0.9678;0.3720;
410.4000;0.9646;0.3672;
410.7000;0.9662;0.3720;
411.0000;0.9662;0.3649;
411.3000;0.9662;0.3720;
411.6000;0.9678;0.3720;
411.9000;0.9678;0.3625;
412.2000;0.9662;0.3625;
412.5000;0.9662;0.3649;
412.8000;0.9638;0.3649;
413.1000;0.9670;0.3696;
413.4000;0.9662;0.3720;
413.7000;0.9670;0.3767;
414.0000;0.9613;0.3578;
414.3000;0.9654;0.3672;
414.6000;0.9670;0.3696;
414.9000;0.9646;0.3649;
415.2000;0.9744;0.3862;
415.5000;0.9670;0.3672;
415.8000;0.9654;0.3625;
416.1000;0.9646;0.3601;
416.4000;0.9654;0.3601;
416.7000;0.9670;0.3625;
417.0000;0.9654;0.3578;
417.3000;0.9662;0.3601;
417.6000;0.9646;0.3554;
417.9000;0.9687;0.3672;
418.2000;0.9662;0.3672;
418.5000;0.9662;0.3720;
418.8000;0.9654;0.3720;
419.1000;0.9670;0.3696;
419.4000;0.9630;0.3601;
419.7000;0.9646;0.3696;
420.0000;0.9678;0.3767;
420.3000;0.9638;0.3649;
420.6000;0.9646;0.3672;
420.9000;0.9662;0.3720;
421.2000;0.9654;0.3767;
421.5000;0.9638;0.3720;
421.8000;0.9662;0.3815;
422.1000;0.9630;0.3720;
422.4000;0.9695;0.3838;
422.7000;0.9662;0.3815;
423.0000;0.9654;0.3791;
423.3000;0.9711;0.3909;
423.6000;0.9654;0.3791;
423.9000;0.9687;0.3933;
424.2000;0.9703;0.3957;
424.5000;0.9662;0.3767;
424.8000;0.9654;0.3720;
425.1000;0.9670;0.3696;
425.4000;0.9678;0.3744;
425.7000;0.9670;0.3720;
426.0000;0.9662;0.3791;
426.3000;0.9662;0.3767;
426.6000;0.9654;0.3815;
426.9000;0.9662;0.3767;
427.2000;0.9646;0.3744;
427.5000;0.9678;0.3815;
427.8000;0.9662;0.3672;
428.1000;0.9670;0.3672;
428.4000;0.9678;0.3720;
428.7000;0.9654;0.3601;
429.0000;0.9662;0.3554;
429.3000;0.9613;0.3459;
429.6000;0.9662;0.3696;
429.9000;0.9654;0.3672;
430.2000;0.9670;0.3767;
430.5000;0.9654;0.3791;
430.8000;0.9670;0.3791;
431.1000;0.9678;0.3815;
431.4000;0.9662;0.3767;
431.7000;0.9654;0.3744;
432.0000;0.9662;0.3791;
432.3000;0.9670;0.3909;
432.6000;0.9662;0.3933;
432.9000;0.9638;0.3862;
433.2000;0.9654;0.3862;
433.5000;0.9670;0.3838;
433.8000;0.9670;0.3815;
434.1000;0.9687;0.3862;
434.4000;0.9662;0.3744;
434.7000;0.9654;0.3720;
435.0000;0.9687;0.3838;
435.3000;0.9662;0.3886;
435.6000;0.9654;0.3815;
435.9000;0.9670;0.3838;
436.2000;0.9670;0.3815;
436.5000;0.9630;0.3744;
436.8000;0.9646;0.3791;
437.1000;0.9662;0.3815;
437.4000;0.9646;0.3744;
437.7000;0.9621;0.3720;
438.0000;0.9678;0.3909;
438.3000;0.9646;0.3933;
438.6000;0.9630;0.3838;
438.9000;0.9662;0.3838;
439.2000;0.9670;0.3838;
439.5000;0.9662;0.3886;
439.8000;0.9662;0.3909;
440.1000;0.9662;0.3886;
440.4000;0.9662;0.3862;
440.7000;0.9630;0.3744;
441.0000;0.9670;0.3886;
441.3000;0.9646;0.3815;
441.6000;0.9678;0.3862;
441.9000;0.9662;0.3838;
442.2000;0.9638;0.3720;
442.5000;0.9662;0.3744;
442.8000;0.9646;0.3767;
443.1000;0.9646;0.3791;
443.4000;0.9654;0.3791;
443.7000;0.9654;0.3838;
444.0000;0.9646;0.3791;
444.3000;0.9678;0.3815;
444.6000;0.9662;0.3815;
444.9000;0.9670;0.3815;
445.2000;0.9654;0.3720;
445.5000;0.9646;0.3696;
445.8000;0.9646;0.3744;
446.1000;0.9654;0.3744;
446.4000;0.9670;0.3815;
446.7000;0.9662;0.3767;
447.0000;0.9630;0.3672;
447.3000;0.9605;0.3554;
447.6000;0.9727;0.3933;
447.9000;0.9727;0.3909;
448.2000;0.9662;0.3838;
448.5000;0.9662;0.3838;
448.8000;0.9662;0.3791;
449.1000;0.9687;0.3886;
449.4000;0.9646;0.3886;
449.7000;0.9646;0.3933;
450.0000;0.9670;0.3933;
450.3000;0.9654;0.3815;
450.6000;0.9662;0.3696;
450.9000;0.9662;0.3625;
451.2000;0.9654;0.3459;
451.5000;0.9662;0.3483;
451.8000;0.9621;0.3459;
452.1000;0.9654;0.3554;
452.4000;0.9605;0.3530;
452.7000;0.9654;0.3696;
453.0000;0.9613;0.3625;
453.3000;0.9654;0.3767;
453.6000;0.9646;0.3696;
453.9000;0.9597;0.3483;
454.2000;0.9597;0.3364;
454.5000;0.9646;0.3483;
454.8000;0.9670;0.3530;
455.1000;0.9662;0.3601;
455.4000;0.9646;0.3530;
455.7000;0.9654;0.3672;
456.0000;0.9646;0.3672;
456.3000;0.9662;0.3720;
456.6000;0.9670;0.3696;
456.9000;0.9670;0.3720;
457.2000;0.9670;0.3720;
457.5000;0.9687;0.3744;
457.8000;0.9670;0.3767;
458.1000;0.9621;0.3578;
458.4000;0.9670;0.3720;
458.7000;0.9662;0.3672;
459.0000;0.9662;0.3720;
459.3000;0.9670;0.3744;
459.6000;0.9638;0.3672;
459.9000;0.9662;0.3720;
460.2000;0.9687;0.3672;
460.5000;0.9670;0.3720;
460.8000;0.9654;0.3767;
461.1000;0.9654;0.3720;
461.4000;0.9670;0.3744;
461.7000;0.9703;0.3791;
462.0000;0.9662;0.3672;
462.3000;0.9662;0.3720;
462.6000;0.9735;0.3886;
462.9000;0.9630;0.3744;
463.2000;0.9662;0.3744;
463.5000;0.9646;0.3696;
463.8000;0.9662;0.3672;
464.1000;0.9638;0.3625;
464.4000;0.9654;0.3649;
464.7000;0.9687;0.3744;
465.0000;0.9662;0.3696;
465.3000;0.9670;0.3672;
465.6000;0.9662;0.3720;
465.9000;0.9654;0.3744;
466.2000;0.9662;0.3791;
466.5000;0.9646;0.3815;
466.8000;0.9662;0.3886;
467.1000;0.9654;0.3838;
467.4000;0.9646;0.3791;
467.7000;0.9662;0.3838;
468.0000;0.9662;0.3815;
468.3000;0.9670;0.3862;
468.6000;0.9662;0.3909;
468.9000;0.9613;0.3838;
469.2000;0.9646;0.3767;
469.5000;0.9670;0.3886;
469.8000;0.9646;0.3862;
470.1000;0.9630;0.3720;
470.4000;0.9654;0.3625;
470.7000;0.9654;0.3696;
471.0000;0.9621;0.3649;
471.3000;0.9646;0.3744;
471.6000;0.9638;0.3744;
471.9000;0.9654;0.3744;
472.2000;0.9654;0.3744;
472.5000;0.9638;0.3744;
472.8000;0.9638;0.3720;
473.1000;0.9605;0.3554;
473.4000;0.9678;0.3720;
473.7000;0.9646;0.3649;
474.0000;0.9646;0.3625;
474.3000;0.9630;0.3530;
474.6000;0.9646;0.3672;
474.9000;0.9654;0.3720;
475.2000;0.9638;0.3696;
475.5000;0.9654;0.3720;
475.8000;0.9646;0.3720;
476.1000;0.9646;0.3791;
476.4000;0.9654;0.3862;
476.7000;0.9654;0.3838;
477.0000;0.9670;0.3791;
477.3000;0.9662;0.3672;
477.6000;0.9695;0.3791;
477.9000;0.9646;0.3696;
478.2000;0.9646;0.3720;
478.5000;0.9646;0.3720;
478.8000;0.9565;0.3459;
479.1000;0.9638;0.3578;
479.4000;0.9638;0.3507;
479.7000;0.9638;0.3554;
480.0000;0.9621;0.3625;
480.3000;0.9638;0.3649;
480.6000;0.9630;0.3649;
480.9000;0.9662;0.3767;
481.2000;0.9654;0.3815;
481.5000;0.9654;0.3815;
481.8000;0.9646;0.3767;
482.1000;0.9654;0.3815;
482.4000;0.9646;0.3767;
482.7000;0.9638;0.3696;
483.0000;0.9662;0.3744;
483.3000;0.9678;0.3862;
483.6000;0.9662;0.3886;
483.9000;0.9630;0.3791;
484.2000;0.9654;0.3791;
484.5000;0.9687;0.3909;
484.8000;0.9662;0.3838;
485.1000;0.9670;0.3815;
485.4000;0.9654;0.3767;
485.7000;0.9621;0.3744;
486.0000;0.9662;0.3838;
486.3000;0.9670;0.3957;
486.6000;0.9654;0.3909;
486.9000;0.9613;0.3838;
487.2000;0.9646;0.3791;
487.5000;0.9670;0.3886;
487.8000;0.9605;0.3744;
488.1000;0.9662;0.3838;
488.4000;0.9654;0.3838;
488.7000;0.9646;0.3815;
489.0000;0.9662;0.3767;
489.3000;0.9662;0.3767;
489.6000;0.9630;0.3696;
489.9000;0.9654;0.3720;
490.2000;0.9662;0.3720;
490.5000;0.9654;0.3744;
490.8000;0.9646;0.3720;
491.1000;0.9638;0.3696;
491.4000;0.9678;0.3815;
491.7000;0.9662;0.3886;
492.0000;0.9597;0.3767;
492.3000;0.9687;0.3909;
492.6000;0.9646;0.3720;
492.9000;0.9613;0.3601;
493.2000;0.9630;0.3649;
493.5000;0.9646;0.3720;
493.8000;0.9646;0.3649;
494.1000;0.9678;0.3767;
494.4000;0.9654;0.3696;
494.7000;0.9630;0.3672;
495.0000;0.9654;0.3767;
495.3000;0.9589;0.3554;
495.6000;0.9613;0.3554;
495.9000;0.9646;0.3696;
496.2000;0.9662;0.3720;
496.5000;0.9654;0.3767;
496.8000;0.9638;0.3744;
497.1000;0.9630;0.3649;
497.4000;0.9630;0.3649;
497.7000;0.9646;0.3696;
498.0000;0.9646;0.3696;
498.3000;0.9638;0.3720;
498.6000;0.9662;0.3744;
498.9000;0.9630;0.3767;
499.2000;0.9646;0.3838;
499.5000;0.9654;0.3886;
499.8000;0.9638;0.3886;
500.1000;0.9646;0.3980;
500.4000;0.9630;0.4004;
500.7000;0.9646;0.3957;
501.0000;0.9621;0.3933;
501.3000;0.9654;0.3980;
501.6000;0.9646;0.3933;
501.9000;0.9638;0.3909;
502.2000;0.9646;0.3980;
502.5000;0.9646;0.3957;
502.8000;0.9638;0.4004;
503.1000;0.9638;0.4004;
503.4000;0.9638;0.3933;
503.7000;0.9630;0.3957;
504.0000;0.9695;0.4028;
504.3000;0.9654;0.3933;
504.6000;0.9646;0.3957;
504.9000;0.9678;0.3933;
505.2000;0.9630;0.3791;
505.5000;0.9646;0.3862;
505.8000;0.9638;0.3838;
506.1000;0.9630;0.3815;
506.4000;0.9638;0.3838;
506.7000;0.9654;0.3862;
507.0000;0.9646;0.3791;
507.3000;0.9646;0.3815;
507.6000;0.9735;0.4099;
507.9000;0.9703;0.3957;
508.2000;0.9662;0.3815;
508.5000;0.9646;0.3886;
508.8000;0.9621;0.3886;
509.1000;0.9630;0.3933;
509.4000;0.9621;0.3886;
509.7000;0.9646;0.3886;
510.0000;0.9630;0.3886;
510.3000;0.9638;0.3886;
510.6000;0.9646;0.3933;
510.9000;0.9654;0.3933;
511.2000;0.9630;0.3838;
511.5000;0.9711;0.3980;
511.8000;0.9654;0.3933;
512.1000;0.9654;0.3909;
512.4000;0.9646;0.3791;
512.7000;0.9638;0.3720;
513.0000;0.9662;0.3744;
513.3000;0.9621;0.3672;
513.6000;0.9646;0.3720;
513.9000;0.9670;0.3720;
514.2000;0.9646;0.3696;
514.5000;0.9646;0.3744;
514.8000;0.9621;0.3720;
515.1000;0.9621;0.3838;
515.4000;0.9638;0.3886;
515.7000;0.9638;0.3791;
516.0000;0.9638;0.3767;
516.3000;0.9621;0.3696;
516.6000;0.9646;0.3720;
516.9000;0.9630;0.3672;
517.2000;0.9638;0.3625;
517.5000;0.9638;0.3625;
517.8000;0.9638;0.3625;
518.1000;0.9752;0.3909;
518.4000;0.9621;0.3649;
518.7000;0.9654;0.3720;
519.0000;0.9654;0.3720;
519.3000;0.9581;0.3530;
519.6000;0.9654;0.3696;
519.9000;0.9630;0.3649;
520.2000;0.9646;0.3625;
520.5000;0.9695;0.3815;
520.8000;0.9613;0.3672;
521.1000;0.9678;0.3838;
521.4000;0.9630;0.3720;
521.7000;0.9621;0.3815;
522.0000;0.9621;0.3909;
522.3000;0.9621;0.3862;
522.6000;0.9630;0.3862;
522.9000;0.9621;0.3791;
523.2000;0.9638;0.3815;
523.5000;0.9630;0.3672;
523.8000;0.9646;0.3625;
524.1000;0.9621;0.3696;
524.4000;0.9630;0.3744;
524.7000;0.9654;0.3838;
525.0000;0.9621;0.3672;
525.3000;0.9638;0.3696;
525.6000;0.9654;0.3720;
525.9000;0.9654;0.3696;
526.2000;0.9605;0.3696;
526.5000;0.9613;0.3720;
526.8000;0.9638;0.3791;
527.1000;0.9613;0.3744;
527.4000;0.9638;0.3815;
527.7000;0.9670;0.3838;
528.0000;0.9613;0.3744;
528.3000;0.9638;0.3791;
528.6000;0.9646;0.3791;
528.9000;0.9621;0.3720;
529.2000;0.9613;0.3672;
529.5000;0.9670;0.3672;
529.8000;0.9646;0.3625;
530.1000;0.9630;0.3696;
530.4000;0.9654;0.3696;
530.7000;0.9678;0.3767;
531.0000;0.9654;0.3767;
531.3000;0.9646;0.3744;
531.6000;0.9630;0.3672;
531.9000;0.9646;0.3720;
532.2000;0.9613;0.3672;
532.5000;0.9654;0.3744;
532.8000;0.9638;0.3744;
533.1000;0.9654;0.3815;
533.4000;0.9654;0.3791;
533.7000;0.9711;0.3933;
534.0000;0.9670;0.3791;
534.3000;0.9638;0.3720;
534.6000;0.9678;0.3815;
534.9000;0.9646;0.3696;
535.2000;0.9630;0.3625;
535.5000;0.9646;0.3720;
535.8000;0.9646;0.3744;
536.1000;0.9654;0.3815;
536.4000;0.9638;0.3767;
536.7000;0.9638;0.3744;
537.0000;0.9630;0.3767;
537.3000;0.9646;0.3815;
537.6000;0.9630;0.3767;
537.9000;0.9630;0.3744;
538.2000;0.9573;0.3672;
538.5000;0.9613;0.3815;
538.8000;0.9654;0.3862;
539.1000;0.9613;0.3791;
539.4000;0.9638;0.3862;
539.7000;0.9646;0.3791;
540.0000;0.9654;0.3815;
540.3000;0.9646;0.3744;
540.6000;0.9630;0.3815;
540.9000;0.9646;0.3862;
541.2000;0.9638;0.3838;
541.5000;0.9638;0.3862;
541.8000;0.9613;0.3744;
542.1000;0.9630;0.3862;
542.4000;0.9630;0.3886;
542.7000;0.9621;0.3838;
543.0000;0.9638;0.3838;
543.3000;0.9621;0.3791;
543.6000;0.9638;0.3791;
543.9000;0.9638;0.3696;
544.2000;0.9638;0.3672;
544.5000;0.9638;0.3767;
544.8000;0.9630;0.3720;
545.1000;0.9638;0.3744;
545.4000;0.9613;0.3696;
545.7000;0.9638;0.3767;
546.0000;0.9654;0.3767;
546.3000;0.9621;0.3720;
546.6000;0.9638;0.3862;
546.9000;0.9646;0.3933;
547.2000;0.9621;0.3838;
547.5000;0.9654;0.3862;
547.8000;0.9630;0.3838;
548.1000;0.9646;0.3862;
548.4000;0.9573;0.3672;
548.7000;0.9630;0.3838;
549.0000;0.9646;0.3862;
549.3000;0.9630;0.3909;
549.6000;0.9589;0.3886;
549.9000;0.9687;0.4123;
550.2000;0.9638;0.4004;
550.5000;0.9654;0.4004;
550.8000;0.9630;0.3957;
551.1000;0.9621;0.3957;
551.4000;0.9654;0.4028;
551.7000;0.9621;0.3909;
552.0000;0.9613;0.3767;
552.3000;0.9621;0.3720;
552.6000;0.9597;0.3744;
552.9000;0.9638;0.3744;
553.2000;0.9605;0.3744;
553.5000;0.9638;0.3886;
553.8000;0.9613;0.3838;
554.1000;0.9630;0.3791;
554.4000;0.9678;0.3933;
554.7000;0.9670;0.3980;
555.0000;0.9613;0.3791;
555.3000;0.9621;0.3767;
555.6000;0.9646;0.3767;
555.9000;0.9638;0.3744;
556.2000;0.9597;0.3720;
556.5000;0.9670;0.3957;
556.8000;0.9638;0.3886;
557.1000;0.9605;0.3909;
557.4000;0.9638;0.3957;
557.7000;0.9638;0.4052;
558.0000;0.9646;0.4123;
558.3000;0.9646;0.4099;
558.6000;0.9638;0.4099;
558.9000;0.9654;0.4099;
559.2000;0.9654;0.4028;
559.5000;0.9646;0.4052;
559.8000;0.9621;0.3980;
560.1000;0.9597;0.4004;
560.4000;0.9605;0.4099;
560.7000;0.9565;0.3909;
561.0000;0.9621;0.4146;
561.3000;0.9630;0.4052;
561.6000;0.9630;0.4028;
561.9000;0.9621;0.4052;
562.2000;0.9621;0.4075;
562.5000;0.9630;0.4004;
562.8000;0.9621;0.3933;
563.1000;0.9613;0.3933;
563.4000;0.9630;0.4075;
563.7000;0.9646;0.4099;
564.0000;0.9621;0.4099;
564.3000;0.9630;0.4194;
564.6000;0.9646;0.4241;
564.9000;0.9621;0.4170;
565.2000;0.9630;0.4170;
565.5000;0.9638;0.4170;
565.8000;0.9621;0.4075;
566.1000;0.9630;0.4028;
566.4000;0.9646;0.4075;
566.7000;0.9654;0.4052;
567.0000;0.9638;0.3957;
567.3000;0.9662;0.4028;
567.6000;0.9621;0.3909;
567.9000;0.9638;0.3909;
568.2000;0.9630;0.3886;
568.5000;0.9638;0.3980;
568.8000;0.9638;0.3957;
569.1000;0.9630;0.3886;
569.4000;0.9630;0.3957;
569.7000;0.9654;0.4004;
570.0000;0.9638;0.4004;
570.3000;0.9605;0.4028;
570.6000;0.9630;0.4075;
570.9000;0.9646;0.4146;
571.2000;0.9646;0.4028;
571.5000;0.9646;0.4075;
571.8000;0.9646;0.4004;
572.1000;0.9646;0.3957;
572.4000;0.9638;0.4028;
572.7000;0.9646;0.4028;
573.0000;0.9638;0.4004;
573.3000;0.9638;0.4052;
573.6000;0.9695;0.4241;
573.9000;0.9621;0.4052;
574.2000;0.9613;0.4099;
574.5000;0.9613;0.4075;
574.8000;0.9638;0.4075;
575.1000;0.9630;0.4028;
575.4000;0.9638;0.4099;
575.7000;0.9646;0.4052;
576.0000;0.9646;0.4075;
576.3000;0.9646;0.4052;
576.6000;0.9638;0.4052;
576.9000;0.9548;0.3815;
577.2000;0.9638;0.4075;
577.5000;0.9630;0.4052;
577.8000;0.9662;0.4075;
578.1000;0.9581;0.3862;
578.4000;0.9630;0.4004;
578.7000;0.9638;0.4099;
579.0000;0.9621;0.4028;
579.3000;0.9613;0.4052;
579.6000;0.9573;0.3933;
579.9000;0.9687;0.4265;
580.2000;0.9630;0.4123;
580.5000;0.9613;0.4052;
580.8000;0.9630;0.4028;
581.1000;0.9621;0.4004;
581.4000;0.9621;0.3933;
581.7000;0.9630;0.3957;
582.0000;0.9646;0.3957;
582.3000;0.9638;0.4028;
582.6000;0.9630;0.4099;
582.9000;0.9621;0.4123;
583.2000;0.9597;0.4052;
583.5000;0.9646;0.4052;
583.8000;0.9670;0.4075;
584.1000;0.9621;0.4004;
584.4000;0.9613;0.3933;
584.7000;0.9654;0.4052;
585.0000;0.9630;0.4004;
585.3000;0.9630;0.4004;
585.6000;0.9621;0.3980;
585.9000;0.9605;0.3909;
586.2000;0.9613;0.3909;
586.5000;0.9630;0.4004;
586.8000;0.9630;0.4028;
587.1000;0.9589;0.3933;
587.4000;0.9654;0.4004;
587.7000;0.9621;0.3933;
588.0000;0.9630;0.3933;
588.3000;0.9646;0.3933;
588.6000;0.9646;0.3957;
588.9000;0.9613;0.4004;
589.2000;0.9646;0.4028;
589.5000;0.9589;0.3933;
589.8000;0.9597;0.3933;
590.1000;0.9630;0.4052;
590.4000;0.9605;0.3886;
590.7000;0.9630;0.3980;
591.0000;0.9621;0.3933;
591.3000;0.9630;0.4004;
591.6000;0.9605;0.3980;
591.9000;0.9621;0.4028;
592.2000;0.9621;0.4052;
592.5000;0.9613;0.4004;
592.8000;0.9613;0.3980;
593.1000;0.9654;0.4146;
593.4000;0.9630;0.4052;
593.7000;0.9630;0.4075;
594.0000;0.9565;0.3933;
594.3000;0.9613;0.4123;
594.6000;0.9621;0.4123;
594.9000;0.9630;0.4099;
595.2000;0.9589;0.4028;
595.5000;0.9613;0.4099;
595.8000;0.9630;0.4123;
596.1000;0.9646;0.4146;
596.4000;0.9621;0.4123;
596.7000;0.9638;0.4123;
597.0000;0.9630;0.4194;
597.3000;0.9613;0.4146;
597.6000;0.9630;0.4004;
597.9000;0.9638;0.4028;
598.2000;0.9581;0.3933;
598.5000;0.9630;0.3980;
598.8000;0.9654;0.3980;
599.1000;0.9613;0.4004;
599.4000;0.9638;0.4004;
599.7000;0.9621;0.3909;
600.0000;0.9605;0.3933;
600.3000;0.9621;0.3815;
600.6000;0.9597;0.3554;
600.9000;0.9548;0.3341;
601.2000;0.9491;0.3009;
601.5000;0.9410;0.2772;
601.8000;0.9337;0.2606;
602.1000;0.9239;0.2298;
602.4000;0.9141;0.1943;
602.7000;0.9092;0.1611;
603.0000;0.9035;0.1445;
603.3000;0.8946;0.1303;
603.6000;0.8905;0.1208;
603.9000;0.8856;0.1137;
604.2000;0.8791;0.0924;
604.5000;0.8710;0.0711;
604.8000;0.8645;0.0616;
605.1000;0.8588;0.0569;
605.4000;0.8571;0.0521;
605.7000;0.8531;0.0474;
606.0000;0.8482;0.0379;
606.3000;0.8474;0.0379;
606.6000;0.8409;0.0308;
606.9000;0.8368;0.0284;
607.2000;0.8376;0.0308;
607.5000;0.8303;0.0166;
607.8000;0.8295;0.0142;
608.1000;0.8205;-0.0047;
608.4000;0.8197;0.0024;
608.7000;0.8173;-0.0071;
609.0000;0.8156;-0.0047;
609.3000;0.8107;-0.0142;
609.6000;0.8091;-0.0095;
609.9000;0.8059;-0.0166;
610.2000;0.8010;-0.0237;
610.5000;0.7969;-0.0332;
610.8000;0.7969;-0.0426;
611.1000;0.7953;-0.0379;
611.4000;0.7880;-0.0592;
611.7000;0.7912;-0.0379;
612.0000;0.7888;-0.0450;
612.3000;0.7880;-0.0545;
612.6000;0.7847;-0.0616;
612.9000;0.7847;-0.0640;
613.2000;0.7839;-0.0616;
613.5000;0.7725;-0.0877;
613.8000;0.7790;-0.0711;
614.1000;0.7774;-0.0758;
614.4000;0.7757;-0.0877;
614.7000;0.7741;-0.0853;
615.0000;0.7676;-0.0948;
615.3000;0.7717;-0.0829;
615.6000;0.7692;-0.0829;
615.9000;0.7586;-0.0995;
616.2000;0.7643;-0.0758;
616.5000;0.7611;-0.0806;
616.8000;0.7611;-0.0782;
617.1000;0.7603;-0.0758;
617.4000;0.7586;-0.0734;
617.7000;0.7554;-0.0877;
618.0000;0.7538;-0.0877;
618.3000;0.7546;-0.0829;
618.6000;0.7521;-0.0948;
618.9000;0.7497;-0.0948;
619.2000;0.7489;-0.0995;
619.5000;0.7497;-0.0971;
619.8000;0.7538;-0.0829;
620.1000;0.7432;-0.1042;
620.4000;0.7448;-0.1066;
620.7000;0.7440;-0.1114;
621.0000;0.7432;-0.1161;
621.3000;0.7432;-0.1161;
621.6000;0.7407;-0.1042;
621.9000;0.7391;-0.1019;
622.2000;0.7383;-0.1042;
622.5000;0.7367;-0.1114;
622.8000;0.7367;-0.1066;
623.1000;0.7359;-0.1161;
623.4000;0.7342;-0.1161;
623.7000;0.7334;-0.1256;
624.0000;0.7359;-0.1114;
624.3000;0.7326;-0.1066;
624.6000;0.7383;-0.0948;
624.9000;0.7367;-0.0948;
625.2000;0.7285;-0.1137;
625.5000;0.7261;-0.1090;
625.8000;0.7212;-0.1185;
626.1000;0.7342;-0.0782;
626.4000;0.7253;-0.0995;
626.7000;0.7245;-0.1066;
627.0000;0.7269;-0.0948;
627.3000;0.7220;-0.0971;
627.6000;0.7236;-0.0948;
627.9000;0.7277;-0.0853;
628.2000;0.7196;-0.1066;
628.5000;0.7196;-0.1042;
628.8000;0.7171;-0.1066;
629.1000;0.7139;-0.1090;
629.4000;0.7179;-0.0924;
629.7000;0.7171;-0.1042;
630.0000;0.7171;-0.1066;
630.3000;0.7163;-0.1042;
630.6000;0.7106;-0.1208;
630.9000;0.7139;-0.1137;
631.2000;0.7155;-0.1042;
631.5000;0.7131;-0.1042;
631.8000;0.7114;-0.1066;
632.1000;0.7139;-0.0995;
632.4000;0.7131;-0.0971;
632.7000;0.7106;-0.0948;
633.0000;0.7090;-0.0924;
633.3000;0.7098;-0.0877;
633.6000;0.7139;-0.0782;
633.9000;0.7082;-0.0924;
634.2000;0.7082;-0.0995;
634.5000;0.7114;-0.0995;
634.8000;0.7074;-0.1042;
635.1000;0.7082;-0.1090;
635.4000;0.7033;-0.1137;
635.7000;0.7057;-0.1090;
636.0000;0.7041;-0.1161;
636.3000;0.7057;-0.1137;
636.6000;0.7033;-0.1161;
636.9000;0.7025;-0.1137;
637.2000;0.7074;-0.0971;
637.5000;0.7009;-0.1090;
637.8000;0.7009;-0.1066;
638.1000;0.7009;-0.1066;
638.4000;0.6992;-0.1066;
638.7000;0.6984;-0.1066;
639.0000;0.6992;-0.0924;
639.3000;0.6960;-0.0924;
639.6000;0.6984;-0.0782;
639.9000;0.6968;-0.0877;
640.2000;0.6968;-0.0877;
640.5000;0.6960;-0.0995;
640.8000;0.6960;-0.0924;
641.1000;0.6952;-0.0995;
641.4000;0.6984;-0.0948;
641.7000;0.6935;-0.1090;
642.0000;0.6976;-0.0971;
642.3000;0.6935;-0.1042;
642.6000;0.6943;-0.1066;
642.9000;0.6943;-0.1090;
643.2000;0.6911;-0.1256;
643.5000;0.6903;-0.1279;
643.8000;0.6927;-0.1303;
644.1000;0.6903;-0.1185;
644.4000;0.6903;-0.1185;
644.7000;0.6895;-0.1208;
645.0000;0.6886;-0.1279;
645.3000;0.6911;-0.1303;
645.6000;0.6903;-0.1351;
645.9000;0.6903;-0.1327;
646.2000;0.6886;-0.1327;
646.5000;0.6895;-0.1303;
646.8000;0.6870;-0.1303;
647.1000;0.6895;-0.1327;
647.4000;0.6870;-0.1303;
647.7000;0.6903;-0.1114;
648.0000;0.6838;-0.1232;
648.3000;0.6854;-0.1185;
648.6000;0.6846;-0.1066;
648.9000;0.6838;-0.1114;
649.2000;0.6838;-0.1161;
649.5000;0.6829;-0.1185;
649.8000;0.6854;-0.1114;
650.1000;0.6829;-0.1279;
650.4000;0.6829;-0.1303;
650.7000;0.6813;-0.1279;
651.0000;0.6797;-0.1303;
651.3000;0.6797;-0.1256;
651.6000;0.6797;-0.1279;
651.9000;0.6781;-0.1303;
652.2000;0.6781;-0.1327;
652.5000;0.6764;-0.1351;
652.8000;0.6789;-0.1279;
653.1000;0.6797;-0.1256;
653.4000;0.6764;-0.1351;
653.7000;0.6764;-0.1374;
654.0000;0.6756;-0.1351;
654.3000;0.6772;-0.1351;
654.6000;0.6756;-0.1445;
654.9000;0.6764;-0.1351;
655.2000;0.6756;-0.1398;
655.5000;0.6748;-0.1445;
655.8000;0.6732;-0.1493;
656.1000;0.6740;-0.1445;
656.4000;0.6756;-0.1351;
656.7000;0.6740;-0.1422;
657.0000;0.6732;-0.1469;
657.3000;0.6732;-0.1516;
657.6000;0.6716;-0.1564;
657.9000;0.6716;-0.1564;
658.2000;0.6716;-0.1469;
658.5000;0.6707;-0.1469;
658.8000;0.6724;-0.1445;
659.1000;0.6683;-0.1422;
659.4000;0.6724;-0.1279;
659.7000;0.6699;-0.1279;
660.0000;0.6699;-0.1256;
660.3000;0.6716;-0.1208;
660.6000;0.6716;-0.1161;
660.9000;0.6716;-0.1019;
661.2000;0.6724;-0.0948;
661.5000;0.6683;-0.1090;
661.8000;0.6618;-0.1232;
662.1000;0.6691;-0.1090;
662.4000;0.6683;-0.1090;
662.7000;0.6675;-0.1114;
663.0000;0.6691;-0.1114;
663.3000;0.6634;-0.1327;
663.6000;0.6683;-0.1161;
663.9000;0.6699;-0.1161;
664.2000;0.6659;-0.1256;
664.5000;0.6659;-0.1208;
664.8000;0.6618;-0.1279;
665.1000;0.6659;-0.1137;
665.4000;0.6659;-0.1185;
665.7000;0.6667;-0.1066;
666.0000;0.6675;-0.1114;
666.3000;0.6642;-0.1137;
666.6000;0.6626;-0.1232;
666.9000;0.6650;-0.1090;
667.2000;0.6642;-0.1185;
667.5000;0.6569;-0.1374;
667.8000;0.6618;-0.1256;
668.1000;0.6593;-0.1208;
668.4000;0.6610;-0.1066;
668.7000;0.6642;-0.1019;
669.0000;0.6610;-0.1114;
669.3000;0.6610;-0.1232;
669.6000;0.6593;-0.1256;
669.9000;0.6569;-0.1351;
670.2000;0.6585;-0.1327;
670.5000;0.6602;-0.1279;
670.8000;0.6610;-0.1279;
671.1000;0.6577;-0.1279;
671.4000;0.6593;-0.1303;
671.7000;0.6585;-0.1374;
672.0000;0.6610;-0.1256;
672.3000;0.6593;-0.1256;
672.6000;0.6569;-0.1303;
672.9000;0.6561;-0.1208;
673.2000;0.6553;-0.1161;
673.5000;0.6585;-0.1137;
673.8000;0.6618;-0.0948;
674.1000;0.6545;-0.1114;
674.4000;0.6561;-0.1161;
674.7000;0.6553;-0.1208;
675.0000;0.6561;-0.1256;
675.3000;0.6545;-0.1279;
675.6000;0.6545;-0.1232;
675.9000;0.6545;-0.1161;
676.2000;0.6520;-0.1256;
676.5000;0.6553;-0.1161;
676.8000;0.6520;-0.1114;
677.1000;0.6545;-0.1137;
677.4000;0.6561;-0.1042;
677.7000;0.6512;-0.1042;
678.0000;0.6520;-0.0971;
678.3000;0.6545;-0.0948;
678.6000;0.6520;-0.1090;
678.9000;0.6520;-0.1137;
679.2000;0.6488;-0.1232;
679.5000;0.6504;-0.1232;
679.8000;0.6496;-0.1185;
680.1000;0.6504;-0.1256;
680.4000;0.6463;-0.1327;
680.7000;0.6488;-0.1232;
681.0000;0.6504;-0.1232;
681.3000;0.6479;-0.1256;
681.6000;0.6488;-0.1161;
681.9000;0.6479;-0.1161;
682.2000;0.6496;-0.1232;
682.5000;0.6488;-0.1208;
682.8000;0.6488;-0.1042;
683.1000;0.6471;-0.1161;
683.4000;0.6471;-0.1114;
683.7000;0.6471;-0.1090;
684.0000;0.6463;-0.1114;
684.3000;0.6439;-0.1185;
684.6000;0.6463;-0.1090;
684.9000;0.6471;-0.1066;
685.2000;0.6455;-0.1185;
685.5000;0.6447;-0.1161;
685.8000;0.6447;-0.1208;
686.1000;0.6455;-0.1208;
686.4000;0.6471;-0.1208;
686.7000;0.6455;-0.1303;
687.0000;0.6447;-0.1303;
687.3000;0.6455;-0.1279;
687.6000;0.6471;-0.1256;
687.9000;0.6406;-0.1303;
688.2000;0.6422;-0.1161;
688.5000;0.6439;-0.1114;
688.8000;0.6447;-0.1114;
689.1000;0.6447;-0.1042;
689.4000;0.6431;-0.1042;
689.7000;0.6414;-0.1161;
690.0000;0.6431;-0.1114;
690.3000;0.6398;-0.1114;
690.6000;0.6357;-0.1137;
690.9000;0.6406;-0.0995;
691.2000;0.6422;-0.0971;
691.5000;0.6406;-0.0971;
691.8000;0.6357;-0.1114;
692.1000;0.6398;-0.0971;
692.4000;0.6406;-0.0995;
692.7000;0.6341;-0.1137;
693.0000;0.6406;-0.0995;
693.3000;0.6398;-0.1066;
693.6000;0.6463;-0.0971;
693.9000;0.6398;-0.1042;
694.2000;0.6365;-0.1137;
694.5000;0.6382;-0.1137;
694.8000;0.6365;-0.1090;
695.1000;0.6357;-0.1090;
695.4000;0.6382;-0.1066;
695.7000;0.6374;-0.1042;
696.0000;0.6382;-0.1090;
696.3000;0.6406;-0.1042;
696.6000;0.6300;-0.1327;
696.9000;0.6398;-0.1185;
697.2000;0.6382;-0.1161;
697.5000;0.6374;-0.1161;
697.8000;0.6382;-0.1090;
698.1000;0.6374;-0.1066;
698.4000;0.6365;-0.1019;
698.7000;0.6374;-0.0924;
699.0000;0.6374;-0.0924;
699.3000;0.6382;-0.0900;
699.6000;0.6365;-0.0924;
699.9000;0.6357;-0.0900;
700.2000;0.6341;-0.0971;
700.5000;0.6357;-0.0971;
700.8000;0.6357;-0.0948;
701.1000;0.6341;-0.0924;
701.4000;0.6333;-0.0948;
701.7000;0.6341;-0.0924;
702.0000;0.6333;-0.1042;
702.3000;0.6284;-0.1066;
702.6000;0.6341;-0.0995;
702.9000;0.6317;-0.1114;
703.2000;0.6284;-0.1137;
703.5000;0.6317;-0.1185;
703.8000;0.6325;-0.1256;
704.1000;0.6333;-0.1090;
704.4000;0.6333;-0.1066;
704.7000;0.6349;-0.1090;
705.0000;0.6317;-0.1161;
705.3000;0.6300;-0.1232;
705.6000;0.6309;-0.1137;
705.9000;0.6317;-0.1019;
706.2000;0.6300;-0.1066;
706.5000;0.6317;-0.1042;
706.8000;0.6317;-0.0924;
707.1000;0.6317;-0.0900;
707.4000;0.6325;-0.0853;
707.7000;0.6300;-0.0995;
708.0000;0.6300;-0.1042;
708.3000;0.6309;-0.1042;
708.6000;0.6317;-0.1066;
708.9000;0.6268;-0.1090;
709.2000;0.6300;-0.1019;
709.5000;0.6276;-0.0995;
709.8000;0.6292;-0.1042;
710.1000;0.6235;-0.1161;
710.4000;0.6300;-0.0995;
710.7000;0.6292;-0.1066;
711.0000;0.6284;-0.1042;
711.3000;0.6227;-0.1185;
711.6000;0.6276;-0.1019;
711.9000;0.6284;-0.1019;
712.2000;0.6260;-0.1066;
712.5000;0.6260;-0.1090;
712.8000;0.6243;-0.1185;
713.1000;0.6300;-0.1090;
713.4000;0.6276;-0.1066;
713.7000;0.6276;-0.1066;
714.0000;0.6252;-0.1090;
714.3000;0.6276;-0.1066;
714.6000;0.6276;-0.1066;
714.9000;0.6252;-0.1114;
715.2000;0.6260;-0.1019;
715.5000;0.6252;-0.1019;
715.8000;0.6252;-0.1019;
716.1000;0.6243;-0.1090;
716.4000;0.6243;-0.1066;
716.7000;0.6243;-0.1066;
717.0000;0.6235;-0.1090;
717.3000;0.6243;-0.1066;
717.6000;0.6219;-0.1019;
717.9000;0.6292;-0.0758;
718.2000;0.6235;-0.0853;
718.5000;0.6252;-0.0758;
718.8000;0.6219;-0.0829;
719.1000;0.6219;-0.0877;
719.4000;0.6235;-0.0948;
719.7000;0.6243;-0.0971;
720.0000;0.6146;-0.1161;
720.3000;0.6162;-0.1090;
720.6000;0.6219;-0.0948;
720.9000;0.6203;-0.0971;
721.2000;0.6219;-0.0877;
721.5000;0.6235;-0.0948;
721.8000;0.6211;-0.0995;
722.1000;0.6227;-0.0948;
722.4000;0.6227;-0.0900;
722.7000;0.6211;-0.0924;
723.0000;0.6203;-0.0924;
723.3000;0.6211;-0.0948;
723.6000;0.6203;-0.0995;
723.9000;0.6170;-0.1090;
724.2000;0.6203;-0.1019;
724.5000;0.6186;-0.1042;
724.8000;0.6219;-0.0924;
725.1000;0.6203;-0.0924;
725.4000;0.6186;-0.0924;
725.7000;0.6203;-0.0758;
726.0000;0.6203;-0.0782;
726.3000;0.6178;-0.0782;
726.6000;0.6170;-0.0758;
726.9000;0.6162;-0.0829;
727.2000;0.6162;-0.0877;
727.5000;0.6195;-0.0900;
727.8000;0.6178;-0.0948;
728.1000;0.6178;-0.0971;
728.4000;0.6186;-0.0924;
728.7000;0.6178;-0.0924;
729.0000;0.6170;-0.0853;
729.3000;0.6170;-0.0853;
729.6000;0.6178;-0.0782;
729.9000;0.6154;-0.0806;
730.2000;0.6154;-0.0853;
730.5000;0.6121;-0.0971;
730.8000;0.6178;-0.0900;
731.1000;0.6178;-0.0924;
731.4000;0.6186;-0.0853;
731.7000;0.6170;-0.0853;
732.0000;0.6162;-0.0853;
732.3000;0.6170;-0.0782;
732.6000;0.6146;-0.0806;
732.9000;0.6129;-0.0829;
733.2000;0.6146;-0.0900;
733.5000;0.6162;-0.0924;
733.8000;0.6178;-0.0995;
734.1000;0.6154;-0.0924;
734.4000;0.6138;-0.0971;
734.7000;0.6162;-0.0877;
735.0000;0.6162;-0.0877;
735.3000;0.6178;-0.0806;
735.6000;0.6154;-0.0900;
735.9000;0.6097;-0.1019;
736.2000;0.6154;-0.0782;
736.5000;0.6138;-0.0758;
736.8000;0.6138;-0.0758;
737.1000;0.6138;-0.0711;
737.4000;0.6154;-0.0758;
737.7000;0.6138;-0.0853;
738.0000;0.6170;-0.0758;
738.3000;0.6138;-0.0806;
738.6000;0.6129;-0.0806;
738.9000;0.6154;-0.0924;
739.2000;0.6138;-0.1019;
739.5000;0.6121;-0.1019;
739.8000;0.6154;-0.0829;
740.1000;0.6162;-0.0806;
740.4000;0.6129;-0.0853;
740.7000;0.6146;-0.0829;
741.0000;0.6129;-0.0877;
741.3000;0.6146;-0.0806;
741.6000;0.6138;-0.0782;
741.9000;0.6146;-0.0758;
742.2000;0.6105;-0.0900;
742.5000;0.6113;-0.0877;
742.8000;0.6121;-0.0877;
743.1000;0.6186;-0.0663;
743.4000;0.6129;-0.0877;
743.7000;0.6162;-0.0829;
744.0000;0.6146;-0.0900;
744.3000;0.6121;-0.1019;
744.6000;0.6121;-0.1019;
744.9000;0.6064;-0.1208;
745.2000;0.6195;-0.0877;
745.5000;0.6121;-0.1042;
745.8000;0.6129;-0.1019;
746.1000;0.6105;-0.0948;
746.4000;0.6105;-0.0971;
746.7000;0.6105;-0.0924;
747.0000;0.6113;-0.0877;
747.3000;0.6089;-0.0877;
747.6000;0.6097;-0.0924;
747.9000;0.6089;-0.0900;
748.2000;0.6089;-0.0924;
748.5000;0.6089;-0.0948;
748.8000;0.6081;-0.0995;
749.1000;0.6097;-0.1019;
749.4000;0.6056;-0.0995;
749.7000;0.6089;-0.0995;
750.0000;0.6072;-0.0971;
750.3000;0.6105;-0.0877;
750.6000;0.6089;-0.0924;
750.9000;0.6081;-0.0900;
751.2000;0.6081;-0.0900;
751.5000;0.6081;-0.0971;
751.8000;0.6081;-0.0971;
752.1000;0.6072;-0.1019;
752.4000;0.6072;-0.0971;
752.7000;0.6089;-0.1019;
753.0000;0.6081;-0.1066;
753.3000;0.6048;-0.1114;
753.6000;0.6121;-0.0806;
753.9000;0.6081;-0.0853;
754.2000;0.6064;-0.0853;
754.5000;0.6097;-0.0829;
754.8000;0.6064;-0.0948;
755.1000;0.6072;-0.0924;
755.4000;0.6081;-0.0924;
755.7000;0.6064;-0.0924;
756.0000;0.6081;-0.0948;
756.3000;0.6072;-0.0971;
756.6000;0.6072;-0.0948;
756.9000;0.6089;-0.0924;
757.2000;0.6113;-0.0782;
757.5000;0.6072;-0.0853;
757.8000;0.6072;-0.0829;
758.1000;0.6024;-0.0995;
758.4000;0.6056;-0.0900;
758.7000;0.6064;-0.0877;
759.0000;0.6089;-0.0758;
759.3000;0.6056;-0.0853;
759.6000;0.6048;-0.0924;
759.9000;0.6040;-0.0924;
760.2000;0.6040;-0.0948;
760.5000;0.6048;-0.0971;
760.8000;0.6072;-0.0948;
761.1000;0.6048;-0.0971;
761.4000;0.6040;-0.0971;
761.7000;0.6056;-0.0900;
762.0000;0.6048;-0.0853;
762.3000;0.6040;-0.0900;
762.6000;0.6040;-0.0806;
762.9000;0.6040;-0.0711;
763.2000;0.6032;-0.0734;
763.5000;0.6032;-0.0711;
763.8000;0.6032;-0.0782;
764.1000;0.6056;-0.0806;
764.4000;0.6064;-0.0877;
764.7000;0.6032;-0.0924;
765.0000;0.6040;-0.0877;
765.3000;0.6015;-0.0877;
765.6000;0.6048;-0.0782;
765.9000;0.6032;-0.0734;
766.2000;0.6024;-0.0829;
766.5000;0.6024;-0.0877;
766.8000;0.6024;-0.0877;
767.1000;0.6040;-0.0806;
767.4000;0.6048;-0.0758;
767.7000;0.6024;-0.0806;
768.0000;0.6015;-0.0782;
768.3000;0.6015;-0.0782;
768.6000;0.5999;-0.0853;
768.9000;0.6024;-0.0782;
769.2000;0.5958;-0.0829;
769.5000;0.6024;-0.0687;
769.8000;0.6032;-0.0663;
770.1000;0.6015;-0.0687;
770.4000;0.6024;-0.0687;
770.7000;0.6032;-0.0663;
771.0000;0.6024;-0.0711;
771.3000;0.6024;-0.0711;
771.6000;0.6015;-0.0853;
771.9000;0.6024;-0.0806;
772.2000;0.6007;-0.0758;
772.5000;0.6007;-0.0734;
772.8000;0.5999;-0.0782;
773.1000;0.5999;-0.0806;
773.4000;0.6015;-0.0782;
773.7000;0.5999;-0.0829;
774.0000;0.5999;-0.0758;
774.3000;0.5926;-0.0853;
774.6000;0.5999;-0.0640;
774.9000;0.6007;-0.0687;
775.2000;0.5991;-0.0782;
775.5000;0.6007;-0.0806;
775.8000;0.5991;-0.0782;
776.1000;0.5999;-0.0734;
776.4000;0.5983;-0.0734;
776.7000;0.5999;-0.0616;
777.0000;0.5983;-0.0616;
777.3000;0.5999;-0.0569;
777.6000;0.5991;-0.0521;
777.9000;0.5991;-0.0498;
778.2000;0.5983;-0.0474;
778.5000;0.5999;-0.0474;
778.8000;0.5999;-0.0474;
779.1000;0.5991;-0.0592;
779.4000;0.6024;-0.0474;
779.7000;0.5991;-0.0592;
780.0000;0.6007;-0.0592;
780.3000;0.5950;-0.0663;
780.6000;0.5967;-0.0545;
780.9000;0.5983;-0.0616;
781.2000;0.5991;-0.0545;
781.5000;0.5983;-0.0592;
781.8000;0.6007;-0.0592;
782.1000;0.5999;-0.0592;
782.4000;0.5958;-0.0711;
782.7000;0.5983;-0.0640;
783.0000;0.5975;-0.0592;
783.3000;0.5942;-0.0640;
783.6000;0.5983;-0.0569;
783.9000;0.5967;-0.0616;
784.2000;0.5975;-0.0711;
784.5000;0.5958;-0.0782;
784.8000;0.5975;-0.0711;
785.1000;0.5983;-0.0592;
785.4000;0.5983;-0.0521;
785.7000;0.5967;-0.0592;
786.0000;0.6015;-0.0498;
786.3000;0.5967;-0.0592;
786.6000;0.5967;-0.0616;
786.9000;0.5983;-0.0592;
787.2000;0.5958;-0.0640;
787.5000;0.6015;-0.0521;
787.8000;0.5967;-0.0711;
788.1000;0.5999;-0.0569;
788.4000;0.5967;-0.0569;
788.7000;0.5967;-0.0498;
789.0000;0.5975;-0.0498;
789.3000;0.5967;-0.0592;
789.6000;0.5958;-0.0640;
789.9000;0.5958;-0.0663;
790.2000;0.6007;-0.0545;
790.5000;0.5967;-0.0663;
790.8000;0.5958;-0.0640;
791.1000;0.5975;-0.0569;
791.4000;0.5958;-0.0592;
791.7000;0.5958;-0.0498;
792.0000;0.5950;-0.0545;
792.3000;0.5950;-0.0616;
792.6000;0.5950;-0.0711;
792.9000;0.5967;-0.0687;
793.2000;0.5950;-0.0711;
793.5000;0.5950;-0.0640;
793.8000;0.5950;-0.0521;
794.1000;0.6007;-0.0355;
794.4000;0.5958;-0.0426;
794.7000;0.5942;-0.0426;
795.0000;0.5950;-0.0521;
795.3000;0.5950;-0.0592;
795.6000;0.5950;-0.0592;
795.9000;0.5942;-0.0592;
796.2000;0.5967;-0.0569;
796.5000;0.5934;-0.0616;
796.8000;0.5934;-0.0640;
797.1000;0.5942;-0.0616;
797.4000;0.5926;-0.0687;
797.7000;0.5942;-0.0640;
798.0000;0.5942;-0.0592;
798.3000;0.5926;-0.0640;
798.6000;0.5926;-0.0545;
798.9000;0.5942;-0.0545;
799.2000;0.5967;-0.0474;
799.5000;0.5942;-0.0640;
799.8000;0.5942;-0.0640;
800.1000;0.5942;-0.0711;
800.4000;0.5934;-0.0640;
800.7000;0.5934;-0.0640;
801.0000;0.5918;-0.0640;
801.3000;0.5910;-0.0616;
801.6000;0.5926;-0.0616;
801.9000;0.5942;-0.0498;
802.2000;0.5934;-0.0498;
802.5000;0.5926;-0.0640;
802.8000;0.5942;-0.0640;
803.1000;0.5950;-0.0498;
803.4000;0.5950;-0.0521;
803.7000;0.5926;-0.0663;
804.0000;0.5942;-0.0545;
804.3000;0.5934;-0.0569;
804.6000;0.5934;-0.0569;
804.9000;0.5934;-0.0616;
805.2000;0.5926;-0.0592;
805.5000;0.5918;-0.0616;
805.8000;0.5918;-0.0640;
806.1000;0.5910;-0.0663;
806.4000;0.5975;-0.0569;
806.7000;0.5926;-0.0806;
807.0000;0.5902;-0.0829;
807.3000;0.5926;-0.0782;
807.6000;0.5918;-0.0758;
807.9000;0.5910;-0.0758;
808.2000;0.5910;-0.0758;
808.5000;0.5910;-0.0711;
808.8000;0.5869;-0.0782;
809.1000;0.5893;-0.0806;
809.4000;0.5902;-0.0758;
809.7000;0.5902;-0.0853;
810.0000;0.5853;-0.0877;
810.3000;0.5877;-0.0806;
810.6000;0.5918;-0.0711;
810.9000;0.5967;-0.0640;
811.2000;0.5885;-0.0734;
811.5000;0.5893;-0.0687;
811.8000;0.5910;-0.0663;
812.1000;0.5910;-0.0687;
812.4000;0.5893;-0.0663;
812.7000;0.5902;-0.0640;
813.0000;0.5902;-0.0616;
813.3000;0.5893;-0.0616;
813.6000;0.5950;-0.0545;
813.9000;0.5869;-0.0687;
814.2000;0.5885;-0.0592;
814.5000;0.5918;-0.0545;
814.8000;0.5902;-0.0521;
815.1000;0.5902;-0.0450;
815.4000;0.5869;-0.0521;
815.7000;0.5869;-0.0521;
816.0000;0.5877;-0.0450;
816.3000;0.5885;-0.0498;
816.6000;0.5877;-0.0450;
816.9000;0.5967;-0.0332;
817.2000;0.5902;-0.0592;
817.5000;0.5877;-0.0711;
817.8000;0.5893;-0.0687;
818.1000;0.5910;-0.0640;
818.4000;0.5910;-0.0663;
818.7000;0.5885;-0.0640;
819.0000;0.5869;-0.0663;
819.3000;0.5893;-0.0640;
819.6000;0.5893;-0.0569;
819.9000;0.5885;-0.0545;
820.2000;0.5885;-0.0545;
820.5000;0.5877;-0.0498;
820.8000;0.5869;-0.0521;
821.1000;0.5885;-0.0616;
821.4000;0.5828;-0.0806;
821.7000;0.5877;-0.0663;
822.0000;0.5853;-0.0734;
822.3000;0.5885;-0.0711;
822.6000;0.5861;-0.0806;
822.9000;0.5845;-0.0782;
823.2000;0.5853;-0.0806;
823.5000;0.5836;-0.0971;
823.8000;0.5853;-0.0948;
824.1000;0.5853;-0.0948;
824.4000;0.5861;-0.0900;
824.7000;0.5861;-0.0782;
825.0000;0.5853;-0.0711;
825.3000;0.5853;-0.0758;
825.6000;0.5861;-0.0758;
825.9000;0.5845;-0.0734;
826.2000;0.5869;-0.0592;
826.5000;0.5885;-0.0687;
826.8000;0.5861;-0.0734;
827.1000;0.5869;-0.0687;
827.4000;0.5869;-0.0782;
827.7000;0.5877;-0.0734;
828.0000;0.5812;-0.0877;
828.3000;0.5861;-0.0782;
828.6000;0.5885;-0.0829;
828.9000;0.5828;-0.0948;
829.2000;0.5910;-0.0711;
829.5000;0.5861;-0.0758;
829.8000;0.5877;-0.0592;
830.1000;0.5869;-0.0640;
830.4000;0.5861;-0.0687;
830.7000;0.5853;-0.0663;
831.0000;0.5861;-0.0663;
831.3000;0.5853;-0.0663;
831.6000;0.5910;-0.0498;
831.9000;0.5845;-0.0592;
832.2000;0.5845;-0.0616;
832.5000;0.5796;-0.0806;
832.8000;0.5853;-0.0663;
833.1000;0.5845;-0.0663;
833.4000;0.5853;-0.0687;
833.7000;0.5836;-0.0687;
834.0000;0.5902;-0.0521;
834.3000;0.5853;-0.0545;
834.6000;0.5853;-0.0616;
834.9000;0.5893;-0.0592;
835.2000;0.5804;-0.0806;
835.5000;0.5861;-0.0711;
835.8000;0.5796;-0.0829;
836.1000;0.5869;-0.0521;
836.4000;0.5853;-0.0545;
836.7000;0.5877;-0.0450;
837.0000;0.5788;-0.0592;
837.3000;0.5845;-0.0521;
837.6000;0.5902;-0.0332;
837.9000;0.5845;-0.0498;
838.2000;0.5804;-0.0640;
838.5000;0.5845;-0.0592;
838.8000;0.5869;-0.0545;
839.1000;0.5836;-0.0663;
839.4000;0.5853;-0.0663;
839.7000;0.5828;-0.0711;
840.0000;0.5861;-0.0711;
840.3000;0.5828;-0.0711;
840.6000;0.5845;-0.0592;
840.9000;0.5820;-0.0663;
841.2000;0.5853;-0.0545;
841.5000;0.5804;-0.0592;
841.8000;0.5845;-0.0521;
842.1000;0.5820;-0.0640;
842.4000;0.5836;-0.0711;
842.7000;0.5812;-0.0806;
843.0000;0.5845;-0.0663;
843.3000;0.5804;-0.0806;
843.6000;0.5779;-0.0829;
843.9000;0.5845;-0.0592;
844.2000;0.5845;-0.0521;
844.5000;0.5836;-0.0545;
844.8000;0.5836;-0.0521;
845.1000;0.5828;-0.0521;
845.4000;0.5853;-0.0450;
845.7000;0.5845;-0.0426;
846.0000;0.5836;-0.0403;
846.3000;0.5820;-0.0498;
846.6000;0.5836;-0.0474;
846.9000;0.5828;-0.0450;
847.2000;0.5812;-0.0498;
847.5000;0.5779;-0.0569;
847.8000;0.5812;-0.0403;
848.1000;0.5812;-0.0498;
848.4000;0.5812;-0.0592;
848.7000;0.5796;-0.0687;
849.0000;0.5812;-0.0663;
849.3000;0.5804;-0.0711;
849.6000;0.5820;-0.0592;
849.9000;0.5853;-0.0569;
850.2000;0.5779;-0.0806;
850.5000;0.5812;-0.0616;
850.8000;0.5804;-0.0640;
851.1000;0.5812;-0.0545;
851.4000;0.5820;-0.0450;
851.7000;0.5804;-0.0498;
852.0000;0.5820;-0.0474;
852.3000;0.5820;-0.0474;
852.6000;0.5804;-0.0545;
852.9000;0.5804;-0.0545;
853.2000;0.5877;-0.0474;
853.5000;0.5804;-0.0616;
853.8000;0.5812;-0.0592;
854.1000;0.5812;-0.0498;
854.4000;0.5812;-0.0403;
854.7000;0.5804;-0.0450;
855.0000;0.5812;-0.0498;
855.3000;0.5828;-0.0498;
855.6000;0.5804;-0.0521;
855.9000;0.5771;-0.0521;
856.2000;0.5820;-0.0403;
856.5000;0.5804;-0.0450;
856.8000;0.5788;-0.0332;
857.1000;0.5796;-0.0308;
857.4000;0.5796;-0.0332;
857.7000;0.5796;-0.0403;
858.0000;0.5836;-0.0379;
858.3000;0.5820;-0.0426;
858.6000;0.5812;-0.0498;
858.9000;0.5820;-0.0403;
859.2000;0.5804;-0.0545;
859.5000;0.5812;-0.0545;
859.8000;0.5853;-0.0474;
860.1000;0.5804;-0.0616;
860.4000;0.5804;-0.0521;
860.7000;0.5779;-0.0640;
861.0000;0.5771;-0.0592;
861.3000;0.5796;-0.0592;
861.6000;0.5788;-0.0592;
861.9000;0.5804;-0.0474;
862.2000;0.5812;-0.0498;
862.5000;0.5804;-0.0498;
862.8000;0.5788;-0.0545;
863.1000;0.5796;-0.0592;
863.4000;0.5804;-0.0640;
863.7000;0.5788;-0.0663;
864.0000;0.5820;-0.0498;
864.3000;0.5788;-0.0569;
864.6000;0.5804;-0.0498;
864.9000;0.5804;-0.0450;
865.2000;0.5779;-0.0498;
865.5000;0.5788;-0.0474;
865.8000;0.5747;-0.0640;
866.1000;0.5796;-0.0592;
866.4000;0.5796;-0.0569;
866.7000;0.5796;-0.0545;
867.0000;0.5779;-0.0521;
867.3000;0.5820;-0.0474;
867.6000;0.5788;-0.0521;
867.9000;0.5771;-0.0426;
868.2000;0.5779;-0.0403;
868.5000;0.5788;-0.0450;
868.8000;0.5788;-0.0426;
869.1000;0.5755;-0.0498;
869.4000;0.5788;-0.0498;
869.7000;0.5796;-0.0498;
870.0000;0.5796;-0.0474;
870.3000;0.5763;-0.0450;
870.6000;0.5779;-0.0426;
870.9000;0.5796;-0.0426;
871.2000;0.5763;-0.0474;
871.5000;0.5779;-0.0498;
871.8000;0.5796;-0.0521;
872.1000;0.5788;-0.0592;
872.4000;0.5747;-0.0663;
872.7000;0.5779;-0.0640;
873.0000;0.5771;-0.0640;
873.3000;0.5755;-0.0616;
873.6000;0.5779;-0.0569;
873.9000;0.5828;-0.0569;
874.2000;0.5804;-0.0521;
874.5000;0.5779;-0.0616;
874.8000;0.5796;-0.0616;
875.1000;0.5706;-0.0782;
875.4000;0.5698;-0.0782;
875.7000;0.5779;-0.0569;
876.0000;0.5779;-0.0592;
876.3000;0.5861;-0.0426;
876.6000;0.5788;-0.0687;
876.9000;0.5771;-0.0687;
877.2000;0.5771;-0.0711;
877.5000;0.5779;-0.0663;
877.8000;0.5779;-0.0640;
878.1000;0.5763;-0.0616;
878.4000;0.5779;-0.0521;
878.7000;0.5779;-0.0592;
879.0000;0.5763;-0.0569;
879.3000;0.5788;-0.0498;
879.6000;0.5731;-0.0640;
879.9000;0.5763;-0.0569;
880.2000;0.5788;-0.0426;
880.5000;0.5763;-0.0498;
880.8000;0.5763;-0.0521;
881.1000;0.5771;-0.0498;
881.4000;0.5788;-0.0450;
881.7000;0.5739;-0.0521;
882.0000;0.5747;-0.0498;
882.3000;0.5763;-0.0521;
882.6000;0.5779;-0.0450;
882.9000;0.5779;-0.0403;
883.2000;0.5714;-0.0545;
883.5000;0.5779;-0.0379;
883.8000;0.5763;-0.0403;
884.1000;0.5788;-0.0450;
884.4000;0.5771;-0.0474;
884.7000;0.5763;-0.0569;
885.0000;0.5763;-0.0521;
885.3000;0.5771;-0.0521;
885.6000;0.5788;-0.0474;
885.9000;0.5771;-0.0569;
886.2000;0.5763;-0.0616;
886.5000;0.5779;-0.0592;
886.8000;0.5788;-0.0545;
887.1000;0.5779;-0.0450;
887.4000;0.5763;-0.0450;
887.7000;0.5747;-0.0450;
888.0000;0.5771;-0.0426;
888.3000;0.5779;-0.0403;
888.6000;0.5755;-0.0426;
888.9000;0.5779;-0.0379;
889.2000;0.5755;-0.0379;
889.5000;0.5763;-0.0426;
889.8000;0.5755;-0.0379;
890.1000;0.5698;-0.0545;
890.4000;0.5747;-0.0426;
890.7000;0.5706;-0.0521;
891.0000;0.5739;-0.0545;
891.3000;0.5747;-0.0545;
891.6000;0.5763;-0.0450;
891.9000;0.5747;-0.0450;
892.2000;0.5755;-0.0426;
892.5000;0.5747;-0.0450;
892.8000;0.5755;-0.0521;
893.1000;0.5796;-0.0403;
893.4000;0.5747;-0.0403;
893.7000;0.5755;-0.0355;
894.0000;0.5747;-0.0450;
894.3000;0.5739;-0.0426;
894.6000;0.5755;-0.0521;
894.9000;0.5755;-0.0616;
895.2000;0.5747;-0.0592;
895.5000;0.5755;-0.0569;
895.8000;0.5739;-0.0663;
896.1000;0.5755;-0.0616;
896.4000;0.5747;-0.0640;
896.7000;0.5722;-0.0640;
897.0000;0.5755;-0.0711;
897.3000;0.5747;-0.0663;
897.6000;0.5747;-0.0616;
897.9000;0.5755;-0.0450;
898.2000;0.5812;-0.0261;
898.5000;0.5755;-0.0379;
898.8000;0.5747;-0.0355;
899.1000;0.5674;-0.0521;
899.4000;0.5763;-0.0284;
899.7000;0.5755;-0.0284;
900.0000;0.5788;-0.0308;
900.3000;0.5747;-0.0426;
900.6000;0.5739;-0.0403;
900.9000;0.5747;-0.0379;
901.2000;0.5739;-0.0450;
901.5000;0.5731;-0.0498;
901.8000;0.5739;-0.0426;
902.1000;0.5739;-0.0332;
902.4000;0.5739;-0.0379;
902.7000;0.5731;-0.0379;
903.0000;0.5731;-0.0426;
903.3000;0.5731;-0.0426;
903.6000;0.5739;-0.0474;
903.9000;0.5739;-0.0521;
904.2000;0.5714;-0.0569;
904.5000;0.5747;-0.0521;
904.8000;0.5739;-0.0592;
905.1000;0.5739;-0.0616;
905.4000;0.5747;-0.0640;
905.7000;0.5755;-0.0545;
906.0000;0.5722;-0.0616;
906.3000;0.5731;-0.0616;
906.6000;0.5731;-0.0663;
906.9000;0.5747;-0.0592;
907.2000;0.5722;-0.0711;
907.5000;0.5731;-0.0616;
907.8000;0.5739;-0.0592;
908.1000;0.5747;-0.0592;
908.4000;0.5763;-0.0498;
908.7000;0.5739;-0.0521;
909.0000;0.5731;-0.0569;
909.3000;0.5722;-0.0569;
909.6000;0.5739;-0.0592;
909.9000;0.5739;-0.0687;
910.2000;0.5739;-0.0640;
910.5000;0.5731;-0.0687;
910.8000;0.5739;-0.0640;
911.1000;0.5747;-0.0616;
911.4000;0.5722;-0.0640;
911.7000;0.5731;-0.0569;
912.0000;0.5755;-0.0379;
912.3000;0.5788;-0.0213;
912.6000;0.5722;-0.0332;
912.9000;0.5747;-0.0332;
913.2000;0.5747;-0.0332;
913.5000;0.5739;-0.0332;
913.8000;0.5731;-0.0426;
914.1000;0.5755;-0.0284;
914.4000;0.5731;-0.0379;
914.7000;0.5739;-0.0426;
915.0000;0.5739;-0.0450;
915.3000;0.5698;-0.0450;
915.6000;0.5706;-0.0403;
915.9000;0.5722;-0.0450;
916.2000;0.5706;-0.0545;
916.5000;0.5714;-0.0569;
916.8000;0.5714;-0.0569;
917.1000;0.5722;-0.0521;
917.4000;0.5722;-0.0450;
917.7000;0.5722;-0.0498;
918.0000;0.5706;-0.0521;
918.3000;0.5722;-0.0450;
918.6000;0.5722;-0.0474;
918.9000;0.5722;-0.0474;
919.2000;0.5739;-0.0426;
919.5000;0.5722;-0.0545;
919.8000;0.5731;-0.0592;
920.1000;0.5722;-0.0640;
920.4000;0.5706;-0.0592;
920.7000;0.5714;-0.0640;
921.0000;0.5731;-0.0569;
921.3000;0.5722;-0.0569;
921.6000;0.5698;-0.0569;
921.9000;0.5714;-0.0592;
922.2000;0.5722;-0.0569;
922.5000;0.5722;-0.0592;
922.8000;0.5722;-0.0592;
923.1000;0.5714;-0.0569;
923.4000;0.5731;-0.0592;
923.7000;0.5722;-0.0616;
924.0000;0.5731;-0.0592;
924.3000;0.5731;-0.0450;
924.6000;0.5722;-0.0498;
924.9000;0.5747;-0.0474;
925.2000;0.5731;-0.0474;
925.5000;0.5714;-0.0426;
925.8000;0.5714;-0.0308;
926.1000;0.5698;-0.0308;
926.4000;0.5714;-0.0308;
926.7000;0.5706;-0.0308;
927.0000;0.5698;-0.0261;
927.3000;0.5690;-0.0213;
927.6000;0.5714;-0.0142;
927.9000;0.5690;-0.0166;
928.2000;0.5690;-0.0166;
928.5000;0.5698;-0.0166;
928.8000;0.5731;-0.0047;
929.1000;0.5714;-0.0190;
929.4000;0.5690;-0.0213;
929.7000;0.5690;-0.0261;
930.0000;0.5682;-0.0379;
930.3000;0.5731;-0.0213;
930.6000;0.5706;-0.0213;
930.9000;0.5698;-0.0166;
931.2000;0.5706;-0.0237;
931.5000;0.5714;-0.0237;
931.8000;0.5714;-0.0284;
932.1000;0.5714;-0.0355;
932.4000;0.5706;-0.0426;
932.7000;0.5706;-0.0474;
933.0000;0.5682;-0.0474;
933.3000;0.5698;-0.0403;
933.6000;0.5714;-0.0498;
933.9000;0.5731;-0.0521;
934.2000;0.5731;-0.0474;
934.5000;0.5714;-0.0450;
934.8000;0.5641;-0.0569;
935.1000;0.5739;-0.0355;
935.4000;0.5731;-0.0332;
935.7000;0.5706;-0.0474;
936.0000;0.5706;-0.0474;
936.3000;0.5633;-0.0663;
936.6000;0.5706;-0.0450;
936.9000;0.5706;-0.0498;
937.2000;0.5706;-0.0474;
937.5000;0.5698;-0.0426;
937.8000;0.5698;-0.0355;
938.1000;0.5665;-0.0426;
938.4000;0.5690;-0.0403;
938.7000;0.5706;-0.0379;
939.0000;0.5706;-0.0450;
939.3000;0.5706;-0.0521;
939.6000;0.5690;-0.0569;
939.9000;0.5698;-0.0545;
940.2000;0.5690;-0.0545;
940.5000;0.5698;-0.0545;
940.8000;0.5722;-0.0474;
941.1000;0.5682;-0.0521;
941.4000;0.5690;-0.0521;
941.7000;0.5690;-0.0450;
942.0000;0.5682;-0.0450;
942.3000;0.5690;-0.0403;
942.6000;0.5690;-0.0426;
942.9000;0.5682;-0.0426;
943.2000;0.5714;-0.0355;
943.5000;0.5690;-0.0308;
943.8000;0.5665;-0.0379;
944.1000;0.5706;-0.0261;
944.4000;0.5714;-0.0166;
944.7000;0.5698;-0.0142;
945.0000;0.5674;-0.0261;
945.3000;0.5706;-0.0284;
945.6000;0.5698;-0.0261;
945.9000;0.5706;-0.0261;
946.2000;0.5747;-0.0118;
946.5000;0.5698;-0.0332;
946.8000;0.5690;-0.0332;
947.1000;0.5674;-0.0450;
947.4000;0.5674;-0.0450;
947.7000;0.5690;-0.0332;
948.0000;0.5698;-0.0284;
948.3000;0.5690;-0.0237;
948.6000;0.5690;-0.0284;
948.9000;0.5690;-0.0308;
949.2000;0.5682;-0.0190;
949.5000;0.5682;-0.0190;
949.8000;0.5706;-0.0190;
950.1000;0.5625;-0.0426;
950.4000;0.5674;-0.0355;
950.7000;0.5674;-0.0355;
951.0000;0.5682;-0.0403;
951.3000;0.5690;-0.0403;
951.6000;0.5682;-0.0403;
951.9000;0.5690;-0.0403;
952.2000;0.5690;-0.0474;
952.5000;0.5698;-0.0403;
952.8000;0.5682;-0.0426;
953.1000;0.5690;-0.0332;
953.4000;0.5690;-0.0355;
953.7000;0.5674;-0.0332;
954.0000;0.5682;-0.0237;
954.3000;0.5698;-0.0237;
954.6000;0.5682;-0.0237;
954.9000;0.5690;-0.0332;
955.2000;0.5698;-0.0332;
955.5000;0.5714;-0.0355;
955.8000;0.5706;-0.0308;
956.1000;0.5682;-0.0332;
956.4000;0.5698;-0.0332;
956.7000;0.5698;-0.0355;
957.0000;0.5682;-0.0403;
957.3000;0.5698;-0.0450;
957.6000;0.5682;-0.0426;
957.9000;0.5731;-0.0284;
958.2000;0.5665;-0.0379;
958.5000;0.5714;-0.0284;
958.8000;0.5682;-0.0355;
959.1000;0.5690;-0.0450;
959.4000;0.5690;-0.0403;
959.7000;0.5682;-0.0355;
960.0000;0.5698;-0.0379;
960.3000;0.5682;-0.0379;
960.6000;0.5690;-0.0355;
960.9000;0.5682;-0.0355;
961.2000;0.5674;-0.0379;
961.5000;0.5682;-0.0308;
961.8000;0.5674;-0.0284;
962.1000;0.5674;-0.0237;
962.4000;0.5698;-0.0213;
962.7000;0.5682;-0.0237;
963.0000;0.5674;-0.0237;
963.3000;0.5682;-0.0213;
963.6000;0.5674;-0.0071;
963.9000;0.5690;-0.0166;
964.2000;0.5665;-0.0237;
964.5000;0.5657;-0.0166;
964.8000;0.5665;-0.0095;
965.1000;0.5690;-0.0118;
965.4000;0.5665;-0.0142;
965.7000;0.5641;-0.0213;
966.0000;0.5674;-0.0118;
966.3000;0.5682;-0.0118;
966.6000;0.5665;-0.0166;
966.9000;0.5722;-0.0071;
967.2000;0.5755;-0.0047;
967.5000;0.5690;-0.0284;
967.8000;0.5682;-0.0284;
968.1000;0.5665;-0.0332;
968.4000;0.5690;-0.0284;
968.7000;0.5690;-0.0237;
969.0000;0.5690;-0.0213;
969.3000;0.5649;-0.0332;
969.6000;0.5665;-0.0308;
969.9000;0.5674;-0.0213;
970.2000;0.5657;-0.0332;
970.5000;0.5657;-0.0403;
970.8000;0.5674;-0.0308;
971.1000;0.5674;-0.0261;
971.4000;0.5674;-0.0284;
971.7000;0.5625;-0.0403;
972.0000;0.5657;-0.0474;
972.3000;0.5674;-0.0403;
972.6000;0.5682;-0.0474;
972.9000;0.5682;-0.0426;
973.2000;0.5674;-0.0379;
973.5000;0.5690;-0.0450;
973.8000;0.5690;-0.0403;
974.1000;0.5665;-0.0498;
974.4000;0.5649;-0.0498;
974.7000;0.5649;-0.0545;
975.0000;0.5698;-0.0403;
975.3000;0.5649;-0.0498;
975.6000;0.5649;-0.0545;
975.9000;0.5649;-0.0545;
976.2000;0.5674;-0.0569;
976.5000;0.5665;-0.0616;
976.8000;0.5657;-0.0640;
977.1000;0.5665;-0.0592;
977.4000;0.5665;-0.0616;
977.7000;0.5674;-0.0663;
978.0000;0.5698;-0.0640;
978.3000;0.5657;-0.0734;
978.6000;0.5714;-0.0616;
978.9000;0.5657;-0.0758;
979.2000;0.5682;-0.0782;
979.5000;0.5649;-0.0758;
979.8000;0.5665;-0.0734;
980.1000;0.5665;-0.0758;
980.4000;0.5674;-0.0734;
980.7000;0.5657;-0.0687;
981.0000;0.5633;-0.0758;
981.3000;0.5657;-0.0687;
981.6000;0.5674;-0.0687;
981.9000;0.5665;-0.0592;
982.2000;0.5665;-0.0498;
982.5000;0.5608;-0.0569;
982.8000;0.5665;-0.0498;
983.1000;0.5649;-0.0498;
983.4000;0.5674;-0.0474;
983.7000;0.5665;-0.0498;
984.0000;0.5657;-0.0569;
984.3000;0.5698;-0.0545;
984.6000;0.5665;-0.0592;
984.9000;0.5633;-0.0592;
985.2000;0.5665;-0.0545;
985.5000;0.5665;-0.0450;
985.8000;0.5665;-0.0379;
986.1000;0.5674;-0.0355;
986.4000;0.5649;-0.0379;
986.7000;0.5682;-0.0426;
987.0000;0.5657;-0.0498;
987.3000;0.5657;-0.0450;
987.6000;0.5649;-0.0403;
987.9000;0.5649;-0.0426;
988.2000;0.5682;-0.0355;
988.5000;0.5698;-0.0450;
988.8000;0.5714;-0.0379;
989.1000;0.5657;-0.0498;
989.4000;0.5698;-0.0474;
989.7000;0.5657;-0.0498;
990.0000;0.5682;-0.0545;
990.3000;0.5665;-0.0569;
990.6000;0.5657;-0.0616;
990.9000;0.5608;-0.0734;
991.2000;0.5665;-0.0569;
991.5000;0.5657;-0.0711;
991.8000;0.5633;-0.0853;
992.1000;0.5649;-0.0806;
992.4000;0.5625;-0.0853;
992.7000;0.5690;-0.0687;
993.0000;0.5714;-0.0640;
993.3000;0.5641;-0.0782;
993.6000;0.5657;-0.0734;
993.9000;0.5706;-0.0616;
994.2000;0.5657;-0.0853;
994.5000;0.5674;-0.0806;
994.8000;0.5649;-0.0758;
995.1000;0.5657;-0.0758;
995.4000;0.5674;-0.0711;
995.7000;0.5657;-0.0782;
996.0000;0.5641;-0.0853;
996.3000;0.5665;-0.0806;
996.6000;0.5649;-0.0782;
996.9000;0.5649;-0.0806;
997.2000;0.5665;-0.0758;
997.5000;0.5641;-0.0758;
997.8000;0.5625;-0.0687;
998.1000;0.5641;-0.0616;
998.4000;0.5649;-0.0545;
998.7000;0.5633;-0.0711;
999.0000;0.5633;-0.0663;
999.3000;0.5641;-0.0663;
999.6000;0.5657;-0.0663;
999.9000;0.5641;-0.0640;
1000.2000;0.5649;-0.0569;
1000.5000;0.5657;-0.0474;
1000.8000;0.5641;-0.0545;
1001.1000;0.5649;-0.0569;
1001.4000;0.5641;-0.0734;
1001.7000;0.5649;-0.0853;
1002.0000;0.5674;-0.0782;
1002.3000;0.5657;-0.0734;
1002.6000;0.5657;-0.0734;
1002.9000;0.5633;-0.0758;
1003.2000;0.5657;-0.0734;
1003.5000;0.5641;-0.0734;
1003.8000;0.5641;-0.0734;
1004.1000;0.5641;-0.0806;
1004.4000;0.5641;-0.0806;
1004.7000;0.5649;-0.0877;
1005.0000;0.5641;-0.0877;
1005.3000;0.5649;-0.0829;
1005.6000;0.5633;-0.0924;
1005.9000;0.5649;-0.0829;
1006.2000;0.5698;-0.0663;
1006.5000;0.5625;-0.0782;
1006.8000;0.5633;-0.0782;
1007.1000;0.5633;-0.0782;
1007.4000;0.5633;-0.0711;
1007.7000;0.5625;-0.0711;
1008.0000;0.5625;-0.0663;
1008.3000;0.5617;-0.0758;
1008.6000;0.5674;-0.0640;
1008.9000;0.5665;-0.0640;
1009.2000;0.5625;-0.0687;
1009.5000;0.5633;-0.0592;
1009.8000;0.5633;-0.0616;
1010.1000;0.5633;-0.0592;
1010.4000;0.5633;-0.0616;
1010.7000;0.5633;-0.0592;
1011.0000;0.5641;-0.0545;
1011.3000;0.5625;-0.0521;
1011.6000;0.5617;-0.0569;
1011.9000;0.5617;-0.0545;
1012.2000;0.5592;-0.0545;
1012.5000;0.5617;-0.0450;
1012.8000;0.5625;-0.0403;
1013.1000;0.5641;-0.0426;
1013.4000;0.5625;-0.0474;
1013.7000;0.5690;-0.0308;
1014.0000;0.5641;-0.0403;
1014.3000;0.5633;-0.0498;
1014.6000;0.5641;-0.0498;
1014.9000;0.5617;-0.0498;
1015.2000;0.5608;-0.0450;
1015.5000;0.5625;-0.0355;
1015.8000;0.5641;-0.0379;
1016.1000;0.5657;-0.0355;
1016.4000;0.5625;-0.0426;
1016.7000;0.5633;-0.0426;
1017.0000;0.5625;-0.0426;
1017.3000;0.5633;-0.0450;
1017.6000;0.5633;-0.0426;
1017.9000;0.5625;-0.0569;
1018.2000;0.5625;-0.0616;
1018.5000;0.5649;-0.0640;
1018.8000;0.5633;-0.0687;
1019.1000;0.5633;-0.0687;
1019.4000;0.5633;-0.0687;
1019.7000;0.5698;-0.0474;
1020.0000;0.5641;-0.0569;
1020.3000;0.5625;-0.0521;
1020.6000;0.5633;-0.0426;
1020.9000;0.5633;-0.0379;
1021.2000;0.5617;-0.0403;
1021.5000;0.5625;-0.0403;
1021.8000;0.5625;-0.0355;
1022.1000;0.5608;-0.0332;
1022.4000;0.5641;-0.0332;
1022.7000;0.5592;-0.0426;
1023.0000;0.5625;-0.0261;
1023.3000;0.5625;-0.0379;
1023.6000;0.5625;-0.0426;
1023.9000;0.5633;-0.0332;
1024.2000;0.5633;-0.0379;
1024.5000;0.5625;-0.0474;
1024.8000;0.5641;-0.0498;
1025.1000;0.5625;-0.0450;
1025.4000;0.5641;-0.0450;
1025.7000;0.5625;-0.0498;
1026.0000;0.5641;-0.0450;
1026.3000;0.5625;-0.0545;
1026.6000;0.5617;-0.0616;
1026.9000;0.5600;-0.0663;
1027.2000;0.5633;-0.0569;
1027.5000;0.5641;-0.0498;
1027.8000;0.5641;-0.0521;
1028.1000;0.5608;-0.0569;
1028.4000;0.5625;-0.0569;
1028.7000;0.5625;-0.0616;
1029.0000;0.5633;-0.0592;
1029.3000;0.5617;-0.0592;
1029.6000;0.5625;-0.0545;
1029.9000;0.5641;-0.0474;
1030.2000;0.5608;-0.0545;
1030.5000;0.5641;-0.0355;
1030.8000;0.5617;-0.0474;
1031.1000;0.5617;-0.0569;
1031.4000;0.5633;-0.0521;
1031.7000;0.5625;-0.0498;
1032.0000;0.5600;-0.0640;
1032.3000;0.5576;-0.0616;
1032.6000;0.5625;-0.0498;
1032.9000;0.5633;-0.0616;
1033.2000;0.5633;-0.0545;
1033.5000;0.5617;-0.0569;
1033.8000;0.5617;-0.0545;
1034.1000;0.5608;-0.0498;
1034.4000;0.5625;-0.0545;
1034.7000;0.5625;-0.0616;
1035.0000;0.5617;-0.0687;
1035.3000;0.5617;-0.0687;
1035.6000;0.5641;-0.0663;
1035.9000;0.5649;-0.0569;
1036.2000;0.5617;-0.0663;
1036.5000;0.5617;-0.0616;
1036.8000;0.5617;-0.0663;
1037.1000;0.5617;-0.0640;
1037.4000;0.5608;-0.0640;
1037.7000;0.5641;-0.0592;
1038.0000;0.5625;-0.0616;
1038.3000;0.5617;-0.0711;
1038.6000;0.5617;-0.0663;
1038.9000;0.5617;-0.0640;
1039.2000;0.5641;-0.0592;
1039.5000;0.5633;-0.0521;
1039.8000;0.5600;-0.0592;
1040.1000;0.5608;-0.0592;
1040.4000;0.5617;-0.0569;
1040.7000;0.5617;-0.0521;
1041.0000;0.5551;-0.0687;
1041.3000;0.5584;-0.0569;
1041.6000;0.5617;-0.0379;
1041.9000;0.5633;-0.0355;
1042.2000;0.5633;-0.0379;
1042.5000;0.5608;-0.0450;
1042.8000;0.5608;-0.0474;
1043.1000;0.5608;-0.0403;
1043.4000;0.5617;-0.0379;
1043.7000;0.5617;-0.0403;
1044.0000;0.5617;-0.0355;
1044.3000;0.5617;-0.0426;
1044.6000;0.5625;-0.0332;
1044.9000;0.5617;-0.0332;
1045.2000;0.5608;-0.0403;
1045.5000;0.5617;-0.0474;
1045.8000;0.5674;-0.0379;
1046.1000;0.5641;-0.0450;
1046.4000;0.5617;-0.0403;
1046.7000;0.5625;-0.0355;
1047.0000;0.5625;-0.0332;
1047.3000;0.5625;-0.0284;
1047.6000;0.5608;-0.0261;
1047.9000;0.5617;-0.0213;
1048.2000;0.5625;-0.0237;
1048.5000;0.5617;-0.0261;
1048.8000;0.5625;-0.0261;
1049.1000;0.5617;-0.0213;
1049.4000;0.5641;-0.0142;
1049.7000;0.5633;-0.0237;
1050.0000;0.5600;-0.0284;
1050.3000;0.5608;-0.0308;
1050.6000;0.5641;-0.0190;
1050.9000;0.5617;-0.0284;
1051.2000;0.5633;-0.0355;
1051.5000;0.5617;-0.0474;
1051.8000;0.5625;-0.0450;
1052.1000;0.5641;-0.0261;
1052.4000;0.5576;-0.0355;
1052.7000;0.5617;-0.0261;
1053.0000;0.5617;-0.0237;
1053.3000;0.5617;-0.0261;
1053.6000;0.5600;-0.0261;
1053.9000;0.5608;-0.0284;
1054.2000;0.5608;-0.0237;
1054.5000;0.5617;-0.0237;
1054.8000;0.5576;-0.0332;
1055.1000;0.5600;-0.0355;
1055.4000;0.5600;-0.0308;
1055.7000;0.5690;-0.0095;
1056.0000;0.5625;-0.0261;
1056.3000;0.5625;-0.0190;
1056.6000;0.5592;-0.0237;
1056.9000;0.5625;-0.0166;
1057.2000;0.5617;-0.0190;
1057.5000;0.5625;-0.0190;
1057.8000;0.5600;-0.0190;
1058.1000;0.5600;-0.0190;
1058.4000;0.5608;-0.0190;
1058.7000;0.5617;-0.0166;
1059.0000;0.5641;-0.0166;
1059.3000;0.5592;-0.0261;
1059.6000;0.5584;-0.0332;
1059.9000;0.5625;-0.0261;
1060.2000;0.5584;-0.0379;
1060.5000;0.5592;-0.0355;
1060.8000;0.5617;-0.0261;
1061.1000;0.5608;-0.0284;
1061.4000;0.5608;-0.0332;
1061.7000;0.5625;-0.0332;
1062.0000;0.5608;-0.0308;
1062.3000;0.5617;-0.0237;
1062.6000;0.5608;-0.0213;
1062.9000;0.5608;-0.0237;
1063.2000;0.5592;-0.0213;
1063.5000;0.5617;-0.0071;
1063.8000;0.5649;-0.0024;
1064.1000;0.5592;-0.0047;
1064.4000;0.5584;-0.0118;
1064.7000;0.5625;-0.0047;
1065.0000;0.5576;-0.0142;
1065.3000;0.5657;0.0071;
1065.6000;0.5608;-0.0047;
1065.9000;0.5617;0.0095;
1066.2000;0.5641;0.0095;
1066.5000;0.5641;0.0142;
1066.8000;0.5608;0.0047;
1067.1000;0.5600;0.0024;
1067.4000;0.5600;0.0000;
1067.7000;0.5608;-0.0047;
1068.0000;0.5592;-0.0118;
1068.3000;0.5617;-0.0047;
1068.6000;0.5617;-0.0071;
1068.9000;0.5625;-0.0024;
1069.2000;0.5584;-0.0166;
1069.5000;0.5617;-0.0166;
1069.8000;0.5625;-0.0142;
1070.1000;0.5600;-0.0237;
1070.4000;0.5600;-0.0261;
1070.7000;0.5600;-0.0237;
1071.0000;0.5600;-0.0213;
1071.3000;0.5592;-0.0261;
1071.6000;0.5649;-0.0142;
1071.9000;0.5608;-0.0237;
1072.2000;0.5625;-0.0213;
1072.5000;0.5625;-0.0261;
1072.8000;0.5608;-0.0308;
1073.1000;0.5617;-0.0308;
1073.4000;0.5600;-0.0284;
1073.7000;0.5608;-0.0237;
1074.0000;0.5617;-0.0190;
1074.3000;0.5608;-0.0166;
1074.6000;0.5592;-0.0142;
1074.9000;0.5592;-0.0142;
1075.2000;0.5608;-0.0237;
1075.5000;0.5608;-0.0142;
1075.8000;0.5584;-0.0095;
1076.1000;0.5592;-0.0142;
1076.4000;0.5617;-0.0095;
1076.7000;0.5633;-0.0095;
1077.0000;0.5633;-0.0118;
1077.3000;0.5608;-0.0166;
1077.6000;0.5584;-0.0213;
1077.9000;0.5617;-0.0213;
1078.2000;0.5592;-0.0308;
1078.5000;0.5608;-0.0190;
1078.8000;0.5690;0.0000;
1079.1000;0.5608;-0.0213;
1079.4000;0.5600;-0.0190;
1079.7000;0.5584;-0.0166;
1080.0000;0.5584;-0.0190;
1080.3000;0.5617;-0.0166;
1080.6000;0.5592;-0.0261;
1080.9000;0.5600;-0.0237;
1081.2000;0.5600;-0.0213;
1081.5000;0.5600;-0.0166;
1081.8000;0.5617;-0.0047;
1082.1000;0.5600;-0.0024;
1082.4000;0.5608;-0.0071;
1082.7000;0.5551;-0.0190;
1083.0000;0.5608;-0.0047;
1083.3000;0.5641;0.0047;
1083.6000;0.5592;-0.0047;
1083.9000;0.5625;0.0071;
1084.2000;0.5568;-0.0166;
1084.5000;0.5600;-0.0071;
1084.8000;0.5592;-0.0095;
1085.1000;0.5592;-0.0190;
1085.4000;0.5519;-0.0332;
1085.7000;0.5625;-0.0071;
1086.0000;0.5641;0.0047;
1086.3000;0.5568;-0.0095;
1086.6000;0.5608;-0.0047;
1086.9000;0.5568;-0.0142;
1087.2000;0.5584;-0.0213;
1087.5000;0.5592;-0.0213;
1087.8000;0.5608;-0.0213;
1088.1000;0.5608;-0.0071;
1088.4000;0.5600;-0.0095;
1088.7000;0.5576;-0.0118;
1089.0000;0.5600;-0.0071;
1089.3000;0.5592;-0.0071;
1089.6000;0.5600;-0.0095;
1089.9000;0.5608;-0.0118;
1090.2000;0.5584;-0.0118;
1090.5000;0.5625;-0.0118;
1090.8000;0.5600;-0.0284;
1091.1000;0.5584;-0.0284;
1091.4000;0.5592;-0.0261;
1091.7000;0.5592;-0.0237;
1092.0000;0.5592;-0.0142;
1092.3000;0.5608;-0.0071;
1092.6000;0.5592;-0.0142;
1092.9000;0.5608;-0.0166;
1093.2000;0.5608;-0.0166;
1093.5000;0.5584;-0.0190;
1093.8000;0.5584;-0.0213;
1094.1000;0.5592;-0.0190;
1094.4000;0.5608;-0.0237;
1094.7000;0.5584;-0.0190;
1095.0000;0.5584;-0.0213;
1095.3000;0.5592;-0.0142;
1095.6000;0.5584;-0.0071;
1095.9000;0.5600;-0.0118;
1096.2000;0.5576;-0.0332;
1096.5000;0.5576;-0.0332;
1096.8000;0.5584;-0.0308;
1097.1000;0.5641;-0.0071;
1097.4000;0.5600;-0.0118;
1097.7000;0.5576;-0.0095;
1098.0000;0.5600;-0.0047;
1098.3000;0.5608;-0.0047;
1098.6000;0.5600;-0.0237;
1098.9000;0.5600;-0.0190;
1099.2000;0.5600;-0.0118;
1099.5000;0.5568;-0.0261;
1099.8000;0.5617;-0.0213;
1100.1000;0.5543;-0.0403;
1100.4000;0.5584;-0.0332;
1100.7000;0.5568;-0.0308;
1101.0000;0.5584;-0.0284;
1101.3000;0.5592;-0.0261;
1101.6000;0.5560;-0.0426;
1101.9000;0.5535;-0.0474;
1102.2000;0.5568;-0.0308;
1102.5000;0.5592;-0.0190;
1102.8000;0.5584;-0.0237;
1103.1000;0.5576;-0.0213;
1103.4000;0.5608;-0.0142;
1103.7000;0.5600;-0.0166;
1104.0000;0.5576;-0.0284;
1104.3000;0.5584;-0.0261;
1104.6000;0.5568;-0.0284;
1104.9000;0.5584;-0.0213;
1105.2000;0.5568;-0.0190;
1105.5000;0.5576;-0.0142;
1105.8000;0.5584;-0.0213;
1106.1000;0.5608;-0.0142;
1106.4000;0.5608;-0.0166;
1106.7000;0.5584;-0.0237;
1107.0000;0.5608;-0.0261;
1107.3000;0.5592;-0.0284;
1107.6000;0.5592;-0.0284;
1107.9000;0.5633;-0.0237;
1108.2000;0.5600;-0.0237;
1108.5000;0.5592;-0.0284;
1108.8000;0.5584;-0.0166;
1109.1000;0.5600;-0.0047;
1109.4000;0.5584;-0.0118;
1109.7000;0.5592;-0.0142;
1110.0000;0.5592;-0.0190;
1110.3000;0.5576;-0.0118;
1110.6000;0.5576;-0.0142;
1110.9000;0.5641;-0.0024;
1111.2000;0.5592;-0.0095;
1111.5000;0.5560;-0.0142;
1111.8000;0.5576;-0.0166;
1112.1000;0.5584;-0.0284;
1112.4000;0.5576;-0.0261;
1112.7000;0.5584;-0.0284;
1113.0000;0.5592;-0.0308;
1113.3000;0.5560;-0.0403;
1113.6000;0.5576;-0.0308;
1113.9000;0.5584;-0.0308;
1114.2000;0.5584;-0.0261;
1114.5000;0.5576;-0.0308;
1114.8000;0.5592;-0.0355;
1115.1000;0.5608;-0.0284;
1115.4000;0.5584;-0.0332;
1115.7000;0.5592;-0.0332;
1116.0000;0.5511;-0.0474;
1116.3000;0.5576;-0.0332;
1116.6000;0.5592;-0.0213;
1116.9000;0.5576;-0.0261;
1117.2000;0.5600;-0.0142;
1117.5000;0.5584;-0.0166;
1117.8000;0.5584;-0.0166;
1118.1000;0.5560;-0.0166;
1118.4000;0.5576;-0.0190;
1118.7000;0.5576;-0.0261;
1119.0000;0.5584;-0.0284;
1119.3000;0.5600;-0.0190;
1119.6000;0.5584;-0.0213;
1119.9000;0.5560;-0.0308;
1120.2000;0.5584;-0.0284;
1120.5000;0.5568;-0.0355;
1120.8000;0.5584;-0.0332;
1121.1000;0.5592;-0.0284;
1121.4000;0.5600;-0.0355;
1121.7000;0.5576;-0.0403;
1122.0000;0.5551;-0.0498;
1122.3000;0.5584;-0.0379;
1122.6000;0.5584;-0.0284;
1122.9000;0.5527;-0.0379;
1123.2000;0.5625;-0.0237;
1123.5000;0.5535;-0.0426;
1123.8000;0.5551;-0.0498;
1124.1000;0.5543;-0.0592;
1124.4000;0.5551;-0.0450;
1124.7000;0.5560;-0.0450;
1125.0000;0.5584;-0.0332;
1125.3000;0.5568;-0.0332;
1125.6000;0.5592;-0.0284;
1125.9000;0.5568;-0.0284;
1126.2000;0.5608;-0.0166;
1126.5000;0.5584;-0.0213;
1126.8000;0.5568;-0.0261;
1127.1000;0.5584;-0.0261;
1127.4000;0.5560;-0.0308;
1127.7000;0.5568;-0.0261;
1128.0000;0.5576;-0.0308;
1128.3000;0.5576;-0.0355;
1128.6000;0.5560;-0.0379;
1128.9000;0.5543;-0.0426;
1129.2000;0.5576;-0.0379;
1129.5000;0.5560;-0.0379;
1129.8000;0.5576;-0.0332;
1130.1000;0.5568;-0.0284;
1130.4000;0.5576;-0.0261;
1130.7000;0.5584;-0.0237;
1131.0000;0.5568;-0.0237;
1131.3000;0.5576;-0.0142;
1131.6000;0.5576;-0.0118;
1131.9000;0.5592;-0.0213;
1132.2000;0.5568;-0.0190;
1132.5000;0.5560;-0.0166;
1132.8000;0.5560;-0.0166;
1133.1000;0.5600;-0.0095;
1133.4000;0.5568;-0.0142;
1133.7000;0.5576;-0.0118;
1134.0000;0.5584;-0.0047;
1134.3000;0.5568;-0.0095;
1134.6000;0.5584;-0.0095;
1134.9000;0.5576;-0.0142;
1135.2000;0.5568;-0.0190;
1135.5000;0.5576;-0.0190;
1135.8000;0.5584;-0.0142;
1136.1000;0.5584;-0.0095;
1136.4000;0.5584;-0.0047;
1136.7000;0.5592;-0.0024;
1137.0000;0.5584;-0.0024;
1137.3000;0.5625;0.0142;
1137.6000;0.5568;-0.0024;
1137.9000;0.5568;-0.0047;
1138.2000;0.5600;0.0024;
1138.5000;0.5568;-0.0047;
1138.8000;0.5560;-0.0047;
1139.1000;0.5584;-0.0047;
1139.4000;0.5576;0.0024;
1139.7000;0.5584;0.0047;
1140.0000;0.5568;0.0000;
1140.3000;0.5576;-0.0071;
1140.6000;0.5584;-0.0095;
1140.9000;0.5592;-0.0118;
1141.2000;0.5584;-0.0213;
1141.5000;0.5560;-0.0213;
1141.8000;0.5584;-0.0166;
1142.1000;0.5576;-0.0190;
1142.4000;0.5560;-0.0237;
1142.7000;0.5568;-0.0261;
1143.0000;0.5592;-0.0118;
1143.3000;0.5568;-0.0118;
1143.6000;0.5576;-0.0071;
1143.9000;0.5584;-0.0118;
1144.2000;0.5560;-0.0237;
1144.5000;0.5584;-0.0308;
1144.8000;0.5584;-0.0355;
1145.1000;0.5568;-0.0379;
1145.4000;0.5576;-0.0261;
1145.7000;0.5584;-0.0237;
1146.0000;0.5584;-0.0237;
1146.3000;0.5560;-0.0284;
1146.6000;0.5576;-0.0237;
1146.9000;0.5592;-0.0284;
1147.2000;0.5592;-0.0213;
1147.5000;0.5568;-0.0237;
1147.8000;0.5592;-0.0190;
1148.1000;0.5503;-0.0379;
1148.4000;0.5568;-0.0237;
1148.7000;0.5560;-0.0166;
1149.0000;0.5568;-0.0261;
1149.3000;0.5568;-0.0308;
1149.6000;0.5584;-0.0213;
1149.9000;0.5576;-0.0166;
1150.2000;0.5560;-0.0261;
1150.5000;0.5560;-0.0284;
1150.8000;0.5568;-0.0284;
1151.1000;0.5576;-0.0261;
1151.4000;0.5576;-0.0261;
1151.7000;0.5535;-0.0284;
1152.0000;0.5568;-0.0237;
1152.3000;0.5576;-0.0190;
1152.6000;0.5576;-0.0237;
1152.9000;0.5568;-0.0332;
1153.2000;0.5543;-0.0284;
1153.5000;0.5568;-0.0237;
1153.8000;0.5568;-0.0166;
1154.1000;0.5584;-0.0142;
1154.4000;0.5543;-0.0118;
1154.7000;0.5511;-0.0237;
1155.0000;0.5495;-0.0261;
1155.3000;0.5551;-0.0095;
1155.6000;0.5560;-0.0047;
1155.9000;0.5560;-0.0047;
1156.2000;0.5560;-0.0095;
1156.5000;0.5560;-0.0071;
1156.8000;0.5568;-0.0047;
1157.1000;0.5576;-0.0047;
1157.4000;0.5625;0.0000;
1157.7000;0.5551;-0.0284;
1158.0000;0.5551;-0.0142;
1158.3000;0.5551;-0.0071;
1158.6000;0.5543;-0.0142;
1158.9000;0.5568;-0.0142;
1159.2000;0.5560;-0.0190;
1159.5000;0.5641;-0.0024;
1159.8000;0.5560;-0.0166;
1160.1000;0.5576;-0.0118;
1160.4000;0.5551;-0.0118;
1160.7000;0.5551;-0.0166;
1161.0000;0.5568;-0.0213;
1161.3000;0.5584;-0.0190;
1161.6000;0.5576;-0.0190;
1161.9000;0.5576;-0.0118;
1162.2000;0.5527;-0.0237;
1162.5000;0.5576;-0.0071;
1162.8000;0.5584;-0.0071;
1163.1000;0.5608;0.0024;
1163.4000;0.5576;-0.0095;
1163.7000;0.5560;-0.0071;
1164.0000;0.5560;-0.0047;
1164.3000;0.5560;-0.0118;
1164.6000;0.5576;-0.0071;
1164.9000;0.5584;-0.0142;
1165.2000;0.5560;-0.0166;
1165.5000;0.5551;-0.0118;
1165.8000;0.5568;0.0071;
1166.1000;0.5568;0.0095;
1166.4000;0.5568;0.0166;
1166.7000;0.5568;0.0095;
1167.0000;0.5560;0.0000;
1167.3000;0.5560;0.0000;
1167.6000;0.5560;0.0000;
1167.9000;0.5568;-0.0024;
1168.2000;0.5560;-0.0047;
1168.5000;0.5560;0.0024;
1168.8000;0.5535;-0.0024;
1169.1000;0.5568;0.0095;
1169.4000;0.5551;0.0095;
1169.7000;0.5543;0.0071;
1170.0000;0.5560;0.0047;
1170.3000;0.5560;0.0047;
1170.6000;0.5551;0.0047;
1170.9000;0.5486;-0.0166;
1171.2000;0.5560;-0.0095;
1171.5000;0.5560;-0.0142;
1171.8000;0.5560;-0.0166;
1172.1000;0.5568;-0.0213;
1172.4000;0.5568;-0.0190;
1172.7000;0.5535;-0.0308;
1173.0000;0.5592;-0.0190;
1173.3000;0.5576;-0.0118;
1173.6000;0.5576;-0.0213;
1173.9000;0.5576;-0.0142;
1174.2000;0.5568;-0.0118;
1174.5000;0.5560;-0.0118;
1174.8000;0.5560;-0.0024;
1175.1000;0.5592;0.0024;
1175.4000;0.5584;-0.0024;
1175.7000;0.5535;-0.0166;
1176.0000;0.5551;-0.0213;
1176.3000;0.5576;-0.0261;
1176.6000;0.5568;-0.0166;
1176.9000;0.5576;-0.0190;
1177.2000;0.5527;-0.0284;
1177.5000;0.5584;-0.0261;
1177.8000;0.5576;-0.0261;
1178.1000;0.5584;-0.0213;
1178.4000;0.5560;-0.0308;
1178.7000;0.5600;-0.0284;
1179.0000;0.5560;-0.0355;
1179.3000;0.5600;-0.0190;
1179.6000;0.5543;-0.0284;
1179.9000;0.5576;-0.0118;
1180.2000;0.5625;0.0071;
1180.5000;0.5560;-0.0095;
1180.8000;0.5576;0.0000;
1181.1000;0.5543;-0.0095;
1181.4000;0.5633;0.0190;
1181.7000;0.5560;0.0166;
1182.0000;0.5584;0.0095;
1182.3000;0.5551;0.0024;
1182.6000;0.5576;0.0095;
1182.9000;0.5551;0.0095;
1183.2000;0.5568;0.0024;
1183.5000;0.5560;0.0024;
1183.8000;0.5560;0.0024;
1184.1000;0.5576;0.0047;
1184.4000;0.5560;0.0047;
1184.7000;0.5560;-0.0071;
1185.0000;0.5551;-0.0047;
1185.3000;0.5560;-0.0118;
1185.6000;0.5568;0.0000;
1185.9000;0.5560;0.0000;
1186.2000;0.5568;-0.0047;
1186.5000;0.5560;-0.0095;
1186.8000;0.5543;-0.0095;
1187.1000;0.5527;-0.0166;
1187.4000;0.5560;-0.0095;
1187.7000;0.5568;-0.0142;
1188.0000;0.5551;-0.0047;
1188.3000;0.5560;0.0024;
1188.6000;0.5551;0.0047;
1188.9000;0.5560;0.0237;
1189.2000;0.5568;0.0284;
1189.5000;0.5576;0.0190;
1189.8000;0.5568;0.0118;
1190.1000;0.5551;0.0071;
1190.4000;0.5560;0.0024;
1190.7000;0.5584;0.0047;
1191.0000;0.5568;0.0000;
1191.3000;0.5568;-0.0118;
1191.6000;0.5568;-0.0213;
1191.9000;0.5551;-0.0190;
1192.2000;0.5560;-0.0213;
1192.5000;0.5560;-0.0190;
1192.8000;0.5551;-0.0237;
1193.1000;0.5543;-0.0213;
1193.4000;0.5543;-0.0213;
1193.7000;0.5543;-0.0213;
1194.0000;0.5568;-0.0118;
1194.3000;0.5511;-0.0190;
1194.6000;0.5568;-0.0047;
1194.9000;0.5519;-0.0095;
1195.2000;0.5568;-0.0024;
1195.5000;0.5576;-0.0047;
1195.8000;0.5617;0.0071;
1196.1000;0.5551;-0.0024;
1196.4000;0.5560;-0.0024;
1196.7000;0.5535;-0.0095;
1197.0000;0.5560;-0.0047;
1197.3000;0.5543;-0.0047;
1197.6000;0.5543;-0.0166;
1197.9000;0.5551;-0.0190;
1198.2000;0.5584;-0.0118;
1198.5000;0.5551;-0.0261;
1198.8000;0.5576;-0.0118;
1199.1000;0.5543;-0.0308;
1199.4000;0.5503;-0.0379;
1199.7000;0.5535;-0.0308;
1200.0000;0.5560;-0.0237;
1200.3000;0.5600;-0.0118;
1200.6000;0.5551;-0.0190;
1200.9000;0.5560;-0.0166;
1201.2000;0.5551;-0.0166;
1201.5000;0.5568;-0.0213;
1201.8000;0.5535;-0.0284;
1202.1000;0.5551;-0.0261;
1202.4000;0.5527;-0.0308;
1202.7000;0.5543;-0.0284;
1203.0000;0.5535;-0.0261;
1203.3000;0.5584;-0.0142;
1203.6000;0.5560;-0.0166;
1203.9000;0.5551;-0.0261;
1204.2000;0.5592;-0.0166;
1204.5000;0.5568;-0.0118;
1204.8000;0.5551;-0.0190;
1205.1000;0.5551;-0.0166;
1205.4000;0.5560;-0.0142;
1205.7000;0.5551;-0.0095;
1206.0000;0.5551;-0.0095;
1206.3000;0.5584;-0.0047;
1206.6000;0.5568;-0.0095;
1206.9000;0.5560;-0.0047;
1207.2000;0.5551;0.0071;
1207.5000;0.5568;0.0071;
1207.8000;0.5551;0.0047;
1208.1000;0.5551;-0.0071;
1208.4000;0.5551;-0.0095;
1208.7000;0.5543;-0.0071;
1209.0000;0.5551;-0.0071;
1209.3000;0.5543;-0.0047;
1209.6000;0.5519;-0.0095;
1209.9000;0.5543;-0.0118;
1210.2000;0.5527;-0.0142;
1210.5000;0.5551;-0.0047;
1210.8000;0.5551;-0.0118;
1211.1000;0.5560;-0.0118;
1211.4000;0.5560;0.0047;
1211.7000;0.5551;0.0071;
1212.0000;0.5551;0.0024;
1212.3000;0.5551;-0.0047;
1212.6000;0.5568;0.0000;
1212.9000;0.5543;-0.0095;
1213.2000;0.5495;-0.0166;
1213.5000;0.5551;0.0000;
1213.8000;0.5560;0.0000;
1214.1000;0.5551;0.0024;
1214.4000;0.5551;0.0000;
1214.7000;0.5535;-0.0047;
1215.0000;0.5584;0.0071;
1215.3000;0.5576;0.0118;
1215.6000;0.5568;0.0095;
1215.9000;0.5527;0.0000;
1216.2000;0.5519;-0.0142;
1216.5000;0.5543;-0.0071;
1216.8000;0.5560;-0.0095;
1217.1000;0.5551;-0.0118;
1217.4000;0.5535;-0.0118;
1217.7000;0.5543;-0.0071;
1218.0000;0.5551;-0.0071;
1218.3000;0.5527;-0.0166;
1218.6000;0.5551;-0.0142;
1218.9000;0.5527;-0.0095;
1219.2000;0.5600;0.0095;
1219.5000;0.5551;-0.0071;
1219.8000;0.5527;-0.0095;
1220.1000;0.5543;-0.0142;
1220.4000;0.5551;-0.0047;
1220.7000;0.5543;0.0000;
1221.0000;0.5617;0.0095;
1221.3000;0.5543;-0.0047;
1221.6000;0.5568;0.0047;
1221.9000;0.5551;-0.0024;
1222.2000;0.5519;-0.0024;
1222.5000;0.5551;0.0047;
1222.8000;0.5511;0.0000;
1223.1000;0.5535;0.0047;
1223.4000;0.5560;0.0047;
1223.7000;0.5527;-0.0118;
1224.0000;0.5576;0.0024;
1224.3000;0.5543;0.0000;
1224.6000;0.5535;-0.0047;
1224.9000;0.5551;-0.0047;
1225.2000;0.5527;-0.0118;
1225.5000;0.5535;-0.0142;
1225.8000;0.5543;-0.0118;
1226.1000;0.5535;-0.0095;
1226.4000;0.5543;-0.0095;
1226.7000;0.5560;-0.0095;
1227.0000;0.5543;-0.0142;
1227.3000;0.5535;-0.0142;
1227.6000;0.5551;-0.0142;
1227.9000;0.5576;-0.0142;
1228.2000;0.5543;-0.0213;
1228.5000;0.5551;-0.0142;
1228.8000;0.5543;-0.0118;
1229.1000;0.5551;-0.0118;
1229.4000;0.5568;-0.0047;
1229.7000;0.5535;0.0000;
1230.0000;0.5551;0.0000;
1230.3000;0.5568;-0.0047;
1230.6000;0.5568;-0.0095;
1230.9000;0.5560;-0.0213;
1231.2000;0.5543;-0.0261;
1231.5000;0.5543;-0.0166;
1231.8000;0.5551;-0.0142;
1232.1000;0.5543;-0.0142;
1232.4000;0.5543;-0.0166;
1232.7000;0.5543;-0.0166;
1233.0000;0.5551;-0.0142;
1233.3000;0.5551;-0.0095;
1233.6000;0.5551;-0.0118;
1233.9000;0.5543;-0.0261;
1234.2000;0.5592;-0.0047;
1234.5000;0.5551;-0.0166;
1234.8000;0.5551;-0.0071;
1235.1000;0.5535;-0.0024;
1235.4000;0.5560;0.0047;
1235.7000;0.5551;-0.0024;
1236.0000;0.5543;0.0024;
1236.3000;0.5527;0.0047;
1236.6000;0.5535;0.0024;
1236.9000;0.5551;0.0024;
1237.2000;0.5560;0.0071;
1237.5000;0.5535;0.0095;
1237.8000;0.5535;0.0071;
1238.1000;0.5551;0.0024;
1238.4000;0.5551;0.0047;
1238.7000;0.5560;0.0024;
1239.0000;0.5592;0.0142;
1239.3000;0.5551;0.0190;
1239.6000;0.5486;0.0190;
1239.9000;0.5535;0.0166;
1240.2000;0.5551;0.0213;
1240.5000;0.5560;0.0142;
1240.8000;0.5527;0.0166;
1241.1000;0.5560;0.0213;
1241.4000;0.5543;0.0095;
1241.7000;0.5535;0.0024;
1242.0000;0.5511;0.0024;
1242.3000;0.5625;0.0284;
1242.6000;0.5535;0.0047;
1242.9000;0.5543;0.0118;
1243.2000;0.5527;0.0000;
1243.5000;0.5535;0.0000;
1243.8000;0.5543;0.0024;
1244.1000;0.5527;0.0071;
1244.4000;0.5535;0.0118;
1244.7000;0.5560;0.0166;
1245.0000;0.5543;0.0142;
1245.3000;0.5584;0.0308;
1245.6000;0.5543;0.0071;
1245.9000;0.5551;0.0047;
1246.2000;0.5560;0.0047;
1246.5000;0.5511;-0.0024;
1246.8000;0.5535;0.0000;
1247.1000;0.5543;0.0071;
1247.4000;0.5543;0.0047;
1247.7000;0.5551;0.0071;
1248.0000;0.5527;0.0047;
1248.3000;0.5527;0.0024;
1248.6000;0.5551;0.0047;
1248.9000;0.5527;0.0047;
1249.2000;0.5527;0.0071;
1249.5000;0.5551;0.0095;
1249.8000;0.5535;0.0118;
1250.1000;0.5551;0.0166;
1250.4000;0.5543;0.0237;
1250.7000;0.5551;0.0237;
1251.0000;0.5527;0.0118;
1251.3000;0.5543;0.0071;
1251.6000;0.5543;-0.0024;
1251.9000;0.5535;-0.0047;
1252.2000;0.5543;0.0000;
1252.5000;0.5543;0.0071;
1252.8000;0.5543;0.0071;
1253.1000;0.5543;0.0000;
1253.4000;0.5543;0.0047;
1253.7000;0.5535;0.0047;
1254.0000;0.5551;0.0047;
1254.3000;0.5543;0.0047;
1254.6000;0.5543;0.0095;
1254.9000;0.5551;0.0190;
1255.2000;0.5543;0.0118;
1255.5000;0.5551;0.0095;
1255.8000;0.5543;0.0071;
1256.1000;0.5568;0.0095;
1256.4000;0.5543;0.0024;
1256.7000;0.5560;0.0024;
1257.0000;0.5543;0.0024;
1257.3000;0.5543;-0.0047;
1257.6000;0.5551;0.0000;
1257.9000;0.5543;0.0024;
1258.2000;0.5535;-0.0071;
1258.5000;0.5535;-0.0047;
1258.8000;0.5527;-0.0047;
1259.1000;0.5519;-0.0118;
1259.4000;0.5535;-0.0047;
1259.7000;0.5551;0.0047;
1260.0000;0.5551;0.0142;
1260.3000;0.5543;0.0071;
1260.6000;0.5551;0.0095;
1260.9000;0.5543;0.0024;
1261.2000;0.5551;0.0095;
1261.5000;0.5527;0.0024;
1261.8000;0.5568;0.0166;
1262.1000;0.5551;0.0118;
1262.4000;0.5551;0.0190;
1262.7000;0.5543;0.0190;
1263.0000;0.5551;0.0166;
1263.3000;0.5551;0.0237;
1263.6000;0.5551;0.0237;
1263.9000;0.5568;0.0213;
1264.2000;0.5543;0.0095;
1264.5000;0.5543;0.0047;
1264.8000;0.5495;0.0000;
1265.1000;0.5551;0.0142;
1265.4000;0.5535;0.0118;
1265.7000;0.5527;0.0071;
1266.0000;0.5535;0.0071;
1266.3000;0.5543;0.0024;
1266.6000;0.5560;0.0095;
1266.9000;0.5543;0.0047;
1267.2000;0.5543;0.0142;
1267.5000;0.5527;0.0071;
1267.8000;0.5543;0.0047;
1268.1000;0.5527;-0.0071;
1268.4000;0.5527;0.0024;
1268.7000;0.5535;0.0095;
1269.0000;0.5535;0.0095;
1269.3000;0.5543;0.0024;
1269.6000;0.5478;-0.0166;
1269.9000;0.5543;-0.0024;
1270.2000;0.5527;-0.0095;
1270.5000;0.5535;-0.0118;
1270.8000;0.5503;-0.0142;
1271.1000;0.5576;0.0047;
1271.4000;0.5543;-0.0024;
1271.7000;0.5551;-0.0024;
1272.0000;0.5454;-0.0166;
1272.3000;0.5527;0.0071;
1272.6000;0.5535;0.0118;
1272.9000;0.5535;0.0118;
1273.2000;0.5527;0.0166;
1273.5000;0.5511;0.0166;
1273.8000;0.5560;0.0308;
1274.1000;0.5551;0.0284;
1274.4000;0.5535;0.0237;
1274.7000;0.5543;0.0118;
1275.0000;0.5527;0.0047;
1275.3000;0.5527;0.0190;
1275.6000;0.5551;0.0284;
1275.9000;0.5543;0.0190;
1276.2000;0.5519;0.0190;
1276.5000;0.5592;0.0308;
1276.8000;0.5543;0.0213;
1277.1000;0.5551;0.0284;
1277.4000;0.5535;0.0213;
1277.7000;0.5535;0.0284;
1278.0000;0.5527;0.0237;
1278.3000;0.5543;0.0237;
1278.6000;0.5543;0.0284;
1278.9000;0.5527;0.0213;
1279.2000;0.5617;0.0379;
1279.5000;0.5535;0.0095;
1279.8000;0.5535;0.0047;
1280.1000;0.5486;-0.0024;
1280.4000;0.5535;0.0024;
1280.7000;0.5527;0.0071;
1281.0000;0.5543;0.0190;
1281.3000;0.5519;0.0095;
1281.6000;0.5495;0.0000;
1281.9000;0.5527;0.0095;
1282.2000;0.5576;0.0213;
1282.5000;0.5503;0.0071;
1282.8000;0.5543;0.0118;
1283.1000;0.5535;0.0118;
1283.4000;0.5535;0.0024;
1283.7000;0.5527;0.0000;
1284.0000;0.5543;0.0071;
1284.3000;0.5543;-0.0024;
1284.6000;0.5560;0.0024;
1284.9000;0.5551;0.0047;
1285.2000;0.5527;0.0047;
1285.5000;0.5535;0.0071;
1285.8000;0.5527;0.0118;
1286.1000;0.5535;0.0237;
1286.4000;0.5535;0.0118;
1286.7000;0.5519;0.0047;
1287.0000;0.5535;0.0095;
1287.3000;0.5519;0.0118;
1287.6000;0.5519;0.0213;
1287.9000;0.5486;0.0142;
1288.2000;0.5543;0.0213;
1288.5000;0.5543;0.0166;
1288.8000;0.5519;0.0166;
1289.1000;0.5551;0.0261;
1289.4000;0.5519;0.0213;
1289.7000;0.5527;0.0166;
1290.0000;0.5535;0.0142;
1290.3000;0.5543;0.0142;
1290.6000;0.5551;0.0142;
1290.9000;0.5535;0.0095;
1291.2000;0.5527;0.0047;
1291.5000;0.5568;0.0166;
1291.8000;0.5535;0.0142;
1292.1000;0.5551;0.0213;
1292.4000;0.5576;0.0237;
1292.7000;0.5592;0.0261;
1293.0000;0.5527;0.0118;
1293.3000;0.5527;0.0190;
1293.6000;0.5495;0.0118;
1293.9000;0.5527;0.0142;
1294.2000;0.5527;0.0095;
1294.5000;0.5535;0.0166;
1294.8000;0.5535;0.0190;
1295.1000;0.5511;0.0190;
1295.4000;0.5527;0.0237;
1295.7000;0.5511;0.0237;
1296.0000;0.5503;0.0213;
1296.3000;0.5527;0.0237;
1296.6000;0.5527;0.0166;
1296.9000;0.5535;0.0166;
1297.2000;0.5543;0.0166;
1297.5000;0.5527;0.0213;
1297.8000;0.5519;0.0261;
1298.1000;0.5535;0.0237;
1298.4000;0.5519;0.0118;
1298.7000;0.5543;0.0213;
1299.0000;0.5535;0.0142;
1299.3000;0.5519;0.0095;
1299.6000;0.5543;0.0071;
1299.9000;0.5527;0.0000;
1300.2000;0.5551;0.0024;
1300.5000;0.5543;0.0047;
1300.8000;0.5551;0.0047;
1301.1000;0.5519;0.0000;
1301.4000;0.5519;-0.0118;
1301.7000;0.5535;-0.0047;
1302.0000;0.5535;-0.0047;
1302.3000;0.5535;-0.0047;
1302.6000;0.5519;-0.0071;
1302.9000;0.5527;0.0024;
1303.2000;0.5535;0.0047;
1303.5000;0.5527;0.0095;
1303.8000;0.5511;0.0071;
1304.1000;0.5527;0.0000;
1304.4000;0.5535;-0.0024;
1304.7000;0.5543;0.0047;
1305.0000;0.5551;0.0024;
1305.3000;0.5535;0.0000;
1305.6000;0.5527;0.0047;
1305.9000;0.5519;0.0000;
1306.2000;0.5535;0.0071;
1306.5000;0.5527;-0.0047;
1306.8000;0.5527;-0.0071;
1307.1000;0.5511;-0.0118;
1307.4000;0.5527;-0.0095;
1307.7000;0.5519;-0.0166;
1308.0000;0.5519;-0.0095;
1308.3000;0.5503;-0.0095;
1308.6000;0.5543;-0.0118;
1308.9000;0.5551;-0.0047;
1309.2000;0.5527;-0.0095;
1309.5000;0.5511;-0.0142;
1309.8000;0.5543;-0.0095;
1310.1000;0.5543;-0.0118;
1310.4000;0.5543;-0.0142;
1310.7000;0.5535;-0.0166;
1311.0000;0.5503;-0.0118;
1311.3000;0.5551;0.0000;
1311.6000;0.5535;0.0071;
1311.9000;0.5519;0.0000;
1312.2000;0.5560;0.0190;
1312.5000;0.5527;0.0095;
1312.8000;0.5560;0.0190;
1313.1000;0.5527;0.0095;
1313.4000;0.5503;0.0166;
1313.7000;0.5543;0.0190;
1314.0000;0.5543;0.0166;
1314.3000;0.5503;0.0071;
1314.6000;0.5568;0.0190;
1314.9000;0.5560;0.0142;
1315.2000;0.5519;0.0047;
1315.5000;0.5519;0.0000;
1315.8000;0.5486;-0.0095;
1316.1000;0.5527;0.0000;
1316.4000;0.5519;0.0000;
1316.7000;0.5535;0.0071;
1317.0000;0.5527;0.0071;
1317.3000;0.5576;0.0118;
1317.6000;0.5551;0.0071;
1317.9000;0.5519;0.0095;
1318.2000;0.5519;0.0047;
1318.5000;0.5519;0.0024;
1318.8000;0.5519;0.0000;
1319.1000;0.5535;0.0024;
1319.4000;0.5527;-0.0024;
1319.7000;0.5535;-0.0024;
1320.0000;0.5535;-0.0047;
1320.3000;0.5551;0.0047;
1320.6000;0.5527;0.0047;
1320.9000;0.5543;0.0047;
1321.2000;0.5543;0.0047;
1321.5000;0.5527;0.0166;
1321.8000;0.5551;0.0261;
1322.1000;0.5519;0.0190;
1322.4000;0.5527;0.0095;
1322.7000;0.5527;0.0095;
1323.0000;0.5535;0.0142;
1323.3000;0.5543;0.0213;
1323.6000;0.5511;0.0118;
1323.9000;0.5519;0.0118;
1324.2000;0.5535;0.0190;
1324.5000;0.5543;0.0213;
1324.8000;0.5535;0.0166;
1325.1000;0.5527;0.0142;
1325.4000;0.5543;0.0047;
1325.7000;0.5535;0.0047;
1326.0000;0.5527;0.0000;
1326.3000;0.5470;-0.0118;
1326.6000;0.5519;0.0047;
1326.9000;0.5527;0.0024;
1327.2000;0.5478;-0.0095;
1327.5000;0.5503;0.0047;
1327.8000;0.5551;0.0213;
1328.1000;0.5535;0.0190;
1328.4000;0.5438;-0.0047;
1328.7000;0.5527;0.0095;
1329.0000;0.5511;0.0024;
1329.3000;0.5543;0.0095;
1329.6000;0.5511;0.0024;
1329.9000;0.5527;0.0024;
1330.2000;0.5511;-0.0024;
1330.5000;0.5535;0.0000;
1330.8000;0.5560;0.0142;
1331.1000;0.5527;0.0047;
1331.4000;0.5495;-0.0047;
1331.7000;0.5511;-0.0071;
1332.0000;0.5511;-0.0095;
1332.3000;0.5519;-0.0118;
1332.6000;0.5519;-0.0142;
1332.9000;0.5543;-0.0047;
1333.2000;0.5519;-0.0071;
1333.5000;0.5519;-0.0047;
1333.8000;0.5519;-0.0024;
1334.1000;0.5527;0.0000;
1334.4000;0.5527;0.0000;
1334.7000;0.5543;0.0047;
1335.0000;0.5527;0.0024;
1335.3000;0.5527;0.0000;
1335.6000;0.5543;0.0095;
1335.9000;0.5527;0.0047;
1336.2000;0.5527;0.0047;
1336.5000;0.5519;0.0071;
1336.8000;0.5519;0.0024;
1337.1000;0.5519;-0.0047;
1337.4000;0.5519;-0.0024;
1337.7000;0.5519;0.0047;
1338.0000;0.5519;0.0024;
1338.3000;0.5543;0.0095;
1338.6000;0.5503;-0.0024;
1338.9000;0.5503;-0.0071;
1339.2000;0.5527;-0.0071;
1339.5000;0.5511;-0.0024;
1339.8000;0.5486;-0.0095;
1340.1000;0.5511;0.0000;
1340.4000;0.5495;0.0024;
1340.7000;0.5495;0.0024;
1341.0000;0.5503;0.0071;
1341.3000;0.5519;0.0047;
1341.6000;0.5519;0.0047;
1341.9000;0.5527;0.0071;
1342.2000;0.5527;0.0095;
1342.5000;0.5527;0.0024;
1342.8000;0.5527;0.0024;
1343.1000;0.5527;0.0024;
1343.4000;0.5511;-0.0047;
1343.7000;0.5543;-0.0047;
1344.0000;0.5511;-0.0047;
1344.3000;0.5543;-0.0024;
1344.6000;0.5535;-0.0095;
1344.9000;0.5470;-0.0213;
1345.2000;0.5535;0.0000;
1345.5000;0.5503;-0.0024;
1345.8000;0.5527;0.0071;
1346.1000;0.5543;0.0071;
1346.4000;0.5527;0.0047;
1346.7000;0.5535;0.0000;
1347.0000;0.5535;-0.0071;
1347.3000;0.5527;-0.0024;
1347.6000;0.5527;0.0024;
1347.9000;0.5543;0.0047;
1348.2000;0.5543;0.0047;
1348.5000;0.5543;0.0047;
1348.8000;0.5535;0.0095;
1349.1000;0.5519;0.0095;
1349.4000;0.5527;0.0047;
1349.7000;0.5527;0.0000;
1350.0000;0.5519;-0.0024;
1350.3000;0.5543;0.0071;
1350.6000;0.5527;0.0166;
1350.9000;0.5527;0.0237;
1351.2000;0.5560;0.0166;
1351.5000;0.5527;0.0071;
1351.8000;0.5535;0.0071;
1352.1000;0.5560;0.0118;
1352.4000;0.5543;0.0047;
1352.7000;0.5600;0.0213;
1353.0000;0.5527;0.0000;
1353.3000;0.5527;-0.0024;
1353.6000;0.5519;-0.0047;
1353.9000;0.5551;0.0095;
1354.2000;0.5503;-0.0071;
1354.5000;0.5503;0.0024;
1354.8000;0.5527;0.0071;
1355.1000;0.5519;0.0166;
1355.4000;0.5519;0.0166;
1355.7000;0.5495;0.0095;
1356.0000;0.5535;0.0166;
1356.3000;0.5535;0.0166;
1356.6000;0.5535;0.0166;
1356.9000;0.5519;0.0047;
1357.2000;0.5519;0.0047;
1357.5000;0.5503;0.0000;
1357.8000;0.5543;0.0071;
1358.1000;0.5527;0.0047;
1358.4000;0.5503;0.0071;
1358.7000;0.5527;0.0071;
1359.0000;0.5495;-0.0071;
1359.3000;0.5511;-0.0024;
1359.6000;0.5495;-0.0095;
1359.9000;0.5519;-0.0047;
1360.2000;0.5519;-0.0118;
1360.5000;0.5511;-0.0142;
1360.8000;0.5454;-0.0237;
1361.1000;0.5511;-0.0118;
1361.4000;0.5519;0.0024;
1361.7000;0.5519;0.0000;
1362.0000;0.5519;0.0047;
1362.3000;0.5527;0.0024;
1362.6000;0.5527;-0.0071;
1362.9000;0.5527;0.0024;
1363.2000;0.5535;0.0047;
1363.5000;0.5511;-0.0095;
1363.8000;0.5511;-0.0166;
1364.1000;0.5560;0.0000;
1364.4000;0.5511;-0.0095;
1364.7000;0.5503;-0.0071;
1365.0000;0.5519;-0.0071;
1365.3000;0.5535;-0.0071;
1365.6000;0.5511;0.0000;
1365.9000;0.5519;-0.0047;
1366.2000;0.5535;-0.0071;
1366.5000;0.5527;-0.0071;
1366.8000;0.5519;-0.0118;
1367.1000;0.5535;-0.0024;
1367.4000;0.5511;-0.0047;
1367.7000;0.5511;-0.0071;
1368.0000;0.5527;-0.0024;
1368.3000;0.5519;0.0000;
1368.6000;0.5519;0.0047;
1368.9000;0.5397;-0.0237;
1369.2000;0.5543;0.0024;
1369.5000;0.5503;-0.0071;
1369.8000;0.5511;-0.0118;
1370.1000;0.5551;0.0024;
1370.4000;0.5511;-0.0142;
1370.7000;0.5511;-0.0142;
1371.0000;0.5519;-0.0071;
1371.3000;0.5592;0.0166;
1371.6000;0.5511;-0.0024;
1371.9000;0.5527;-0.0047;
1372.2000;0.5543;-0.0095;
1372.5000;0.5551;-0.0213;
1372.8000;0.5478;-0.0355;
1373.1000;0.5519;-0.0261;
1373.4000;0.5519;-0.0332;
1373.7000;0.5527;-0.0284;
1374.0000;0.5519;-0.0237;
1374.3000;0.5527;-0.0213;
1374.6000;0.5511;-0.0142;
1374.9000;0.5519;-0.0118;
1375.2000;0.5535;-0.0071;
1375.5000;0.5519;-0.0142;
1375.8000;0.5535;-0.0118;
1376.1000;0.5495;-0.0118;
1376.4000;0.5568;0.0190;
1376.7000;0.5511;-0.0071;
1377.0000;0.5495;-0.0095;
1377.3000;0.5454;-0.0118;
1377.6000;0.5511;-0.0024;
1377.9000;0.5438;-0.0142;
1378.2000;0.5527;0.0095;
1378.5000;0.5503;0.0047;
1378.8000;0.5519;0.0000;
1379.1000;0.5511;0.0000;
1379.4000;0.5519;0.0047;
1379.7000;0.5495;0.0000;
1380.0000;0.5535;0.0000;
1380.3000;0.5503;-0.0047;
1380.6000;0.5511;-0.0071;
1380.9000;0.5511;-0.0047;
1381.2000;0.5503;-0.0095;
1381.5000;0.5478;-0.0095;
1381.8000;0.5519;0.0095;
1382.1000;0.5511;0.0095;
1382.4000;0.5519;0.0047;
1382.7000;0.5527;0.0000;
1383.0000;0.5527;0.0024;
1383.3000;0.5527;0.0071;
1383.6000;0.5511;0.0071;
1383.9000;0.5503;0.0000;
1384.2000;0.5527;0.0024;
1384.5000;0.5535;0.0047;
1384.8000;0.5470;-0.0118;
1385.1000;0.5527;0.0000;
1385.4000;0.5511;0.0000;
1385.7000;0.5519;-0.0047;
1386.0000;0.5551;-0.0024;
1386.3000;0.5503;-0.0142;
1386.6000;0.5560;0.0118;
1386.9000;0.5478;-0.0071;
1387.2000;0.5535;0.0000;
1387.5000;0.5535;0.0095;
1387.8000;0.5519;0.0024;
1388.1000;0.5486;-0.0142;
1388.4000;0.5478;-0.0071;
1388.7000;0.5519;0.0095;
1389.0000;0.5527;0.0047;
1389.3000;0.5527;0.0024;
1389.6000;0.5519;0.0047;
1389.9000;0.5519;0.0095;
1390.2000;0.5576;0.0237;
1390.5000;0.5519;0.0190;
1390.8000;0.5519;0.0142;
1391.1000;0.5551;0.0142;
1391.4000;0.5495;0.0071;
1391.7000;0.5503;0.0024;
1392.0000;0.5511;0.0071;
1392.3000;0.5519;0.0071;
1392.6000;0.5495;0.0071;
1392.9000;0.5519;0.0024;
1393.2000;0.5486;-0.0024;
1393.5000;0.5519;0.0118;
1393.8000;0.5568;0.0190;
1394.1000;0.5495;-0.0024;
1394.4000;0.5511;-0.0118;
1394.7000;0.5511;-0.0071;
1395.0000;0.5519;-0.0071;
1395.3000;0.5503;-0.0024;
1395.6000;0.5511;-0.0024;
1395.9000;0.5527;0.0024;
1396.2000;0.5486;-0.0024;
1396.5000;0.5511;0.0047;
1396.8000;0.5511;0.0095;
1397.1000;0.5527;0.0190;
1397.4000;0.5535;0.0284;
1397.7000;0.5527;0.0308;
1398.0000;0.5560;0.0379;
1398.3000;0.5519;0.0332;
1398.6000;0.5535;0.0332;
1398.9000;0.5511;0.0379;
1399.2000;0.5519;0.0308;
1399.5000;0.5519;0.0118;
1399.8000;0.5527;0.0047;
