time/ms;Fluo/V;P700 deltaI/I x10³;
-199.8000;0.4412;0.0198;
-199.5000;0.4404;0.0173;
-199.2000;0.4412;0.0124;
-198.9000;0.4404;0.0173;
-198.6000;0.4420;0.0149;
-198.3000;0.4396;0.0173;
-198.0000;0.4404;0.0149;
-197.7000;0.4420;0.0198;
-197.4000;0.4412;0.0173;
-197.1000;0.4404;0.0223;
-196.8000;0.4404;0.0149;
-196.5000;0.4428;0.0297;
-196.2000;0.4387;0.0149;
-195.9000;0.4396;0.0223;
-195.6000;0.4387;0.0124;
-195.3000;0.4396;0.0099;
-195.0000;0.4412;0.0198;
-194.7000;0.4428;0.0272;
-194.4000;0.4420;0.0297;
-194.1000;0.4404;0.0223;
-193.8000;0.4404;0.0149;
-193.5000;0.4436;0.0050;
-193.2000;0.4363;-0.0124;
-192.9000;0.4322;-0.0248;
-192.6000;0.4404;0.0025;
-192.3000;0.4420;0.0000;
-192.0000;0.4412;-0.0025;
-191.7000;0.4404;0.0000;
-191.4000;0.4387;0.0025;
-191.1000;0.4412;0.0025;
-190.8000;0.4404;-0.0074;
-190.5000;0.4461;0.0124;
-190.2000;0.4412;0.0099;
-189.9000;0.4420;0.0074;
-189.6000;0.4420;0.0074;
-189.3000;0.4396;0.0050;
-189.0000;0.4412;0.0124;
-188.7000;0.4404;0.0099;
-188.4000;0.4420;0.0198;
-188.1000;0.4428;0.0297;
-187.8000;0.4420;0.0297;
-187.5000;0.4404;0.0272;
-187.2000;0.4412;0.0248;
-186.9000;0.4436;0.0272;
-186.6000;0.4396;0.0124;
-186.3000;0.4412;0.0173;
-186.0000;0.4428;0.0272;
-185.7000;0.4428;0.0272;
-185.4000;0.4412;0.0248;
-185.1000;0.4387;0.0149;
-184.8000;0.4412;0.0248;
-184.5000;0.4420;0.0272;
-184.2000;0.4396;0.0272;
-183.9000;0.4420;0.0223;
-183.6000;0.4396;0.0149;
-183.3000;0.4412;0.0248;
-183.0000;0.4379;0.0223;
-182.7000;0.4404;0.0248;
-182.4000;0.4404;0.0198;
-182.1000;0.4404;0.0198;
-181.8000;0.4404;0.0149;
-181.5000;0.4396;0.0173;
-181.2000;0.4404;0.0198;
-180.9000;0.4404;0.0198;
-180.6000;0.4412;0.0198;
-180.3000;0.4412;0.0149;
-180.0000;0.4412;0.0099;
-179.7000;0.4355;0.0000;
-179.4000;0.4412;0.0124;
-179.1000;0.4404;0.0124;
-178.8000;0.4412;0.0025;
-178.5000;0.4404;-0.0025;
-178.2000;0.4404;-0.0025;
-177.9000;0.4404;-0.0025;
-177.6000;0.4436;-0.0025;
-177.3000;0.4396;-0.0124;
-177.0000;0.4404;-0.0124;
-176.7000;0.4404;-0.0149;
-176.4000;0.4412;-0.0124;
-176.1000;0.4428;-0.0099;
-175.8000;0.4420;-0.0099;
-175.5000;0.4404;-0.0050;
-175.2000;0.4363;-0.0074;
-174.9000;0.4396;-0.0050;
-174.6000;0.4387;-0.0099;
-174.3000;0.4371;-0.0198;
-174.0000;0.4387;-0.0124;
-173.7000;0.4404;-0.0149;
-173.4000;0.4379;-0.0124;
-173.1000;0.4412;-0.0074;
-172.8000;0.4428;-0.0050;
-172.5000;0.4420;0.0050;
-172.2000;0.4396;0.0025;
-171.9000;0.4404;0.0050;
-171.6000;0.4404;0.0074;
-171.3000;0.4412;0.0025;
-171.0000;0.4396;0.0000;
-170.7000;0.4404;-0.0099;
-170.4000;0.4396;-0.0124;
-170.1000;0.4420;-0.0149;
-169.8000;0.4396;-0.0272;
-169.5000;0.4404;-0.0322;
-169.2000;0.4387;-0.0322;
-168.9000;0.4387;-0.0347;
-168.6000;0.4444;-0.0124;
-168.3000;0.4404;-0.0173;
-168.0000;0.4412;-0.0099;
-167.7000;0.4412;-0.0050;
-167.4000;0.4436;0.0074;
-167.1000;0.4412;0.0000;
-166.8000;0.4396;0.0025;
-166.5000;0.4420;0.0050;
-166.2000;0.4404;-0.0099;
-165.9000;0.4444;-0.0050;
-165.6000;0.4396;-0.0074;
-165.3000;0.4404;-0.0124;
-165.0000;0.4396;-0.0124;
-164.7000;0.4412;-0.0149;
-164.4000;0.4396;-0.0074;
-164.1000;0.4396;0.0025;
-163.8000;0.4412;0.0000;
-163.5000;0.4420;0.0074;
-163.2000;0.4412;0.0149;
-162.9000;0.4412;0.0149;
-162.6000;0.4412;0.0223;
-162.3000;0.4396;0.0173;
-162.0000;0.4420;0.0198;
-161.7000;0.4404;0.0173;
-161.4000;0.4428;0.0149;
-161.1000;0.4412;0.0099;
-160.8000;0.4420;-0.0050;
-160.5000;0.4404;-0.0099;
-160.2000;0.4412;-0.0124;
-159.9000;0.4412;-0.0198;
-159.6000;0.4420;-0.0198;
-159.3000;0.4404;-0.0124;
-159.0000;0.4396;0.0025;
-158.7000;0.4428;0.0149;
-158.4000;0.4404;0.0124;
-158.1000;0.4404;0.0074;
-157.8000;0.4412;0.0050;
-157.5000;0.4412;0.0099;
-157.2000;0.4420;0.0149;
-156.9000;0.4387;0.0149;
-156.6000;0.4420;0.0248;
-156.3000;0.4396;0.0248;
-156.0000;0.4404;0.0297;
-155.7000;0.4404;0.0272;
-155.4000;0.4412;0.0248;
-155.1000;0.4387;0.0248;
-154.8000;0.4412;0.0322;
-154.5000;0.4420;0.0371;
-154.2000;0.4387;0.0371;
-153.9000;0.4412;0.0248;
-153.6000;0.4420;0.0223;
-153.3000;0.4412;0.0248;
-153.0000;0.4387;0.0248;
-152.7000;0.4387;0.0347;
-152.4000;0.4396;0.0347;
-152.1000;0.4371;0.0322;
-151.8000;0.4420;0.0371;
-151.5000;0.4404;0.0322;
-151.2000;0.4387;0.0272;
-150.9000;0.4396;0.0272;
-150.6000;0.4461;0.0347;
-150.3000;0.4396;0.0149;
-150.0000;0.4428;0.0322;
-149.7000;0.4469;0.0396;
-149.4000;0.4379;0.0149;
-149.1000;0.4469;0.0446;
-148.8000;0.4420;0.0297;
-148.5000;0.4428;0.0322;
-148.2000;0.4428;0.0421;
-147.9000;0.4412;0.0322;
-147.6000;0.4428;0.0371;
-147.3000;0.4404;0.0396;
-147.0000;0.4396;0.0421;
-146.7000;0.4404;0.0396;
-146.4000;0.4404;0.0322;
-146.1000;0.4412;0.0347;
-145.8000;0.4396;0.0297;
-145.5000;0.4412;0.0396;
-145.2000;0.4412;0.0322;
-144.9000;0.4412;0.0297;
-144.6000;0.4379;0.0149;
-144.3000;0.4420;0.0297;
-144.0000;0.4371;0.0173;
-143.7000;0.4428;0.0297;
-143.4000;0.4420;0.0297;
-143.1000;0.4412;0.0347;
-142.8000;0.4404;0.0322;
-142.5000;0.4420;0.0248;
-142.2000;0.4404;0.0198;
-141.9000;0.4404;0.0248;
-141.6000;0.4420;0.0371;
-141.3000;0.4412;0.0322;
-141.0000;0.4396;0.0347;
-140.7000;0.4412;0.0396;
-140.4000;0.4396;0.0297;
-140.1000;0.4428;0.0322;
-139.8000;0.4404;0.0149;
-139.5000;0.4396;0.0173;
-139.2000;0.4355;-0.0025;
-138.9000;0.4420;0.0149;
-138.6000;0.4428;0.0173;
-138.3000;0.4420;0.0149;
-138.0000;0.4412;0.0149;
-137.7000;0.4396;0.0149;
-137.4000;0.4412;0.0248;
-137.1000;0.4404;0.0223;
-136.8000;0.4379;0.0248;
-136.5000;0.4404;0.0322;
-136.2000;0.4428;0.0396;
-135.9000;0.4404;0.0297;
-135.6000;0.4396;0.0272;
-135.3000;0.4412;0.0322;
-135.0000;0.4379;0.0248;
-134.7000;0.4387;0.0173;
-134.4000;0.4477;0.0396;
-134.1000;0.4387;0.0173;
-133.8000;0.4371;0.0025;
-133.5000;0.4412;0.0099;
-133.2000;0.4420;0.0050;
-132.9000;0.4387;0.0124;
-132.6000;0.4412;0.0248;
-132.3000;0.4396;0.0173;
-132.0000;0.4428;0.0198;
-131.7000;0.4322;0.0050;
-131.4000;0.4412;0.0198;
-131.1000;0.4396;0.0149;
-130.8000;0.4396;0.0149;
-130.5000;0.4396;0.0074;
-130.2000;0.4396;0.0000;
-129.9000;0.4428;0.0050;
-129.6000;0.4477;0.0124;
-129.3000;0.4404;-0.0025;
-129.0000;0.4396;0.0000;
-128.7000;0.4379;0.0000;
-128.4000;0.4396;0.0050;
-128.1000;0.4396;0.0074;
-127.8000;0.4404;0.0124;
-127.5000;0.4412;0.0149;
-127.2000;0.4412;0.0223;
-126.9000;0.4371;0.0173;
-126.6000;0.4404;0.0248;
-126.3000;0.4387;0.0248;
-126.0000;0.4412;0.0248;
-125.7000;0.4387;0.0248;
-125.4000;0.4412;0.0347;
-125.1000;0.4420;0.0421;
-124.8000;0.4444;0.0396;
-124.5000;0.4412;0.0272;
-124.2000;0.4436;0.0347;
-123.9000;0.4436;0.0421;
-123.6000;0.4420;0.0347;
-123.3000;0.4420;0.0272;
-123.0000;0.4444;0.0347;
-122.7000;0.4412;0.0322;
-122.4000;0.4371;0.0124;
-122.1000;0.4412;0.0198;
-121.8000;0.4428;0.0198;
-121.5000;0.4412;0.0223;
-121.2000;0.4404;0.0272;
-120.9000;0.4420;0.0297;
-120.6000;0.4387;0.0347;
-120.3000;0.4363;0.0297;
-120.0000;0.4420;0.0396;
-119.7000;0.4396;0.0297;
-119.4000;0.4412;0.0223;
-119.1000;0.4387;0.0347;
-118.8000;0.4453;0.0495;
-118.5000;0.4420;0.0446;
-118.2000;0.4371;0.0223;
-117.9000;0.4396;0.0248;
-117.6000;0.4396;0.0198;
-117.3000;0.4412;0.0272;
-117.0000;0.4404;0.0297;
-116.7000;0.4412;0.0297;
-116.4000;0.4404;0.0248;
-116.1000;0.4396;0.0198;
-115.8000;0.4477;0.0396;
-115.5000;0.4412;0.0198;
-115.2000;0.4355;0.0025;
-114.9000;0.4404;0.0050;
-114.6000;0.4404;0.0149;
-114.3000;0.4420;0.0248;
-114.0000;0.4404;0.0248;
-113.7000;0.4396;0.0248;
-113.4000;0.4412;0.0198;
-113.1000;0.4412;0.0099;
-112.8000;0.4412;0.0124;
-112.5000;0.4420;0.0074;
-112.2000;0.4404;0.0025;
-111.9000;0.4420;0.0099;
-111.6000;0.4355;0.0000;
-111.3000;0.4420;0.0198;
-111.0000;0.4412;0.0272;
-110.7000;0.4363;0.0050;
-110.4000;0.4412;0.0272;
-110.1000;0.4404;0.0149;
-109.8000;0.4387;0.0099;
-109.5000;0.4330;-0.0050;
-109.2000;0.4420;0.0173;
-108.9000;0.4355;0.0099;
-108.6000;0.4387;0.0173;
-108.3000;0.4420;0.0347;
-108.0000;0.4396;0.0347;
-107.7000;0.4420;0.0396;
-107.4000;0.4404;0.0396;
-107.1000;0.4428;0.0470;
-106.8000;0.4404;0.0446;
-106.5000;0.4404;0.0371;
-106.2000;0.4404;0.0223;
-105.9000;0.4420;0.0223;
-105.6000;0.4387;0.0099;
-105.3000;0.4412;0.0124;
-105.0000;0.4412;0.0149;
-104.7000;0.4404;0.0099;
-104.4000;0.4412;0.0173;
-104.1000;0.4420;0.0099;
-103.8000;0.4412;0.0149;
-103.5000;0.4420;0.0149;
-103.2000;0.4404;0.0074;
-102.9000;0.4412;0.0198;
-102.6000;0.4404;0.0322;
-102.3000;0.4404;0.0347;
-102.0000;0.4371;0.0223;
-101.7000;0.4396;0.0297;
-101.4000;0.4412;0.0198;
-101.1000;0.4412;0.0223;
-100.8000;0.4420;0.0149;
-100.5000;0.4420;0.0149;
-100.2000;0.4420;0.0124;
-99.9000;0.4436;0.0149;
-99.6000;0.4396;0.0074;
-99.3000;0.4412;0.0149;
-99.0000;0.4404;0.0050;
-98.7000;0.4404;-0.0025;
-98.4000;0.4412;-0.0050;
-98.1000;0.4412;0.0000;
-97.8000;0.4420;0.0050;
-97.5000;0.4420;0.0074;
-97.2000;0.4420;0.0099;
-96.9000;0.4404;0.0198;
-96.6000;0.4412;0.0124;
-96.3000;0.4420;0.0025;
-96.0000;0.4387;-0.0099;
-95.7000;0.4404;-0.0074;
-95.4000;0.4404;-0.0025;
-95.1000;0.4428;0.0050;
-94.8000;0.4428;0.0050;
-94.5000;0.4404;0.0074;
-94.2000;0.4396;0.0025;
-93.9000;0.4412;0.0124;
-93.6000;0.4404;0.0124;
-93.3000;0.4404;0.0124;
-93.0000;0.4387;0.0099;
-92.7000;0.4396;0.0173;
-92.4000;0.4412;0.0322;
-92.1000;0.4379;0.0124;
-91.8000;0.4412;0.0198;
-91.5000;0.4404;0.0198;
-91.2000;0.4396;0.0124;
-90.9000;0.4379;0.0124;
-90.6000;0.4428;0.0248;
-90.3000;0.4428;0.0248;
-90.0000;0.4420;0.0297;
-89.7000;0.4436;0.0322;
-89.4000;0.4404;0.0347;
-89.1000;0.4493;0.0570;
-88.8000;0.4420;0.0297;
-88.5000;0.4404;0.0223;
-88.2000;0.4428;0.0248;
-87.9000;0.4444;0.0347;
-87.6000;0.4428;0.0297;
-87.3000;0.4428;0.0173;
-87.0000;0.4387;0.0149;
-86.7000;0.4404;0.0173;
-86.4000;0.4412;0.0149;
-86.1000;0.4420;0.0198;
-85.8000;0.4404;0.0198;
-85.5000;0.4412;0.0223;
-85.2000;0.4396;0.0198;
-84.9000;0.4420;0.0272;
-84.6000;0.4396;0.0248;
-84.3000;0.4396;0.0173;
-84.0000;0.4371;0.0074;
-83.7000;0.4420;0.0173;
-83.4000;0.4420;0.0173;
-83.1000;0.4404;0.0149;
-82.8000;0.4396;0.0074;
-82.5000;0.4396;-0.0050;
-82.2000;0.4420;-0.0050;
-81.9000;0.4396;-0.0074;
-81.6000;0.4404;-0.0099;
-81.3000;0.4412;0.0025;
-81.0000;0.4404;-0.0074;
-80.7000;0.4428;0.0000;
-80.4000;0.4428;-0.0025;
-80.1000;0.4396;-0.0124;
-79.8000;0.4412;-0.0074;
-79.5000;0.4420;-0.0050;
-79.2000;0.4420;0.0050;
-78.9000;0.4436;0.0074;
-78.6000;0.4428;0.0025;
-78.3000;0.4436;0.0074;
-78.0000;0.4404;0.0050;
-77.7000;0.4396;0.0074;
-77.4000;0.4404;0.0124;
-77.1000;0.4396;0.0000;
-76.8000;0.4412;-0.0025;
-76.5000;0.4396;0.0000;
-76.2000;0.4396;0.0025;
-75.9000;0.4412;0.0050;
-75.6000;0.4396;0.0074;
-75.3000;0.4412;0.0124;
-75.0000;0.4412;0.0198;
-74.7000;0.4420;0.0173;
-74.4000;0.4412;0.0223;
-74.1000;0.4404;0.0173;
-73.8000;0.4412;0.0248;
-73.5000;0.4404;0.0347;
-73.2000;0.4412;0.0248;
-72.9000;0.4412;0.0173;
-72.6000;0.4404;0.0099;
-72.3000;0.4371;-0.0099;
-72.0000;0.4412;-0.0099;
-71.7000;0.4412;-0.0074;
-71.4000;0.4396;-0.0050;
-71.1000;0.4396;0.0025;
-70.8000;0.4444;0.0099;
-70.5000;0.4404;0.0025;
-70.2000;0.4436;0.0099;
-69.9000;0.4396;0.0000;
-69.6000;0.4412;0.0074;
-69.3000;0.4404;0.0025;
-69.0000;0.4461;0.0099;
-68.7000;0.4420;0.0074;
-68.4000;0.4412;0.0099;
-68.1000;0.4412;0.0074;
-67.8000;0.4412;0.0099;
-67.5000;0.4412;0.0025;
-67.2000;0.4412;0.0025;
-66.9000;0.4412;0.0074;
-66.6000;0.4396;0.0025;
-66.3000;0.4404;0.0050;
-66.0000;0.4387;0.0025;
-65.7000;0.4404;0.0025;
-65.4000;0.4412;0.0050;
-65.1000;0.4412;0.0000;
-64.8000;0.4396;0.0000;
-64.5000;0.4420;0.0074;
-64.2000;0.4404;0.0074;
-63.9000;0.4420;0.0124;
-63.6000;0.4412;0.0124;
-63.3000;0.4412;0.0074;
-63.0000;0.4412;0.0074;
-62.7000;0.4363;-0.0074;
-62.4000;0.4412;0.0025;
-62.1000;0.4412;0.0000;
-61.8000;0.4396;0.0025;
-61.5000;0.4469;0.0223;
-61.2000;0.4379;0.0025;
-60.9000;0.4404;-0.0050;
-60.6000;0.4412;-0.0025;
-60.3000;0.4396;-0.0025;
-60.0000;0.4420;0.0000;
-59.7000;0.4420;0.0000;
-59.4000;0.4396;-0.0050;
-59.1000;0.4420;0.0000;
-58.8000;0.4420;0.0074;
-58.5000;0.4396;0.0173;
-58.2000;0.4412;0.0198;
-57.9000;0.4412;0.0124;
-57.6000;0.4404;0.0050;
-57.3000;0.4420;0.0099;
-57.0000;0.4412;0.0149;
-56.7000;0.4420;0.0198;
-56.4000;0.4404;0.0173;
-56.1000;0.4412;0.0124;
-55.8000;0.4412;0.0000;
-55.5000;0.4420;-0.0099;
-55.2000;0.4404;-0.0025;
-54.9000;0.4428;0.0124;
-54.6000;0.4412;-0.0025;
-54.3000;0.4436;-0.0074;
-54.0000;0.4493;0.0198;
-53.7000;0.4420;-0.0050;
-53.4000;0.4396;-0.0050;
-53.1000;0.4396;-0.0050;
-52.8000;0.4412;0.0000;
-52.5000;0.4396;-0.0050;
-52.2000;0.4412;-0.0099;
-51.9000;0.4412;-0.0025;
-51.6000;0.4436;0.0000;
-51.3000;0.4412;-0.0050;
-51.0000;0.4444;0.0000;
-50.7000;0.4412;-0.0099;
-50.4000;0.4412;-0.0124;
-50.1000;0.4396;-0.0124;
-49.8000;0.4387;-0.0198;
-49.5000;0.4412;-0.0124;
-49.2000;0.4404;-0.0099;
-48.9000;0.4396;-0.0074;
-48.6000;0.4412;0.0000;
-48.3000;0.4412;0.0000;
-48.0000;0.4420;0.0025;
-47.7000;0.4420;0.0074;
-47.4000;0.4404;0.0099;
-47.1000;0.4412;0.0099;
-46.8000;0.4387;0.0124;
-46.5000;0.4396;0.0099;
-46.2000;0.4396;0.0074;
-45.9000;0.4420;0.0050;
-45.6000;0.4412;0.0000;
-45.3000;0.4404;0.0025;
-45.0000;0.4404;0.0099;
-44.7000;0.4420;0.0173;
-44.4000;0.4404;0.0124;
-44.1000;0.4420;0.0173;
-43.8000;0.4387;0.0198;
-43.5000;0.4379;0.0223;
-43.2000;0.4404;0.0396;
-42.9000;0.4404;0.0347;
-42.6000;0.4404;0.0396;
-42.3000;0.4420;0.0347;
-42.0000;0.4387;0.0198;
-41.7000;0.4404;0.0272;
-41.4000;0.4404;0.0223;
-41.1000;0.4428;0.0297;
-40.8000;0.4404;0.0272;
-40.5000;0.4412;0.0248;
-40.2000;0.4412;0.0297;
-39.9000;0.4420;0.0396;
-39.6000;0.4396;0.0347;
-39.3000;0.4453;0.0520;
-39.0000;0.4404;0.0371;
-38.7000;0.4428;0.0371;
-38.4000;0.4387;0.0198;
-38.1000;0.4404;0.0223;
-37.8000;0.4322;0.0000;
-37.5000;0.4420;0.0272;
-37.2000;0.4412;0.0198;
-36.9000;0.4404;0.0223;
-36.6000;0.4420;0.0248;
-36.3000;0.4396;0.0149;
-36.0000;0.4396;0.0149;
-35.7000;0.4404;0.0149;
-35.4000;0.4412;0.0198;
-35.1000;0.4412;0.0248;
-34.8000;0.4420;0.0149;
-34.5000;0.4404;0.0124;
-34.2000;0.4379;0.0000;
-33.9000;0.4412;0.0050;
-33.6000;0.4387;-0.0025;
-33.3000;0.4412;0.0149;
-33.0000;0.4404;0.0173;
-32.7000;0.4396;0.0149;
-32.4000;0.4436;0.0272;
-32.1000;0.4436;0.0223;
-31.8000;0.4412;0.0149;
-31.5000;0.4412;0.0272;
-31.2000;0.4412;0.0297;
-30.9000;0.4420;0.0248;
-30.6000;0.4420;0.0173;
-30.3000;0.4420;0.0248;
-30.0000;0.4412;0.0124;
-29.7000;0.4420;0.0272;
-29.4000;0.4420;0.0322;
-29.1000;0.4420;0.0198;
-28.8000;0.4404;0.0248;
-28.5000;0.4404;0.0248;
-28.2000;0.4404;0.0248;
-27.9000;0.4404;0.0248;
-27.6000;0.4396;0.0198;
-27.3000;0.4396;0.0173;
-27.0000;0.4396;0.0173;
-26.7000;0.4371;0.0025;
-26.4000;0.4404;0.0173;
-26.1000;0.4420;0.0223;
-25.8000;0.4428;0.0173;
-25.5000;0.4412;0.0050;
-25.2000;0.4404;0.0025;
-24.9000;0.4412;0.0050;
-24.6000;0.4404;0.0025;
-24.3000;0.4420;0.0050;
-24.0000;0.4396;0.0050;
-23.7000;0.4412;0.0050;
-23.4000;0.4379;-0.0025;
-23.1000;0.4412;0.0050;
-22.8000;0.4420;0.0149;
-22.5000;0.4387;0.0050;
-22.2000;0.4404;0.0124;
-21.9000;0.4412;0.0074;
-21.6000;0.4412;0.0050;
-21.3000;0.4453;0.0173;
-21.0000;0.4420;0.0074;
-20.7000;0.4379;-0.0124;
-20.4000;0.4404;-0.0074;
-20.1000;0.4396;-0.0025;
-19.8000;0.4404;0.0025;
-19.5000;0.4412;0.0000;
-19.2000;0.4428;0.0099;
-18.9000;0.4428;0.0099;
-18.6000;0.4420;0.0124;
-18.3000;0.4412;0.0074;
-18.0000;0.4412;0.0074;
-17.7000;0.4412;0.0074;
-17.4000;0.4412;0.0050;
-17.1000;0.4420;-0.0025;
-16.8000;0.4404;-0.0099;
-16.5000;0.4420;-0.0050;
-16.2000;0.4396;0.0000;
-15.9000;0.4379;0.0074;
-15.6000;0.4379;0.0149;
-15.3000;0.4428;0.0297;
-15.0000;0.4420;0.0297;
-14.7000;0.4290;-0.0074;
-14.4000;0.4404;0.0248;
-14.1000;0.4387;0.0149;
-13.8000;0.4428;0.0149;
-13.5000;0.4387;0.0074;
-13.2000;0.4461;0.0322;
-12.9000;0.4436;0.0297;
-12.6000;0.4420;0.0173;
-12.3000;0.4387;0.0198;
-12.0000;0.4436;0.0272;
-11.7000;0.4379;0.0074;
-11.4000;0.4396;0.0099;
-11.1000;0.4371;0.0099;
-10.8000;0.4387;0.0050;
-10.5000;0.4428;0.0198;
-10.2000;0.4404;0.0074;
-9.9000;0.4404;-0.0074;
-9.6000;0.4412;0.0025;
-9.3000;0.4404;-0.0099;
-9.0000;0.4404;0.0050;
-8.7000;0.4420;0.0050;
-8.4000;0.4428;0.0025;
-8.1000;0.4428;0.0074;
-7.8000;0.4412;-0.0074;
-7.5000;0.4428;-0.0050;
-7.2000;0.4428;-0.0050;
-6.9000;0.4420;0.0000;
-6.6000;0.4436;0.0050;
-6.3000;0.4412;-0.0025;
-6.0000;0.4420;0.0074;
-5.7000;0.4387;0.0074;
-5.4000;0.4420;0.0149;
-5.1000;0.4412;0.0099;
-4.8000;0.4412;0.0099;
-4.5000;0.4371;-0.0050;
-4.2000;0.4428;0.0050;
-3.9000;0.4412;-0.0050;
-3.6000;0.4404;-0.0149;
-3.3000;0.4420;-0.0149;
-3.0000;0.4420;-0.0272;
-2.7000;0.4404;-0.0297;
-2.4000;0.4396;-0.0297;
-2.1000;0.4412;-0.0223;
-1.8000;0.4387;-0.0173;
-1.5000;0.4404;-0.0198;
-1.2000;0.4412;-0.0173;
-0.9000;0.4412;-0.0198;
-0.6000;0.4404;-0.0173;
-0.3000;0.4444;0.0000;
0.0000;0.4444;0.0000;
0.3000;0.4444;-0.0198;
0.6000;0.4453;-0.0173;
0.9000;0.4493;0.0000;
1.2000;0.4558;0.0248;
1.5000;0.4550;0.0223;
1.8000;0.4583;0.0470;
2.1000;0.4583;0.0545;
2.4000;0.4591;0.0570;
2.7000;0.4599;0.0768;
3.0000;0.4648;0.0966;
3.3000;0.4624;0.1040;
3.6000;0.4640;0.1139;
3.9000;0.4624;0.1139;
4.2000;0.4624;0.1189;
4.5000;0.4640;0.1312;
4.8000;0.4632;0.1312;
5.1000;0.4624;0.1312;
5.4000;0.4640;0.1362;
5.7000;0.4632;0.1411;
6.0000;0.4640;0.1411;
6.3000;0.4599;0.1263;
6.6000;0.4648;0.1511;
6.9000;0.4672;0.1585;
7.2000;0.4672;0.1634;
7.5000;0.4656;0.1659;
7.8000;0.4672;0.1659;
8.1000;0.4672;0.1659;
8.4000;0.4681;0.1634;
8.7000;0.4656;0.1436;
9.0000;0.4656;0.1337;
9.3000;0.4689;0.1362;
9.6000;0.4689;0.1387;
9.9000;0.4697;0.1461;
10.2000;0.4746;0.1634;
10.5000;0.4713;0.1535;
10.8000;0.4681;0.1634;
11.1000;0.4697;0.1709;
11.4000;0.4672;0.1684;
11.7000;0.4672;0.1709;
12.0000;0.4713;0.1634;
12.3000;0.4705;0.1684;
12.6000;0.4737;0.1733;
12.9000;0.4721;0.1659;
13.2000;0.4713;0.1535;
13.5000;0.4754;0.1634;
13.8000;0.4729;0.1560;
14.1000;0.4713;0.1436;
14.4000;0.4754;0.1560;
14.7000;0.4737;0.1486;
15.0000;0.4778;0.1610;
15.3000;0.4737;0.1535;
15.6000;0.4713;0.1436;
15.9000;0.4737;0.1511;
16.2000;0.4737;0.1486;
16.5000;0.4721;0.1461;
16.8000;0.4746;0.1610;
17.1000;0.4746;0.1610;
17.4000;0.4794;0.1733;
17.7000;0.4778;0.1634;
18.0000;0.4754;0.1585;
18.3000;0.4754;0.1411;
18.6000;0.4754;0.1312;
18.9000;0.4762;0.1436;
19.2000;0.4746;0.1461;
19.5000;0.4762;0.1486;
19.8000;0.4762;0.1511;
20.1000;0.4746;0.1461;
20.4000;0.4746;0.1511;
20.7000;0.4762;0.1535;
21.0000;0.4721;0.1411;
21.3000;0.4729;0.1411;
21.6000;0.4754;0.1486;
21.9000;0.4762;0.1659;
22.2000;0.4770;0.1585;
22.5000;0.4786;0.1634;
22.8000;0.4778;0.1659;
23.1000;0.4770;0.1610;
23.4000;0.4762;0.1585;
23.7000;0.4778;0.1634;
24.0000;0.4778;0.1709;
24.3000;0.4778;0.1783;
24.6000;0.4778;0.1832;
24.9000;0.4794;0.1832;
25.2000;0.4762;0.1684;
25.5000;0.4794;0.1733;
25.8000;0.4786;0.1659;
26.1000;0.4778;0.1634;
26.4000;0.4803;0.1659;
26.7000;0.4786;0.1511;
27.0000;0.4811;0.1585;
27.3000;0.4778;0.1411;
27.6000;0.4786;0.1486;
27.9000;0.4794;0.1535;
28.2000;0.4778;0.1511;
28.5000;0.4762;0.1461;
28.8000;0.4778;0.1461;
29.1000;0.4794;0.1560;
29.4000;0.4794;0.1610;
29.7000;0.4778;0.1560;
30.0000;0.4770;0.1585;
30.3000;0.4803;0.1634;
30.6000;0.4803;0.1684;
30.9000;0.4803;0.1758;
31.2000;0.4786;0.1560;
31.5000;0.4786;0.1560;
31.8000;0.4803;0.1535;
32.1000;0.4794;0.1411;
32.4000;0.4843;0.1486;
32.7000;0.4827;0.1461;
33.0000;0.4803;0.1461;
33.3000;0.4803;0.1411;
33.6000;0.4794;0.1486;
33.9000;0.4811;0.1585;
34.2000;0.4827;0.1684;
34.5000;0.4819;0.1709;
34.8000;0.4827;0.1733;
35.1000;0.4819;0.1783;
35.4000;0.4811;0.1733;
35.7000;0.4827;0.1709;
36.0000;0.4778;0.1585;
36.3000;0.4827;0.1758;
36.6000;0.4835;0.1832;
36.9000;0.4819;0.1709;
37.2000;0.4819;0.1585;
37.5000;0.4827;0.1560;
37.8000;0.4843;0.1560;
38.1000;0.4827;0.1461;
38.4000;0.4835;0.1461;
38.7000;0.4819;0.1486;
39.0000;0.4835;0.1585;
39.3000;0.4811;0.1486;
39.6000;0.4811;0.1535;
39.9000;0.4819;0.1535;
40.2000;0.4835;0.1610;
40.5000;0.4819;0.1585;
40.8000;0.4827;0.1610;
41.1000;0.4884;0.1758;
41.4000;0.4811;0.1610;
41.7000;0.4851;0.1709;
42.0000;0.4827;0.1610;
42.3000;0.4835;0.1634;
42.6000;0.4843;0.1634;
42.9000;0.4778;0.1387;
43.2000;0.4827;0.1337;
43.5000;0.4819;0.1337;
43.8000;0.4827;0.1387;
44.1000;0.4827;0.1436;
44.4000;0.4819;0.1362;
44.7000;0.4835;0.1362;
45.0000;0.4819;0.1288;
45.3000;0.4835;0.1337;
45.6000;0.4851;0.1362;
45.9000;0.4843;0.1337;
46.2000;0.4835;0.1387;
46.5000;0.4860;0.1387;
46.8000;0.4835;0.1362;
47.1000;0.4819;0.1387;
47.4000;0.4868;0.1535;
47.7000;0.4835;0.1486;
48.0000;0.4827;0.1511;
48.3000;0.4835;0.1634;
48.6000;0.4843;0.1610;
48.9000;0.4843;0.1486;
49.2000;0.4835;0.1411;
49.5000;0.4843;0.1461;
49.8000;0.4868;0.1610;
50.1000;0.4835;0.1610;
50.4000;0.4827;0.1535;
50.7000;0.4827;0.1461;
51.0000;0.4803;0.1411;
51.3000;0.4843;0.1461;
51.6000;0.4835;0.1461;
51.9000;0.4827;0.1337;
52.2000;0.4835;0.1461;
52.5000;0.4851;0.1436;
52.8000;0.4803;0.1362;
53.1000;0.4827;0.1436;
53.4000;0.4835;0.1535;
53.7000;0.4819;0.1560;
54.0000;0.4835;0.1634;
54.3000;0.4835;0.1585;
54.6000;0.4835;0.1610;
54.9000;0.4884;0.1758;
55.2000;0.4803;0.1511;
55.5000;0.4827;0.1511;
55.8000;0.4843;0.1511;
56.1000;0.4851;0.1684;
56.4000;0.4803;0.1585;
56.7000;0.4868;0.1634;
57.0000;0.4819;0.1461;
57.3000;0.4851;0.1535;
57.6000;0.4851;0.1461;
57.9000;0.4925;0.1709;
58.2000;0.4851;0.1560;
58.5000;0.4860;0.1610;
58.8000;0.4843;0.1634;
59.1000;0.4851;0.1684;
59.4000;0.4811;0.1585;
59.7000;0.4843;0.1634;
60.0000;0.4900;0.1709;
60.3000;0.4827;0.1486;
60.6000;0.4794;0.1411;
60.9000;0.4868;0.1709;
61.2000;0.4843;0.1733;
61.5000;0.4860;0.1684;
61.8000;0.4835;0.1709;
62.1000;0.4786;0.1560;
62.4000;0.4884;0.1783;
62.7000;0.4835;0.1709;
63.0000;0.4835;0.1684;
63.3000;0.4868;0.1733;
63.6000;0.4835;0.1634;
63.9000;0.4827;0.1634;
64.2000;0.4851;0.1709;
64.5000;0.4827;0.1634;
64.8000;0.4851;0.1610;
65.1000;0.4868;0.1535;
65.4000;0.4868;0.1560;
65.7000;0.4827;0.1486;
66.0000;0.4851;0.1387;
66.3000;0.4835;0.1337;
66.6000;0.4860;0.1288;
66.9000;0.4794;0.1213;
67.2000;0.4827;0.1288;
67.5000;0.4851;0.1337;
67.8000;0.4843;0.1411;
68.1000;0.4860;0.1486;
68.4000;0.4860;0.1486;
68.7000;0.4803;0.1436;
69.0000;0.4892;0.1634;
69.3000;0.4868;0.1560;
69.6000;0.4860;0.1535;
69.9000;0.4851;0.1535;
70.2000;0.4851;0.1634;
70.5000;0.4851;0.1585;
70.8000;0.4851;0.1560;
71.1000;0.4851;0.1535;
71.4000;0.4851;0.1511;
71.7000;0.4843;0.1461;
72.0000;0.4860;0.1486;
72.3000;0.4835;0.1411;
72.6000;0.4843;0.1486;
72.9000;0.4868;0.1461;
73.2000;0.4868;0.1461;
73.5000;0.4860;0.1436;
73.8000;0.4876;0.1461;
74.1000;0.4868;0.1436;
74.4000;0.4868;0.1411;
74.7000;0.4876;0.1387;
75.0000;0.4835;0.1387;
75.3000;0.4941;0.1560;
75.6000;0.4851;0.1337;
75.9000;0.4843;0.1387;
76.2000;0.4835;0.1436;
76.5000;0.4803;0.1288;
76.8000;0.4835;0.1387;
77.1000;0.4843;0.1486;
77.4000;0.4900;0.1659;
77.7000;0.4843;0.1535;
78.0000;0.4843;0.1461;
78.3000;0.4884;0.1610;
78.6000;0.4851;0.1486;
78.9000;0.4933;0.1733;
79.2000;0.4860;0.1511;
79.5000;0.4876;0.1610;
79.8000;0.4843;0.1486;
80.1000;0.4843;0.1461;
80.4000;0.4851;0.1511;
80.7000;0.4876;0.1511;
81.0000;0.4819;0.1411;
81.3000;0.4843;0.1535;
81.6000;0.4949;0.1733;
81.9000;0.4843;0.1511;
82.2000;0.4860;0.1511;
82.5000;0.4860;0.1610;
82.8000;0.4827;0.1461;
83.1000;0.4892;0.1610;
83.4000;0.4843;0.1585;
83.7000;0.4843;0.1560;
84.0000;0.4819;0.1511;
84.3000;0.4860;0.1585;
84.6000;0.4868;0.1535;
84.9000;0.4908;0.1560;
85.2000;0.4827;0.1362;
85.5000;0.4900;0.1511;
85.8000;0.4851;0.1511;
86.1000;0.4843;0.1610;
86.4000;0.4851;0.1610;
86.7000;0.4860;0.1610;
87.0000;0.4851;0.1585;
87.3000;0.4851;0.1709;
87.6000;0.4819;0.1634;
87.9000;0.4843;0.1684;
88.2000;0.4835;0.1585;
88.5000;0.4860;0.1659;
88.8000;0.4860;0.1634;
89.1000;0.4851;0.1535;
89.4000;0.4835;0.1585;
89.7000;0.4876;0.1709;
90.0000;0.4860;0.1758;
90.3000;0.4868;0.1659;
90.6000;0.4851;0.1560;
90.9000;0.4876;0.1684;
91.2000;0.4851;0.1560;
91.5000;0.4843;0.1461;
91.8000;0.4851;0.1461;
92.1000;0.4851;0.1486;
92.4000;0.4851;0.1511;
92.7000;0.4860;0.1560;
93.0000;0.4851;0.1585;
93.3000;0.4835;0.1560;
93.6000;0.4860;0.1511;
93.9000;0.4860;0.1535;
94.2000;0.4843;0.1560;
94.5000;0.4835;0.1610;
94.8000;0.4860;0.1610;
95.1000;0.4851;0.1659;
95.4000;0.4860;0.1709;
95.7000;0.4835;0.1634;
96.0000;0.4860;0.1709;
96.3000;0.4917;0.1808;
96.6000;0.4868;0.1684;
96.9000;0.4843;0.1659;
97.2000;0.4843;0.1634;
97.5000;0.4851;0.1659;
97.8000;0.4835;0.1585;
98.1000;0.4851;0.1659;
98.4000;0.4851;0.1560;
98.7000;0.4786;0.1387;
99.0000;0.4843;0.1486;
99.3000;0.4827;0.1436;
99.6000;0.4794;0.1263;
99.9000;0.4835;0.1362;
100.2000;0.4819;0.1362;
100.5000;0.4843;0.1337;
100.8000;0.4827;0.1238;
101.1000;0.4884;0.1362;
101.4000;0.4851;0.1362;
101.7000;0.4819;0.1337;
102.0000;0.4835;0.1312;
102.3000;0.4811;0.1288;
102.6000;0.4851;0.1288;
102.9000;0.4843;0.1288;
103.2000;0.4851;0.1312;
103.5000;0.4843;0.1238;
103.8000;0.4851;0.1263;
104.1000;0.4917;0.1411;
104.4000;0.4851;0.1263;
104.7000;0.4843;0.1312;
105.0000;0.4860;0.1461;
105.3000;0.4860;0.1511;
105.6000;0.4868;0.1560;
105.9000;0.4860;0.1610;
106.2000;0.4876;0.1585;
106.5000;0.4876;0.1610;
106.8000;0.4868;0.1659;
107.1000;0.4860;0.1610;
107.4000;0.4860;0.1535;
107.7000;0.4860;0.1486;
108.0000;0.4835;0.1411;
108.3000;0.4876;0.1535;
108.6000;0.4860;0.1461;
108.9000;0.4851;0.1511;
109.2000;0.4876;0.1709;
109.5000;0.4851;0.1659;
109.8000;0.4876;0.1684;
110.1000;0.4843;0.1511;
110.4000;0.4843;0.1486;
110.7000;0.4860;0.1535;
111.0000;0.4876;0.1560;
111.3000;0.4843;0.1560;
111.6000;0.4860;0.1535;
111.9000;0.4843;0.1585;
112.2000;0.4851;0.1634;
112.5000;0.4851;0.1610;
112.8000;0.4876;0.1659;
113.1000;0.4851;0.1585;
113.4000;0.4868;0.1486;
113.7000;0.4851;0.1486;
114.0000;0.4876;0.1535;
114.3000;0.4860;0.1535;
114.6000;0.4843;0.1511;
114.9000;0.4851;0.1461;
115.2000;0.4860;0.1436;
115.5000;0.4851;0.1436;
115.8000;0.4860;0.1461;
116.1000;0.4835;0.1436;
116.4000;0.4851;0.1486;
116.7000;0.4860;0.1511;
117.0000;0.4860;0.1560;
117.3000;0.4908;0.1808;
117.6000;0.4851;0.1610;
117.9000;0.4860;0.1659;
118.2000;0.4778;0.1461;
118.5000;0.4843;0.1684;
118.8000;0.4868;0.1783;
119.1000;0.4868;0.1808;
119.4000;0.4860;0.1733;
119.7000;0.4884;0.1709;
120.0000;0.4843;0.1535;
120.3000;0.4851;0.1535;
120.6000;0.4827;0.1362;
120.9000;0.4860;0.1411;
121.2000;0.4851;0.1312;
121.5000;0.4876;0.1337;
121.8000;0.4843;0.1337;
122.1000;0.4860;0.1535;
122.4000;0.4851;0.1461;
122.7000;0.4884;0.1610;
123.0000;0.4851;0.1585;
123.3000;0.4908;0.1758;
123.6000;0.4843;0.1560;
123.9000;0.4851;0.1659;
124.2000;0.4892;0.1684;
124.5000;0.4876;0.1585;
124.8000;0.4827;0.1486;
125.1000;0.4868;0.1560;
125.4000;0.4843;0.1560;
125.7000;0.4794;0.1411;
126.0000;0.4868;0.1560;
126.3000;0.4843;0.1461;
126.6000;0.4843;0.1436;
126.9000;0.4843;0.1461;
127.2000;0.4860;0.1411;
127.5000;0.4884;0.1411;
127.8000;0.4868;0.1436;
128.1000;0.4860;0.1560;
128.4000;0.4876;0.1610;
128.7000;0.4851;0.1709;
129.0000;0.4835;0.1560;
129.3000;0.4851;0.1511;
129.6000;0.4860;0.1535;
129.9000;0.4851;0.1461;
130.2000;0.4860;0.1535;
130.5000;0.4851;0.1486;
130.8000;0.4851;0.1511;
131.1000;0.4860;0.1560;
131.4000;0.4843;0.1461;
131.7000;0.4860;0.1436;
132.0000;0.4868;0.1511;
132.3000;0.4851;0.1486;
132.6000;0.4868;0.1535;
132.9000;0.4835;0.1436;
133.2000;0.4835;0.1535;
133.5000;0.4860;0.1535;
133.8000;0.4851;0.1511;
134.1000;0.4827;0.1535;
134.4000;0.4851;0.1610;
134.7000;0.4827;0.1560;
135.0000;0.4786;0.1436;
135.3000;0.4843;0.1511;
135.6000;0.4843;0.1560;
135.9000;0.4835;0.1511;
136.2000;0.4868;0.1535;
136.5000;0.4843;0.1461;
136.8000;0.4835;0.1387;
137.1000;0.4835;0.1411;
137.4000;0.4835;0.1486;
137.7000;0.4851;0.1511;
138.0000;0.4835;0.1362;
138.3000;0.4843;0.1387;
138.6000;0.4851;0.1362;
138.9000;0.4884;0.1387;
139.2000;0.4876;0.1411;
139.5000;0.4843;0.1362;
139.8000;0.4860;0.1461;
140.1000;0.4884;0.1560;
140.4000;0.4860;0.1535;
140.7000;0.4843;0.1535;
141.0000;0.4827;0.1535;
141.3000;0.4868;0.1535;
141.6000;0.4851;0.1535;
141.9000;0.4843;0.1560;
142.2000;0.4803;0.1436;
142.5000;0.4860;0.1560;
142.8000;0.4868;0.1560;
143.1000;0.4811;0.1387;
143.4000;0.4876;0.1634;
143.7000;0.4843;0.1535;
144.0000;0.4843;0.1486;
144.3000;0.4851;0.1486;
144.6000;0.4835;0.1486;
144.9000;0.4843;0.1436;
145.2000;0.4876;0.1511;
145.5000;0.4868;0.1585;
145.8000;0.4843;0.1585;
146.1000;0.4876;0.1610;
146.4000;0.4860;0.1560;
146.7000;0.4851;0.1585;
147.0000;0.4868;0.1659;
147.3000;0.4835;0.1709;
147.6000;0.4843;0.1709;
147.9000;0.4860;0.1733;
148.2000;0.4851;0.1709;
148.5000;0.4843;0.1684;
148.8000;0.4851;0.1733;
149.1000;0.4851;0.1832;
149.4000;0.4851;0.1808;
149.7000;0.4843;0.1832;
150.0000;0.4843;0.1808;
150.3000;0.4827;0.1684;
150.6000;0.4851;0.1659;
150.9000;0.4843;0.1585;
151.2000;0.4851;0.1486;
151.5000;0.4868;0.1461;
151.8000;0.4868;0.1461;
152.1000;0.4860;0.1461;
152.4000;0.4843;0.1535;
152.7000;0.4811;0.1486;
153.0000;0.4851;0.1511;
153.3000;0.4835;0.1535;
153.6000;0.4843;0.1535;
153.9000;0.4843;0.1486;
154.2000;0.4860;0.1486;
154.5000;0.4917;0.1610;
154.8000;0.4851;0.1560;
155.1000;0.4835;0.1585;
155.4000;0.4860;0.1610;
155.7000;0.4851;0.1560;
156.0000;0.4908;0.1684;
156.3000;0.4868;0.1684;
156.6000;0.4794;0.1560;
156.9000;0.4835;0.1610;
157.2000;0.4827;0.1585;
157.5000;0.4884;0.1733;
157.8000;0.4868;0.1634;
158.1000;0.4876;0.1634;
158.4000;0.4835;0.1560;
158.7000;0.4827;0.1560;
159.0000;0.4835;0.1535;
159.3000;0.4843;0.1411;
159.6000;0.4892;0.1610;
159.9000;0.4860;0.1535;
160.2000;0.4868;0.1610;
160.5000;0.4851;0.1560;
160.8000;0.4851;0.1535;
161.1000;0.4851;0.1535;
161.4000;0.4851;0.1436;
161.7000;0.4851;0.1585;
162.0000;0.4835;0.1560;
162.3000;0.4860;0.1535;
162.6000;0.4860;0.1486;
162.9000;0.4868;0.1486;
163.2000;0.4843;0.1461;
163.5000;0.4851;0.1411;
163.8000;0.4868;0.1411;
164.1000;0.4843;0.1337;
164.4000;0.4794;0.1312;
164.7000;0.4868;0.1535;
165.0000;0.4835;0.1535;
165.3000;0.4843;0.1486;
165.6000;0.4843;0.1461;
165.9000;0.4868;0.1535;
166.2000;0.4860;0.1585;
166.5000;0.4860;0.1560;
166.8000;0.4851;0.1511;
167.1000;0.4851;0.1585;
167.4000;0.4876;0.1585;
167.7000;0.4860;0.1535;
168.0000;0.4843;0.1436;
168.3000;0.4851;0.1560;
168.6000;0.4860;0.1585;
168.9000;0.4876;0.1610;
169.2000;0.4860;0.1585;
169.5000;0.4835;0.1585;
169.8000;0.4851;0.1610;
170.1000;0.4851;0.1560;
170.4000;0.4860;0.1560;
170.7000;0.4835;0.1560;
171.0000;0.4843;0.1610;
171.3000;0.4868;0.1585;
171.6000;0.4835;0.1486;
171.9000;0.4835;0.1535;
172.2000;0.4843;0.1535;
172.5000;0.4835;0.1535;
172.8000;0.4819;0.1486;
173.1000;0.4860;0.1486;
173.4000;0.4843;0.1461;
173.7000;0.4811;0.1436;
174.0000;0.4860;0.1535;
174.3000;0.4835;0.1535;
174.6000;0.4835;0.1486;
174.9000;0.4827;0.1411;
175.2000;0.4786;0.1312;
175.5000;0.4843;0.1511;
175.8000;0.4827;0.1511;
176.1000;0.4819;0.1411;
176.4000;0.4884;0.1560;
176.7000;0.4786;0.1312;
177.0000;0.4884;0.1610;
177.3000;0.4868;0.1560;
177.6000;0.4868;0.1610;
177.9000;0.4851;0.1535;
178.2000;0.4843;0.1585;
178.5000;0.4876;0.1659;
178.8000;0.4803;0.1436;
179.1000;0.4876;0.1585;
179.4000;0.4843;0.1486;
179.7000;0.4860;0.1560;
180.0000;0.4860;0.1535;
180.3000;0.4843;0.1560;
180.6000;0.4851;0.1486;
180.9000;0.4819;0.1511;
181.2000;0.4843;0.1560;
181.5000;0.4851;0.1560;
181.8000;0.4851;0.1486;
182.1000;0.4851;0.1436;
182.4000;0.4843;0.1411;
182.7000;0.4851;0.1411;
183.0000;0.4835;0.1263;
183.3000;0.4851;0.1387;
183.6000;0.4835;0.1362;
183.9000;0.4851;0.1461;
184.2000;0.4860;0.1511;
184.5000;0.4868;0.1511;
184.8000;0.4843;0.1511;
185.1000;0.4843;0.1535;
185.4000;0.4868;0.1585;
185.7000;0.4827;0.1486;
186.0000;0.4851;0.1560;
186.3000;0.4835;0.1511;
186.6000;0.4851;0.1511;
186.9000;0.4860;0.1461;
187.2000;0.4851;0.1511;
187.5000;0.4851;0.1486;
187.8000;0.4851;0.1535;
188.1000;0.4851;0.1411;
188.4000;0.4843;0.1461;
188.7000;0.4851;0.1461;
189.0000;0.4868;0.1511;
189.3000;0.4868;0.1511;
189.6000;0.4843;0.1511;
189.9000;0.4827;0.1411;
190.2000;0.4843;0.1486;
190.5000;0.4843;0.1436;
190.8000;0.4843;0.1486;
191.1000;0.4835;0.1511;
191.4000;0.4843;0.1436;
191.7000;0.4876;0.1511;
192.0000;0.4843;0.1486;
192.3000;0.4851;0.1535;
192.6000;0.4835;0.1535;
192.9000;0.4843;0.1610;
193.2000;0.4835;0.1610;
193.5000;0.4843;0.1634;
193.8000;0.4851;0.1659;
194.1000;0.4843;0.1659;
194.4000;0.4860;0.1758;
194.7000;0.4843;0.1684;
195.0000;0.4843;0.1684;
195.3000;0.4860;0.1733;
195.6000;0.4827;0.1684;
195.9000;0.4851;0.1684;
196.2000;0.4851;0.1733;
196.5000;0.4827;0.1758;
196.8000;0.4851;0.1733;
197.1000;0.4868;0.1709;
197.4000;0.4843;0.1659;
197.7000;0.4868;0.1684;
198.0000;0.4843;0.1684;
198.3000;0.4860;0.1733;
198.6000;0.4892;0.1931;
198.9000;0.4811;0.1783;
199.2000;0.4827;0.1758;
199.5000;0.4843;0.1783;
199.8000;0.4819;0.1783;
200.1000;0.4860;0.1956;
200.4000;0.4860;0.1832;
200.7000;0.4900;0.1907;
201.0000;0.4835;0.1758;
201.3000;0.4860;0.1882;
201.6000;0.4827;0.1709;
201.9000;0.4803;0.1585;
202.2000;0.4851;0.1634;
202.5000;0.4843;0.1535;
202.8000;0.4835;0.1560;
203.1000;0.4843;0.1610;
203.4000;0.4843;0.1634;
203.7000;0.4860;0.1659;
204.0000;0.4860;0.1634;
204.3000;0.4835;0.1659;
204.6000;0.4835;0.1610;
204.9000;0.4843;0.1610;
205.2000;0.4851;0.1684;
205.5000;0.4819;0.1634;
205.8000;0.4860;0.1709;
206.1000;0.4860;0.1659;
206.4000;0.4851;0.1634;
206.7000;0.4778;0.1411;
207.0000;0.4843;0.1535;
207.3000;0.4843;0.1535;
207.6000;0.4835;0.1486;
207.9000;0.4851;0.1461;
208.2000;0.4835;0.1461;
208.5000;0.4843;0.1511;
208.8000;0.4843;0.1560;
209.1000;0.4835;0.1585;
209.4000;0.4835;0.1535;
209.7000;0.4851;0.1684;
210.0000;0.4851;0.1709;
210.3000;0.4851;0.1758;
210.6000;0.4843;0.1758;
210.9000;0.4794;0.1585;
211.2000;0.4851;0.1808;
211.5000;0.4843;0.1808;
211.8000;0.4860;0.1758;
212.1000;0.4803;0.1585;
212.4000;0.4778;0.1560;
212.7000;0.4851;0.1783;
213.0000;0.4851;0.1857;
213.3000;0.4860;0.1832;
213.6000;0.4811;0.1684;
213.9000;0.4843;0.1709;
214.2000;0.4835;0.1560;
214.5000;0.4778;0.1362;
214.8000;0.4851;0.1560;
215.1000;0.4811;0.1461;
215.4000;0.4884;0.1733;
215.7000;0.4843;0.1610;
216.0000;0.4843;0.1634;
216.3000;0.4860;0.1659;
216.6000;0.4860;0.1560;
216.9000;0.4835;0.1560;
217.2000;0.4811;0.1436;
217.5000;0.4860;0.1535;
217.8000;0.4884;0.1585;
218.1000;0.4908;0.1709;
218.4000;0.4835;0.1585;
218.7000;0.4876;0.1659;
219.0000;0.4860;0.1684;
219.3000;0.4876;0.1634;
219.6000;0.4851;0.1560;
219.9000;0.4843;0.1486;
220.2000;0.4843;0.1436;
220.5000;0.4819;0.1411;
220.8000;0.4827;0.1411;
221.1000;0.4786;0.1337;
221.4000;0.4860;0.1585;
221.7000;0.4851;0.1610;
222.0000;0.4843;0.1634;
222.3000;0.4892;0.1758;
222.6000;0.4843;0.1659;
222.9000;0.4851;0.1659;
223.2000;0.4835;0.1709;
223.5000;0.4835;0.1610;
223.8000;0.4811;0.1535;
224.1000;0.4851;0.1511;
224.4000;0.4843;0.1560;
224.7000;0.4843;0.1461;
225.0000;0.4811;0.1461;
225.3000;0.4835;0.1560;
225.6000;0.4851;0.1659;
225.9000;0.4835;0.1560;
226.2000;0.4851;0.1486;
226.5000;0.4851;0.1585;
226.8000;0.4843;0.1733;
227.1000;0.4843;0.1808;
227.4000;0.4851;0.1758;
227.7000;0.4835;0.1808;
228.0000;0.4835;0.1758;
228.3000;0.4860;0.1882;
228.6000;0.4827;0.1733;
228.9000;0.4851;0.1659;
229.2000;0.4843;0.1634;
229.5000;0.4851;0.1486;
229.8000;0.4851;0.1511;
230.1000;0.4827;0.1411;
230.4000;0.4835;0.1461;
230.7000;0.4835;0.1560;
231.0000;0.4835;0.1486;
231.3000;0.4860;0.1610;
231.6000;0.4892;0.1634;
231.9000;0.4868;0.1560;
232.2000;0.4860;0.1535;
232.5000;0.4860;0.1560;
232.8000;0.4860;0.1634;
233.1000;0.4868;0.1634;
233.4000;0.4868;0.1659;
233.7000;0.4851;0.1634;
234.0000;0.4835;0.1610;
234.3000;0.4851;0.1709;
234.6000;0.4843;0.1733;
234.9000;0.4860;0.1783;
235.2000;0.4851;0.1659;
235.5000;0.4827;0.1585;
235.8000;0.4827;0.1535;
236.1000;0.4827;0.1486;
236.4000;0.4786;0.1312;
236.7000;0.4819;0.1337;
237.0000;0.4876;0.1535;
237.3000;0.4925;0.1634;
237.6000;0.4835;0.1461;
237.9000;0.4827;0.1461;
238.2000;0.4851;0.1486;
238.5000;0.4860;0.1486;
238.8000;0.4843;0.1436;
239.1000;0.4819;0.1312;
239.4000;0.4819;0.1288;
239.7000;0.4835;0.1337;
240.0000;0.4851;0.1337;
240.3000;0.4835;0.1362;
240.6000;0.4827;0.1164;
240.9000;0.4851;0.1189;
241.2000;0.4843;0.1213;
241.5000;0.4843;0.1387;
241.8000;0.4843;0.1362;
242.1000;0.4835;0.1436;
242.4000;0.4868;0.1362;
242.7000;0.4860;0.1362;
243.0000;0.4851;0.1362;
243.3000;0.4851;0.1461;
243.6000;0.4868;0.1486;
243.9000;0.4851;0.1486;
244.2000;0.4860;0.1486;
244.5000;0.4843;0.1461;
244.8000;0.4819;0.1387;
245.1000;0.4851;0.1486;
245.4000;0.4860;0.1461;
245.7000;0.4860;0.1461;
246.0000;0.4827;0.1436;
246.3000;0.4851;0.1585;
246.6000;0.4843;0.1659;
246.9000;0.4819;0.1585;
247.2000;0.4851;0.1585;
247.5000;0.4843;0.1535;
247.8000;0.4843;0.1585;
248.1000;0.4835;0.1684;
248.4000;0.4843;0.1758;
248.7000;0.4843;0.1808;
249.0000;0.4827;0.1733;
249.3000;0.4835;0.1634;
249.6000;0.4843;0.1585;
249.9000;0.4851;0.1560;
250.2000;0.4851;0.1535;
250.5000;0.4835;0.1585;
250.8000;0.4843;0.1610;
251.1000;0.4835;0.1610;
251.4000;0.4843;0.1585;
251.7000;0.4835;0.1511;
252.0000;0.4835;0.1511;
252.3000;0.4860;0.1610;
252.6000;0.4851;0.1709;
252.9000;0.4835;0.1684;
253.2000;0.4851;0.1783;
253.5000;0.4843;0.1684;
253.8000;0.4835;0.1733;
254.1000;0.4860;0.1808;
254.4000;0.4851;0.1783;
254.7000;0.4868;0.1832;
255.0000;0.4819;0.1659;
255.3000;0.4860;0.1783;
255.6000;0.4835;0.1783;
255.9000;0.4819;0.1634;
256.2000;0.4803;0.1659;
256.5000;0.4851;0.1808;
256.8000;0.4811;0.1610;
257.1000;0.4860;0.1733;
257.4000;0.4835;0.1560;
257.7000;0.4884;0.1709;
258.0000;0.4851;0.1634;
258.3000;0.4835;0.1659;
258.6000;0.4827;0.1585;
258.9000;0.4827;0.1535;
259.2000;0.4843;0.1610;
259.5000;0.4843;0.1610;
259.8000;0.4794;0.1411;
260.1000;0.4851;0.1634;
260.4000;0.4843;0.1634;
260.7000;0.4843;0.1486;
261.0000;0.4892;0.1709;
261.3000;0.4851;0.1659;
261.6000;0.4860;0.1733;
261.9000;0.4851;0.1733;
262.2000;0.4843;0.1659;
262.5000;0.4851;0.1709;
262.8000;0.4851;0.1659;
263.1000;0.4843;0.1684;
263.4000;0.4827;0.1659;
263.7000;0.4835;0.1808;
264.0000;0.4827;0.1832;
264.3000;0.4843;0.1956;
264.6000;0.4851;0.1832;
264.9000;0.4835;0.1783;
265.2000;0.4827;0.1684;
265.5000;0.4835;0.1634;
265.8000;0.4851;0.1634;
266.1000;0.4835;0.1585;
266.4000;0.4811;0.1511;
266.7000;0.4851;0.1560;
267.0000;0.4876;0.1659;
267.3000;0.4819;0.1535;
267.6000;0.4835;0.1560;
267.9000;0.4843;0.1634;
268.2000;0.4835;0.1610;
268.5000;0.4843;0.1585;
268.8000;0.4835;0.1634;
269.1000;0.4851;0.1758;
269.4000;0.4851;0.1783;
269.7000;0.4851;0.1783;
270.0000;0.4851;0.1659;
270.3000;0.4851;0.1659;
270.6000;0.4851;0.1659;
270.9000;0.4794;0.1511;
271.2000;0.4851;0.1634;
271.5000;0.4835;0.1610;
271.8000;0.4868;0.1634;
272.1000;0.4851;0.1709;
272.4000;0.4835;0.1610;
272.7000;0.4835;0.1585;
273.0000;0.4746;0.1387;
273.3000;0.4835;0.1535;
273.6000;0.4835;0.1511;
273.9000;0.4835;0.1411;
274.2000;0.4811;0.1362;
274.5000;0.4819;0.1436;
274.8000;0.4835;0.1511;
275.1000;0.4819;0.1436;
275.4000;0.4803;0.1411;
275.7000;0.4860;0.1560;
276.0000;0.4803;0.1511;
276.3000;0.4843;0.1585;
276.6000;0.4835;0.1535;
276.9000;0.4892;0.1709;
277.2000;0.4843;0.1634;
277.5000;0.4868;0.1610;
277.8000;0.4843;0.1511;
278.1000;0.4860;0.1486;
278.4000;0.4843;0.1436;
278.7000;0.4843;0.1535;
279.0000;0.4851;0.1610;
279.3000;0.4835;0.1511;
279.6000;0.4851;0.1610;
279.9000;0.4843;0.1610;
280.2000;0.4835;0.1585;
280.5000;0.4851;0.1511;
280.8000;0.4843;0.1511;
281.1000;0.4860;0.1511;
281.4000;0.4908;0.1758;
281.7000;0.4851;0.1659;
282.0000;0.4851;0.1709;
282.3000;0.4811;0.1659;
282.6000;0.4843;0.1733;
282.9000;0.4835;0.1709;
283.2000;0.4851;0.1610;
283.5000;0.4835;0.1684;
283.8000;0.4835;0.1758;
284.1000;0.4843;0.1659;
284.4000;0.4843;0.1585;
284.7000;0.4835;0.1585;
285.0000;0.4827;0.1585;
285.3000;0.4835;0.1535;
285.6000;0.4835;0.1461;
285.9000;0.4835;0.1486;
286.2000;0.4843;0.1560;
286.5000;0.4835;0.1511;
286.8000;0.4827;0.1634;
287.1000;0.4835;0.1733;
287.4000;0.4819;0.1709;
287.7000;0.4835;0.1684;
288.0000;0.4835;0.1758;
288.3000;0.4835;0.1783;
288.6000;0.4843;0.1832;
288.9000;0.4843;0.1832;
289.2000;0.4843;0.1783;
289.5000;0.4835;0.1808;
289.8000;0.4843;0.1832;
290.1000;0.4835;0.1832;
290.4000;0.4835;0.1857;
290.7000;0.4851;0.1857;
291.0000;0.4835;0.1882;
291.3000;0.4835;0.1808;
291.6000;0.4843;0.1832;
291.9000;0.4868;0.1857;
292.2000;0.4851;0.1832;
292.5000;0.4843;0.1808;
292.8000;0.4851;0.1832;
293.1000;0.4876;0.1857;
293.4000;0.4843;0.1709;
293.7000;0.4851;0.1684;
294.0000;0.4794;0.1610;
294.3000;0.4843;0.1758;
294.6000;0.4860;0.1733;
294.9000;0.4860;0.1709;
295.2000;0.4860;0.1659;
295.5000;0.4941;0.1931;
295.8000;0.4729;0.1411;
296.1000;0.4851;0.1758;
296.4000;0.4851;0.1733;
296.7000;0.4827;0.1684;
297.0000;0.4851;0.1684;
297.3000;0.4851;0.1634;
297.6000;0.4819;0.1511;
297.9000;0.4925;0.1832;
298.2000;0.4851;0.1684;
298.5000;0.4835;0.1634;
298.8000;0.4876;0.1709;
299.1000;0.4851;0.1684;
299.4000;0.4868;0.1733;
299.7000;0.4843;0.1709;
300.0000;0.4843;0.1758;
300.3000;0.4851;0.1783;
300.6000;0.4851;0.1783;
300.9000;0.4843;0.1783;
301.2000;0.4843;0.1709;
301.5000;0.4843;0.1758;
301.8000;0.4860;0.1783;
302.1000;0.4835;0.1733;
302.4000;0.4827;0.1659;
302.7000;0.4835;0.1709;
303.0000;0.4843;0.1783;
303.3000;0.4843;0.1758;
303.6000;0.4851;0.1758;
303.9000;0.4851;0.1808;
304.2000;0.4835;0.1857;
304.5000;0.4860;0.1956;
304.8000;0.4843;0.1907;
305.1000;0.4843;0.1857;
305.4000;0.4811;0.1808;
305.7000;0.4860;0.1882;
306.0000;0.4860;0.1832;
306.3000;0.4835;0.1808;
306.6000;0.4835;0.1733;
306.9000;0.4851;0.1758;
307.2000;0.4811;0.1709;
307.5000;0.4851;0.1808;
307.8000;0.4851;0.1758;
308.1000;0.4835;0.1808;
308.4000;0.4827;0.1808;
308.7000;0.4835;0.1832;
309.0000;0.4827;0.1733;
309.3000;0.4876;0.1758;
309.6000;0.4860;0.1783;
309.9000;0.4860;0.1808;
310.2000;0.4843;0.1758;
310.5000;0.4803;0.1709;
310.8000;0.4843;0.1882;
311.1000;0.4900;0.2080;
311.4000;0.4843;0.1907;
311.7000;0.4843;0.1931;
312.0000;0.4827;0.1907;
312.3000;0.4803;0.1783;
312.6000;0.4827;0.1832;
312.9000;0.4737;0.1560;
313.2000;0.4835;0.1733;
313.5000;0.4819;0.1709;
313.8000;0.4827;0.1733;
314.1000;0.4835;0.1808;
314.4000;0.4843;0.1709;
314.7000;0.4843;0.1684;
315.0000;0.4851;0.1634;
315.3000;0.4860;0.1709;
315.6000;0.4835;0.1758;
315.9000;0.4843;0.1832;
316.2000;0.4851;0.1832;
316.5000;0.4876;0.1907;
316.8000;0.4827;0.1783;
317.1000;0.4843;0.1882;
317.4000;0.4843;0.1882;
317.7000;0.4843;0.1832;
318.0000;0.4843;0.1758;
318.3000;0.4827;0.1634;
318.6000;0.4835;0.1585;
318.9000;0.4876;0.1610;
319.2000;0.4843;0.1535;
319.5000;0.4851;0.1585;
319.8000;0.4860;0.1659;
320.1000;0.4843;0.1560;
320.4000;0.4851;0.1610;
320.7000;0.4835;0.1585;
321.0000;0.4827;0.1585;
321.3000;0.4860;0.1659;
321.6000;0.4835;0.1560;
321.9000;0.4803;0.1511;
322.2000;0.4827;0.1535;
322.5000;0.4835;0.1659;
322.8000;0.4843;0.1709;
323.1000;0.4819;0.1610;
323.4000;0.4819;0.1461;
323.7000;0.4819;0.1486;
324.0000;0.4827;0.1560;
324.3000;0.4811;0.1461;
324.6000;0.4851;0.1486;
324.9000;0.4843;0.1610;
325.2000;0.4835;0.1610;
325.5000;0.4835;0.1585;
325.8000;0.4827;0.1560;
326.1000;0.4835;0.1610;
326.4000;0.4819;0.1535;
326.7000;0.4851;0.1634;
327.0000;0.4908;0.1684;
327.3000;0.4843;0.1511;
327.6000;0.4843;0.1560;
327.9000;0.4835;0.1610;
328.2000;0.4811;0.1535;
328.5000;0.4835;0.1560;
328.8000;0.4851;0.1585;
329.1000;0.4835;0.1610;
329.4000;0.4835;0.1486;
329.7000;0.4843;0.1486;
330.0000;0.4851;0.1535;
330.3000;0.4843;0.1560;
330.6000;0.4811;0.1486;
330.9000;0.4835;0.1585;
331.2000;0.4811;0.1511;
331.5000;0.4827;0.1634;
331.8000;0.4851;0.1610;
332.1000;0.4835;0.1585;
332.4000;0.4843;0.1684;
332.7000;0.4851;0.1733;
333.0000;0.4851;0.1733;
333.3000;0.4835;0.1709;
333.6000;0.4884;0.1808;
333.9000;0.4827;0.1659;
334.2000;0.4851;0.1684;
334.5000;0.4827;0.1610;
334.8000;0.4835;0.1610;
335.1000;0.4851;0.1684;
335.4000;0.4843;0.1684;
335.7000;0.4843;0.1684;
336.0000;0.4835;0.1610;
336.3000;0.4835;0.1659;
336.6000;0.4843;0.1709;
336.9000;0.4860;0.1634;
337.2000;0.4835;0.1659;
337.5000;0.4843;0.1610;
337.8000;0.4843;0.1585;
338.1000;0.4827;0.1610;
338.4000;0.4827;0.1560;
338.7000;0.4843;0.1461;
339.0000;0.4827;0.1436;
339.3000;0.4892;0.1610;
339.6000;0.4868;0.1486;
339.9000;0.4843;0.1411;
340.2000;0.4835;0.1511;
340.5000;0.4803;0.1436;
340.8000;0.4786;0.1387;
341.1000;0.4827;0.1436;
341.4000;0.4843;0.1436;
341.7000;0.4868;0.1511;
342.0000;0.4827;0.1436;
342.3000;0.4851;0.1461;
342.6000;0.4835;0.1312;
342.9000;0.4851;0.1362;
343.2000;0.4835;0.1337;
343.5000;0.4851;0.1387;
343.8000;0.4835;0.1312;
344.1000;0.4794;0.1238;
344.4000;0.4860;0.1337;
344.7000;0.4843;0.1213;
345.0000;0.4827;0.1288;
345.3000;0.4835;0.1213;
345.6000;0.4827;0.1189;
345.9000;0.4884;0.1288;
346.2000;0.4843;0.1238;
346.5000;0.4860;0.1362;
346.8000;0.4786;0.1114;
347.1000;0.4851;0.1288;
347.4000;0.4843;0.1238;
347.7000;0.4843;0.1189;
348.0000;0.4851;0.1263;
348.3000;0.4843;0.1263;
348.6000;0.4835;0.1288;
348.9000;0.4843;0.1288;
349.2000;0.4827;0.1164;
349.5000;0.4835;0.1139;
349.8000;0.4843;0.1139;
350.1000;0.4811;0.1090;
350.4000;0.4835;0.1139;
350.7000;0.4843;0.1189;
351.0000;0.4827;0.1189;
351.3000;0.4900;0.1411;
351.6000;0.4827;0.1238;
351.9000;0.4827;0.1263;
352.2000;0.4860;0.1337;
352.5000;0.4835;0.1387;
352.8000;0.4827;0.1486;
353.1000;0.4827;0.1436;
353.4000;0.4827;0.1337;
353.7000;0.4843;0.1436;
354.0000;0.4746;0.1263;
354.3000;0.4835;0.1486;
354.6000;0.4851;0.1436;
354.9000;0.4843;0.1436;
355.2000;0.4827;0.1486;
355.5000;0.4827;0.1436;
355.8000;0.4827;0.1461;
356.1000;0.4843;0.1511;
356.4000;0.4835;0.1535;
356.7000;0.4819;0.1511;
357.0000;0.4835;0.1535;
357.3000;0.4835;0.1585;
357.6000;0.4851;0.1634;
357.9000;0.4892;0.1783;
358.2000;0.4843;0.1585;
358.5000;0.4835;0.1511;
358.8000;0.4851;0.1560;
359.1000;0.4851;0.1659;
359.4000;0.4843;0.1634;
359.7000;0.4851;0.1684;
360.0000;0.4843;0.1659;
360.3000;0.4843;0.1659;
360.6000;0.4851;0.1610;
360.9000;0.4835;0.1659;
361.2000;0.4835;0.1560;
361.5000;0.4892;0.1758;
361.8000;0.4843;0.1684;
362.1000;0.4827;0.1659;
362.4000;0.4835;0.1684;
362.7000;0.4827;0.1684;
363.0000;0.4835;0.1733;
363.3000;0.4827;0.1684;
363.6000;0.4835;0.1709;
363.9000;0.4835;0.1709;
364.2000;0.4827;0.1659;
364.5000;0.4843;0.1659;
364.8000;0.4851;0.1684;
365.1000;0.4851;0.1733;
365.4000;0.4835;0.1684;
365.7000;0.4843;0.1733;
366.0000;0.4835;0.1733;
366.3000;0.4884;0.1907;
366.6000;0.4827;0.1733;
366.9000;0.4819;0.1684;
367.2000;0.4819;0.1610;
367.5000;0.4835;0.1585;
367.8000;0.4827;0.1560;
368.1000;0.4827;0.1585;
368.4000;0.4811;0.1659;
368.7000;0.4827;0.1733;
369.0000;0.4754;0.1535;
369.3000;0.4827;0.1733;
369.6000;0.4860;0.1857;
369.9000;0.4819;0.1783;
370.2000;0.4819;0.1634;
370.5000;0.4851;0.1684;
370.8000;0.4827;0.1585;
371.1000;0.4746;0.1362;
371.4000;0.4851;0.1684;
371.7000;0.4835;0.1709;
372.0000;0.4835;0.1610;
372.3000;0.4851;0.1610;
372.6000;0.4843;0.1634;
372.9000;0.4851;0.1684;
373.2000;0.4835;0.1634;
373.5000;0.4827;0.1634;
373.8000;0.4835;0.1560;
374.1000;0.4843;0.1585;
374.4000;0.4900;0.1733;
374.7000;0.4811;0.1461;
375.0000;0.4835;0.1585;
375.3000;0.4843;0.1659;
375.6000;0.4860;0.1758;
375.9000;0.4803;0.1634;
376.2000;0.4843;0.1758;
376.5000;0.4827;0.1709;
376.8000;0.4835;0.1733;
377.1000;0.4843;0.1709;
377.4000;0.4827;0.1610;
377.7000;0.4827;0.1659;
378.0000;0.4843;0.1659;
378.3000;0.4851;0.1659;
378.6000;0.4835;0.1610;
378.9000;0.4843;0.1610;
379.2000;0.4868;0.1709;
379.5000;0.4835;0.1659;
379.8000;0.4835;0.1709;
380.1000;0.4835;0.1709;
380.4000;0.4860;0.1857;
380.7000;0.4843;0.1783;
381.0000;0.4851;0.1783;
381.3000;0.4843;0.1709;
381.6000;0.4835;0.1659;
381.9000;0.4851;0.1684;
382.2000;0.4843;0.1610;
382.5000;0.4827;0.1535;
382.8000;0.4851;0.1560;
383.1000;0.4827;0.1585;
383.4000;0.4835;0.1634;
383.7000;0.4835;0.1585;
384.0000;0.4819;0.1560;
384.3000;0.4827;0.1634;
384.6000;0.4827;0.1610;
384.9000;0.4835;0.1684;
385.2000;0.4835;0.1610;
385.5000;0.4851;0.1634;
385.8000;0.4835;0.1560;
386.1000;0.4827;0.1461;
386.4000;0.4851;0.1486;
386.7000;0.4884;0.1610;
387.0000;0.4860;0.1535;
387.3000;0.4843;0.1535;
387.6000;0.4778;0.1288;
387.9000;0.4892;0.1684;
388.2000;0.4843;0.1560;
388.5000;0.4843;0.1535;
388.8000;0.4876;0.1634;
389.1000;0.4843;0.1560;
389.4000;0.4843;0.1511;
389.7000;0.4843;0.1511;
390.0000;0.4843;0.1535;
390.3000;0.4827;0.1610;
390.6000;0.4835;0.1560;
390.9000;0.4786;0.1436;
391.2000;0.4827;0.1535;
391.5000;0.4835;0.1387;
391.8000;0.4843;0.1387;
392.1000;0.4794;0.1362;
392.4000;0.4835;0.1387;
392.7000;0.4835;0.1461;
393.0000;0.4900;0.1634;
393.3000;0.4835;0.1411;
393.6000;0.4843;0.1362;
393.9000;0.4819;0.1362;
394.2000;0.4819;0.1411;
394.5000;0.4835;0.1362;
394.8000;0.4843;0.1411;
395.1000;0.4835;0.1411;
395.4000;0.4892;0.1486;
395.7000;0.4835;0.1387;
396.0000;0.4827;0.1387;
396.3000;0.4835;0.1337;
396.6000;0.4827;0.1387;
396.9000;0.4819;0.1486;
397.2000;0.4827;0.1511;
397.5000;0.4835;0.1684;
397.8000;0.4835;0.1610;
398.1000;0.4835;0.1634;
398.4000;0.4803;0.1535;
398.7000;0.4827;0.1709;
399.0000;0.4851;0.1684;
399.3000;0.4843;0.1709;
399.6000;0.4835;0.1659;
399.9000;0.4827;0.1610;
400.2000;0.4851;0.1733;
400.5000;0.4835;0.1659;
400.8000;0.4819;0.1511;
401.1000;0.4827;0.1634;
401.4000;0.4843;0.1709;
401.7000;0.4835;0.1709;
402.0000;0.4827;0.1882;
402.3000;0.4843;0.1857;
402.6000;0.4819;0.1808;
402.9000;0.4843;0.1808;
403.2000;0.4868;0.1832;
403.5000;0.4778;0.1511;
403.8000;0.4843;0.1610;
404.1000;0.4843;0.1585;
404.4000;0.4843;0.1610;
404.7000;0.4827;0.1585;
405.0000;0.4860;0.1783;
405.3000;0.4827;0.1758;
405.6000;0.4827;0.1758;
405.9000;0.4835;0.1808;
406.2000;0.4843;0.1758;
406.5000;0.4811;0.1634;
406.8000;0.4827;0.1733;
407.1000;0.4827;0.1758;
407.4000;0.4835;0.1684;
407.7000;0.4843;0.1659;
408.0000;0.4835;0.1709;
408.3000;0.4754;0.1486;
408.6000;0.4835;0.1733;
408.9000;0.4843;0.1659;
409.2000;0.4843;0.1585;
409.5000;0.4835;0.1411;
409.8000;0.4827;0.1486;
410.1000;0.4827;0.1486;
410.4000;0.4827;0.1511;
410.7000;0.4835;0.1486;
411.0000;0.4786;0.1362;
411.3000;0.4819;0.1436;
411.6000;0.4778;0.1288;
411.9000;0.4811;0.1511;
412.2000;0.4819;0.1560;
412.5000;0.4835;0.1585;
412.8000;0.4811;0.1486;
413.1000;0.4884;0.1709;
413.4000;0.4827;0.1610;
413.7000;0.4843;0.1659;
414.0000;0.4843;0.1535;
414.3000;0.4860;0.1610;
414.6000;0.4827;0.1535;
414.9000;0.4843;0.1610;
415.2000;0.4843;0.1560;
415.5000;0.4851;0.1659;
415.8000;0.4835;0.1634;
416.1000;0.4811;0.1560;
416.4000;0.4827;0.1610;
416.7000;0.4827;0.1634;
417.0000;0.4843;0.1684;
417.3000;0.4827;0.1684;
417.6000;0.4835;0.1634;
417.9000;0.4827;0.1684;
418.2000;0.4843;0.1634;
418.5000;0.4827;0.1684;
418.8000;0.4851;0.1783;
419.1000;0.4811;0.1684;
419.4000;0.4835;0.1709;
419.7000;0.4843;0.1659;
420.0000;0.4851;0.1684;
420.3000;0.4835;0.1733;
420.6000;0.4835;0.1733;
420.9000;0.4803;0.1733;
421.2000;0.4827;0.1733;
421.5000;0.4827;0.1709;
421.8000;0.4835;0.1709;
422.1000;0.4786;0.1535;
422.4000;0.4892;0.1808;
422.7000;0.4843;0.1634;
423.0000;0.4835;0.1684;
423.3000;0.4835;0.1733;
423.6000;0.4835;0.1709;
423.9000;0.4835;0.1659;
424.2000;0.4843;0.1709;
424.5000;0.4851;0.1733;
424.8000;0.4851;0.1709;
425.1000;0.4803;0.1783;
425.4000;0.4892;0.2080;
425.7000;0.4843;0.1931;
426.0000;0.4819;0.1783;
426.3000;0.4835;0.1808;
426.6000;0.4843;0.1907;
426.9000;0.4851;0.1857;
427.2000;0.4794;0.1659;
427.5000;0.4835;0.1733;
427.8000;0.4843;0.1758;
428.1000;0.4835;0.1684;
428.4000;0.4843;0.1733;
428.7000;0.4851;0.1684;
429.0000;0.4827;0.1535;
429.3000;0.4835;0.1560;
429.6000;0.4835;0.1610;
429.9000;0.4868;0.1709;
430.2000;0.4827;0.1709;
430.5000;0.4819;0.1709;
430.8000;0.4794;0.1659;
431.1000;0.4843;0.1783;
431.4000;0.4827;0.1758;
431.7000;0.4827;0.1709;
432.0000;0.4835;0.1709;
432.3000;0.4843;0.1733;
432.6000;0.4843;0.1783;
432.9000;0.4819;0.1733;
433.2000;0.4835;0.1709;
433.5000;0.4803;0.1610;
433.8000;0.4835;0.1659;
434.1000;0.4843;0.1610;
434.4000;0.4827;0.1585;
434.7000;0.4811;0.1634;
435.0000;0.4835;0.1684;
435.3000;0.4843;0.1709;
435.6000;0.4754;0.1461;
435.9000;0.4811;0.1560;
436.2000;0.4843;0.1634;
436.5000;0.4835;0.1634;
436.8000;0.4827;0.1733;
437.1000;0.4827;0.1733;
437.4000;0.4835;0.1684;
437.7000;0.4851;0.1610;
438.0000;0.4843;0.1486;
438.3000;0.4851;0.1560;
438.6000;0.4827;0.1511;
438.9000;0.4860;0.1486;
439.2000;0.4843;0.1436;
439.5000;0.4843;0.1387;
439.8000;0.4843;0.1362;
440.1000;0.4843;0.1436;
440.4000;0.4860;0.1486;
440.7000;0.4835;0.1486;
441.0000;0.4843;0.1585;
441.3000;0.4843;0.1560;
441.6000;0.4876;0.1709;
441.9000;0.4827;0.1634;
442.2000;0.4819;0.1585;
442.5000;0.4835;0.1610;
442.8000;0.4835;0.1610;
443.1000;0.4892;0.1808;
443.4000;0.4827;0.1634;
443.7000;0.4811;0.1684;
444.0000;0.4811;0.1634;
444.3000;0.4827;0.1684;
444.6000;0.4835;0.1733;
444.9000;0.4843;0.1758;
445.2000;0.4917;0.2031;
445.5000;0.4827;0.1808;
445.8000;0.4827;0.1783;
446.1000;0.4884;0.1931;
446.4000;0.4827;0.1857;
446.7000;0.4868;0.1882;
447.0000;0.4827;0.1733;
447.3000;0.4835;0.1634;
447.6000;0.4835;0.1585;
447.9000;0.4851;0.1560;
448.2000;0.4827;0.1461;
448.5000;0.4819;0.1461;
448.8000;0.4811;0.1411;
449.1000;0.4835;0.1560;
449.4000;0.4827;0.1535;
449.7000;0.4843;0.1585;
450.0000;0.4827;0.1585;
450.3000;0.4827;0.1535;
450.6000;0.4803;0.1362;
450.9000;0.4827;0.1511;
451.2000;0.4827;0.1461;
451.5000;0.4827;0.1486;
451.8000;0.4860;0.1535;
452.1000;0.4843;0.1535;
452.4000;0.4868;0.1535;
452.7000;0.4851;0.1461;
453.0000;0.4835;0.1411;
453.3000;0.4868;0.1461;
453.6000;0.4843;0.1411;
453.9000;0.4827;0.1461;
454.2000;0.4827;0.1585;
454.5000;0.4925;0.1907;
454.8000;0.4843;0.1709;
455.1000;0.4827;0.1684;
455.4000;0.4843;0.1610;
455.7000;0.4827;0.1610;
456.0000;0.4819;0.1535;
456.3000;0.4851;0.1535;
456.6000;0.4827;0.1511;
456.9000;0.4835;0.1535;
457.2000;0.4843;0.1511;
457.5000;0.4835;0.1535;
457.8000;0.4843;0.1585;
458.1000;0.4868;0.1659;
458.4000;0.4843;0.1585;
458.7000;0.4843;0.1535;
459.0000;0.4819;0.1511;
459.3000;0.4819;0.1461;
459.6000;0.4835;0.1535;
459.9000;0.4851;0.1634;
460.2000;0.4868;0.1709;
460.5000;0.4811;0.1535;
460.8000;0.4835;0.1535;
461.1000;0.4843;0.1585;
461.4000;0.4835;0.1560;
461.7000;0.4843;0.1634;
462.0000;0.4851;0.1610;
462.3000;0.4851;0.1511;
462.6000;0.4819;0.1411;
462.9000;0.4835;0.1436;
463.2000;0.4843;0.1535;
463.5000;0.4835;0.1560;
463.8000;0.4835;0.1610;
464.1000;0.4835;0.1610;
464.4000;0.4843;0.1659;
464.7000;0.4860;0.1610;
465.0000;0.4843;0.1511;
465.3000;0.4762;0.1387;
465.6000;0.4827;0.1535;
465.9000;0.4835;0.1560;
466.2000;0.4819;0.1535;
466.5000;0.4819;0.1560;
466.8000;0.4811;0.1585;
467.1000;0.4794;0.1585;
467.4000;0.4835;0.1684;
467.7000;0.4819;0.1560;
468.0000;0.4827;0.1560;
468.3000;0.4786;0.1387;
468.6000;0.4835;0.1560;
468.9000;0.4892;0.1709;
469.2000;0.4778;0.1535;
469.5000;0.4835;0.1560;
469.8000;0.4868;0.1634;
470.1000;0.4835;0.1634;
470.4000;0.4843;0.1758;
470.7000;0.4811;0.1733;
471.0000;0.4827;0.1783;
471.3000;0.4860;0.1832;
471.6000;0.4819;0.1783;
471.9000;0.4827;0.1733;
472.2000;0.4835;0.1808;
472.5000;0.4843;0.1857;
472.8000;0.4835;0.1808;
473.1000;0.4811;0.1758;
473.4000;0.4827;0.1832;
473.7000;0.4835;0.1783;
474.0000;0.4835;0.1882;
474.3000;0.4843;0.1832;
474.6000;0.4819;0.1783;
474.9000;0.4803;0.1634;
475.2000;0.4827;0.1758;
475.5000;0.4835;0.1684;
475.8000;0.4835;0.1709;
476.1000;0.4827;0.1733;
476.4000;0.4843;0.1733;
476.7000;0.4827;0.1733;
477.0000;0.4835;0.1709;
477.3000;0.4827;0.1758;
477.6000;0.4827;0.1733;
477.9000;0.4835;0.1709;
478.2000;0.4843;0.1659;
478.5000;0.4835;0.1659;
478.8000;0.4778;0.1560;
479.1000;0.4811;0.1709;
479.4000;0.4803;0.1733;
479.7000;0.4835;0.1808;
480.0000;0.4851;0.1882;
480.3000;0.4827;0.1882;
480.6000;0.4827;0.1882;
480.9000;0.4794;0.1758;
481.2000;0.4803;0.1783;
481.5000;0.4827;0.1758;
481.8000;0.4843;0.1808;
482.1000;0.4827;0.1783;
482.4000;0.4827;0.1832;
482.7000;0.4851;0.1882;
483.0000;0.4835;0.1882;
483.3000;0.4827;0.1857;
483.6000;0.4835;0.1832;
483.9000;0.4851;0.1808;
484.2000;0.4827;0.1659;
484.5000;0.4835;0.1709;
484.8000;0.4835;0.1684;
485.1000;0.4884;0.1808;
485.4000;0.4843;0.1709;
485.7000;0.4835;0.1733;
486.0000;0.4835;0.1709;
486.3000;0.4851;0.1684;
486.6000;0.4843;0.1659;
486.9000;0.4811;0.1535;
487.2000;0.4827;0.1634;
487.5000;0.4843;0.1659;
487.8000;0.4827;0.1610;
488.1000;0.4827;0.1585;
488.4000;0.4843;0.1659;
488.7000;0.4827;0.1610;
489.0000;0.4884;0.1758;
489.3000;0.4827;0.1709;
489.6000;0.4835;0.1709;
489.9000;0.4827;0.1684;
490.2000;0.4819;0.1634;
490.5000;0.4827;0.1585;
490.8000;0.4827;0.1535;
491.1000;0.4803;0.1461;
491.4000;0.4819;0.1436;
491.7000;0.4835;0.1486;
492.0000;0.4843;0.1585;
492.3000;0.4835;0.1634;
492.6000;0.4819;0.1486;
492.9000;0.4835;0.1486;
493.2000;0.4819;0.1511;
493.5000;0.4827;0.1511;
493.8000;0.4843;0.1535;
494.1000;0.4835;0.1411;
494.4000;0.4835;0.1436;
494.7000;0.4835;0.1461;
495.0000;0.4835;0.1486;
495.3000;0.4827;0.1511;
495.6000;0.4835;0.1535;
495.9000;0.4851;0.1610;
496.2000;0.4843;0.1560;
496.5000;0.4827;0.1634;
496.8000;0.4778;0.1560;
497.1000;0.4827;0.1684;
497.4000;0.4835;0.1684;
497.7000;0.4835;0.1684;
498.0000;0.4827;0.1634;
498.3000;0.4827;0.1659;
498.6000;0.4835;0.1709;
498.9000;0.4827;0.1709;
499.2000;0.4811;0.1634;
499.5000;0.4835;0.1758;
499.8000;0.4819;0.1808;
500.1000;0.4827;0.1808;
500.4000;0.4884;0.2006;
500.7000;0.4819;0.1832;
501.0000;0.4819;0.1733;
501.3000;0.4762;0.1585;
501.6000;0.4835;0.1634;
501.9000;0.4819;0.1610;
502.2000;0.4819;0.1634;
502.5000;0.4843;0.1585;
502.8000;0.4819;0.1535;
503.1000;0.4827;0.1486;
503.4000;0.4843;0.1511;
503.7000;0.4843;0.1585;
504.0000;0.4786;0.1411;
504.3000;0.4827;0.1585;
504.6000;0.4851;0.1610;
504.9000;0.4827;0.1684;
505.2000;0.4835;0.1733;
505.5000;0.4819;0.1709;
505.8000;0.4835;0.1733;
506.1000;0.4835;0.1808;
506.4000;0.4843;0.1832;
506.7000;0.4835;0.1882;
507.0000;0.4884;0.2031;
507.3000;0.4819;0.1907;
507.6000;0.4827;0.1882;
507.9000;0.4868;0.1931;
508.2000;0.4819;0.1857;
508.5000;0.4835;0.1857;
508.8000;0.4835;0.1907;
509.1000;0.4786;0.1709;
509.4000;0.4835;0.1882;
509.7000;0.4819;0.1857;
510.0000;0.4819;0.1857;
510.3000;0.4835;0.1832;
510.6000;0.4811;0.1857;
510.9000;0.4843;0.2006;
511.2000;0.4892;0.2080;
511.5000;0.4827;0.1832;
511.8000;0.4811;0.1857;
512.1000;0.4860;0.1981;
512.4000;0.4827;0.1931;
512.7000;0.4827;0.1882;
513.0000;0.4811;0.1808;
513.3000;0.4827;0.1857;
513.6000;0.4819;0.1931;
513.9000;0.4827;0.1931;
514.2000;0.4835;0.1931;
514.5000;0.4827;0.1931;
514.8000;0.4819;0.1882;
515.1000;0.4827;0.1783;
515.4000;0.4835;0.1758;
515.7000;0.4827;0.1758;
516.0000;0.4811;0.1709;
516.3000;0.4803;0.1684;
516.6000;0.4746;0.1610;
516.9000;0.4827;0.1882;
517.2000;0.4794;0.1783;
517.5000;0.4860;0.1857;
517.8000;0.4835;0.1857;
518.1000;0.4835;0.1931;
518.4000;0.4876;0.1956;
518.7000;0.4827;0.1808;
519.0000;0.4835;0.1857;
519.3000;0.4843;0.1808;
519.6000;0.4835;0.1857;
519.9000;0.4819;0.1882;
520.2000;0.4835;0.1783;
520.5000;0.4884;0.1907;
520.8000;0.4819;0.1783;
521.1000;0.4835;0.1808;
521.4000;0.4843;0.1857;
521.7000;0.4794;0.1709;
522.0000;0.4835;0.1808;
522.3000;0.4851;0.1832;
522.6000;0.4827;0.1882;
522.9000;0.4851;0.1832;
523.2000;0.4843;0.1758;
523.5000;0.4746;0.1387;
523.8000;0.4827;0.1733;
524.1000;0.4827;0.1758;
524.4000;0.4843;0.1733;
524.7000;0.4827;0.1684;
525.0000;0.4835;0.1610;
525.3000;0.4835;0.1585;
525.6000;0.4876;0.1684;
525.9000;0.4819;0.1535;
526.2000;0.4819;0.1511;
526.5000;0.4843;0.1634;
526.8000;0.4876;0.1659;
527.1000;0.4843;0.1560;
527.4000;0.4835;0.1535;
527.7000;0.4819;0.1535;
528.0000;0.4868;0.1709;
528.3000;0.4843;0.1659;
528.6000;0.4835;0.1733;
528.9000;0.4835;0.1758;
529.2000;0.4827;0.1857;
529.5000;0.4835;0.1783;
529.8000;0.4827;0.1733;
530.1000;0.4827;0.1733;
530.4000;0.4827;0.1758;
530.7000;0.4843;0.1783;
531.0000;0.4843;0.1832;
531.3000;0.4835;0.1882;
531.6000;0.4827;0.1882;
531.9000;0.4868;0.1981;
532.2000;0.4827;0.1882;
532.5000;0.4851;0.1882;
532.8000;0.4827;0.1857;
533.1000;0.4868;0.1931;
533.4000;0.4835;0.1931;
533.7000;0.4819;0.1907;
534.0000;0.4819;0.1832;
534.3000;0.4835;0.1931;
534.6000;0.4827;0.1956;
534.9000;0.4876;0.2179;
535.2000;0.4778;0.1907;
535.5000;0.4819;0.1931;
535.8000;0.4819;0.1956;
536.1000;0.4827;0.1931;
536.4000;0.4794;0.1882;
536.7000;0.4819;0.1882;
537.0000;0.4827;0.1931;
537.3000;0.4819;0.1907;
537.6000;0.4835;0.1981;
537.9000;0.4819;0.1857;
538.2000;0.4819;0.1882;
538.5000;0.4835;0.1882;
538.8000;0.4819;0.1907;
539.1000;0.4827;0.1931;
539.4000;0.4835;0.1857;
539.7000;0.4835;0.1907;
540.0000;0.4786;0.1808;
540.3000;0.4827;0.1808;
540.6000;0.4819;0.1857;
540.9000;0.4819;0.1808;
541.2000;0.4835;0.1783;
541.5000;0.4851;0.1808;
541.8000;0.4835;0.1758;
542.1000;0.4811;0.1659;
542.4000;0.4827;0.1634;
542.7000;0.4811;0.1634;
543.0000;0.4827;0.1634;
543.3000;0.4803;0.1610;
543.6000;0.4794;0.1560;
543.9000;0.4746;0.1461;
544.2000;0.4811;0.1684;
544.5000;0.4794;0.1684;
544.8000;0.4843;0.1808;
545.1000;0.4835;0.1832;
545.4000;0.4827;0.1832;
545.7000;0.4851;0.1832;
546.0000;0.4843;0.1783;
546.3000;0.4851;0.1733;
546.6000;0.4843;0.1684;
546.9000;0.4803;0.1659;
547.2000;0.4843;0.1758;
547.5000;0.4892;0.1956;
547.8000;0.4827;0.1758;
548.1000;0.4819;0.1758;
548.4000;0.4827;0.1857;
548.7000;0.4819;0.1907;
549.0000;0.4827;0.1882;
549.3000;0.4778;0.1783;
549.6000;0.4819;0.1783;
549.9000;0.4835;0.1783;
550.2000;0.4827;0.1832;
550.5000;0.4835;0.1808;
550.8000;0.4827;0.1758;
551.1000;0.4827;0.1857;
551.4000;0.4851;0.1857;
551.7000;0.4835;0.1709;
552.0000;0.4835;0.1709;
552.3000;0.4827;0.1659;
552.6000;0.4778;0.1486;
552.9000;0.4827;0.1659;
553.2000;0.4827;0.1634;
553.5000;0.4778;0.1511;
553.8000;0.4843;0.1634;
554.1000;0.4835;0.1733;
554.4000;0.4762;0.1486;
554.7000;0.4819;0.1684;
555.0000;0.4843;0.1832;
555.3000;0.4860;0.1857;
555.6000;0.4835;0.1882;
555.9000;0.4835;0.1882;
556.2000;0.4819;0.1907;
556.5000;0.4819;0.1832;
556.8000;0.4819;0.1808;
557.1000;0.4843;0.1832;
557.4000;0.4827;0.1709;
557.7000;0.4835;0.1709;
558.0000;0.4835;0.1709;
558.3000;0.4737;0.1511;
558.6000;0.4819;0.1684;
558.9000;0.4876;0.1857;
559.2000;0.4876;0.1808;
559.5000;0.4803;0.1585;
559.8000;0.4827;0.1610;
560.1000;0.4819;0.1535;
560.4000;0.4827;0.1585;
560.7000;0.4843;0.1709;
561.0000;0.4835;0.1709;
561.3000;0.4827;0.1709;
561.6000;0.4786;0.1535;
561.9000;0.4835;0.1610;
562.2000;0.4827;0.1560;
562.5000;0.4835;0.1585;
562.8000;0.4843;0.1610;
563.1000;0.4835;0.1535;
563.4000;0.4819;0.1511;
563.7000;0.4827;0.1535;
564.0000;0.4843;0.1610;
564.3000;0.4827;0.1535;
564.6000;0.4819;0.1535;
564.9000;0.4876;0.1659;
565.2000;0.4754;0.1411;
565.5000;0.4811;0.1461;
565.8000;0.4843;0.1535;
566.1000;0.4786;0.1288;
566.4000;0.4811;0.1362;
566.7000;0.4835;0.1436;
567.0000;0.4884;0.1634;
567.3000;0.4827;0.1560;
567.6000;0.4811;0.1560;
567.9000;0.4843;0.1733;
568.2000;0.4835;0.1783;
568.5000;0.4835;0.1659;
568.8000;0.4827;0.1783;
569.1000;0.4835;0.1709;
569.4000;0.4835;0.1733;
569.7000;0.4835;0.1733;
570.0000;0.4811;0.1709;
570.3000;0.4827;0.1783;
570.6000;0.4843;0.1832;
570.9000;0.4843;0.1907;
571.2000;0.4835;0.1882;
571.5000;0.4843;0.1981;
571.8000;0.4827;0.1907;
572.1000;0.4851;0.1882;
572.4000;0.4827;0.1832;
572.7000;0.4835;0.1832;
573.0000;0.4819;0.1783;
573.3000;0.4835;0.1733;
573.6000;0.4827;0.1758;
573.9000;0.4827;0.1659;
574.2000;0.4819;0.1684;
574.5000;0.4827;0.1733;
574.8000;0.4892;0.1907;
575.1000;0.4827;0.1758;
575.4000;0.4811;0.1659;
575.7000;0.4819;0.1634;
576.0000;0.4827;0.1634;
576.3000;0.4819;0.1659;
576.6000;0.4819;0.1659;
576.9000;0.4819;0.1733;
577.2000;0.4843;0.1684;
577.5000;0.4827;0.1610;
577.8000;0.4803;0.1585;
578.1000;0.4811;0.1585;
578.4000;0.4819;0.1659;
578.7000;0.4827;0.1659;
579.0000;0.4811;0.1560;
579.3000;0.4811;0.1511;
579.6000;0.4860;0.1610;
579.9000;0.4778;0.1436;
580.2000;0.4843;0.1684;
580.5000;0.4884;0.1758;
580.8000;0.4827;0.1610;
581.1000;0.4819;0.1684;
581.4000;0.4786;0.1659;
581.7000;0.4843;0.1808;
582.0000;0.4803;0.1783;
582.3000;0.4819;0.1931;
582.6000;0.4835;0.1956;
582.9000;0.4811;0.1882;
583.2000;0.4827;0.1832;
583.5000;0.4819;0.1783;
583.8000;0.4843;0.1783;
584.1000;0.4827;0.1709;
584.4000;0.4819;0.1560;
584.7000;0.4851;0.1634;
585.0000;0.4827;0.1585;
585.3000;0.4835;0.1585;
585.6000;0.4835;0.1634;
585.9000;0.4835;0.1684;
586.2000;0.4786;0.1634;
586.5000;0.4835;0.1758;
586.8000;0.4811;0.1684;
587.1000;0.4803;0.1610;
587.4000;0.4827;0.1733;
587.7000;0.4851;0.1684;
588.0000;0.4819;0.1709;
588.3000;0.4819;0.1709;
588.6000;0.4819;0.1659;
588.9000;0.4868;0.1684;
589.2000;0.4819;0.1585;
589.5000;0.4819;0.1535;
589.8000;0.4803;0.1486;
590.1000;0.4843;0.1634;
590.4000;0.4835;0.1709;
590.7000;0.4835;0.1684;
591.0000;0.4819;0.1535;
591.3000;0.4827;0.1610;
591.6000;0.4835;0.1585;
591.9000;0.4827;0.1560;
592.2000;0.4819;0.1585;
592.5000;0.4811;0.1535;
592.8000;0.4827;0.1535;
593.1000;0.4835;0.1560;
593.4000;0.4811;0.1560;
593.7000;0.4819;0.1585;
594.0000;0.4835;0.1560;
594.3000;0.4811;0.1486;
594.6000;0.4835;0.1461;
594.9000;0.4900;0.1634;
595.2000;0.4827;0.1511;
595.5000;0.4835;0.1486;
595.8000;0.4843;0.1461;
596.1000;0.4827;0.1486;
596.4000;0.4827;0.1535;
596.7000;0.4827;0.1560;
597.0000;0.4819;0.1610;
597.3000;0.4835;0.1684;
597.6000;0.4827;0.1783;
597.9000;0.4827;0.1733;
598.2000;0.4811;0.1709;
598.5000;0.4811;0.1610;
598.8000;0.4851;0.1634;
599.1000;0.4811;0.1560;
599.4000;0.4827;0.1560;
599.7000;0.4811;0.1511;
600.0000;0.4819;0.1511;
600.3000;0.4819;0.1461;
600.6000;0.4843;0.1461;
600.9000;0.4835;0.1337;
601.2000;0.4811;0.1213;
601.5000;0.4778;0.1065;
601.8000;0.4746;0.0916;
602.1000;0.4746;0.0891;
602.4000;0.4705;0.0817;
602.7000;0.4656;0.0768;
603.0000;0.4632;0.0718;
603.3000;0.4632;0.0644;
603.6000;0.4607;0.0644;
603.9000;0.4575;0.0644;
604.2000;0.4583;0.0792;
604.5000;0.4550;0.0619;
604.8000;0.4526;0.0570;
605.1000;0.4510;0.0470;
605.4000;0.4493;0.0495;
605.7000;0.4469;0.0470;
606.0000;0.4477;0.0396;
606.3000;0.4428;0.0347;
606.6000;0.4420;0.0272;
606.9000;0.4428;0.0322;
607.2000;0.4396;0.0272;
607.5000;0.4379;0.0297;
607.8000;0.4371;0.0297;
608.1000;0.4355;0.0322;
608.4000;0.4322;0.0272;
608.7000;0.4314;0.0248;
609.0000;0.4322;0.0297;
609.3000;0.4314;0.0173;
609.6000;0.4298;0.0198;
609.9000;0.4265;0.0050;
610.2000;0.4257;0.0025;
610.5000;0.4257;-0.0050;
610.8000;0.4265;-0.0025;
611.1000;0.4249;-0.0099;
611.4000;0.4225;-0.0198;
611.7000;0.4241;-0.0198;
612.0000;0.4217;-0.0198;
612.3000;0.4217;-0.0173;
612.6000;0.4192;-0.0074;
612.9000;0.4176;-0.0099;
613.2000;0.4176;-0.0074;
613.5000;0.4168;-0.0173;
613.8000;0.4160;-0.0124;
614.1000;0.4135;-0.0149;
614.4000;0.4143;-0.0099;
614.7000;0.4127;-0.0124;
615.0000;0.4135;-0.0050;
615.3000;0.4127;-0.0099;
615.6000;0.4103;-0.0124;
615.9000;0.4111;-0.0050;
616.2000;0.4103;-0.0099;
616.5000;0.4086;-0.0198;
616.8000;0.4078;-0.0124;
617.1000;0.4086;-0.0074;
617.4000;0.4086;0.0025;
617.7000;0.4078;-0.0074;
618.0000;0.4070;-0.0025;
618.3000;0.4062;0.0050;
618.6000;0.4046;-0.0025;
618.9000;0.4054;-0.0050;
619.2000;0.4037;-0.0124;
619.5000;0.4013;-0.0074;
619.8000;0.3997;-0.0099;
620.1000;0.3997;-0.0149;
620.4000;0.3989;-0.0149;
620.7000;0.3989;-0.0099;
621.0000;0.3980;-0.0124;
621.3000;0.3980;-0.0074;
621.6000;0.3972;-0.0025;
621.9000;0.3972;0.0050;
622.2000;0.3964;0.0223;
622.5000;0.3948;0.0198;
622.8000;0.3964;0.0248;
623.1000;0.3940;0.0198;
623.4000;0.3923;0.0124;
623.7000;0.3915;0.0025;
624.0000;0.3891;0.0000;
624.3000;0.3899;-0.0050;
624.6000;0.3883;-0.0149;
624.9000;0.3875;-0.0272;
625.2000;0.3899;-0.0248;
625.5000;0.3899;-0.0272;
625.8000;0.3875;-0.0223;
626.1000;0.3875;-0.0173;
626.4000;0.3875;-0.0149;
626.7000;0.3875;-0.0074;
627.0000;0.3867;-0.0025;
627.3000;0.3858;-0.0149;
627.6000;0.3875;-0.0124;
627.9000;0.3867;-0.0173;
628.2000;0.3858;-0.0198;
628.5000;0.3777;-0.0297;
628.8000;0.3842;-0.0025;
629.1000;0.3826;0.0000;
629.4000;0.3850;0.0149;
629.7000;0.3818;0.0149;
630.0000;0.3818;0.0074;
630.3000;0.3826;0.0099;
630.6000;0.3810;0.0074;
630.9000;0.3785;0.0050;
631.2000;0.3826;0.0099;
631.5000;0.3801;0.0050;
631.8000;0.3785;0.0000;
632.1000;0.3793;-0.0050;
632.4000;0.3785;-0.0149;
632.7000;0.3753;-0.0223;
633.0000;0.3777;-0.0050;
633.3000;0.3761;-0.0074;
633.6000;0.3761;-0.0074;
633.9000;0.3777;-0.0025;
634.2000;0.3801;0.0050;
634.5000;0.3736;-0.0074;
634.8000;0.3753;-0.0099;
635.1000;0.3744;-0.0050;
635.4000;0.3712;-0.0025;
635.7000;0.3728;0.0000;
636.0000;0.3720;0.0050;
636.3000;0.3679;0.0000;
636.6000;0.3712;0.0050;
636.9000;0.3777;0.0223;
637.2000;0.3639;-0.0099;
637.5000;0.3720;0.0099;
637.8000;0.3687;0.0000;
638.1000;0.3720;0.0050;
638.4000;0.3712;0.0025;
638.7000;0.3687;-0.0050;
639.0000;0.3687;-0.0223;
639.3000;0.3647;-0.0223;
639.6000;0.3687;-0.0149;
639.9000;0.3679;-0.0074;
640.2000;0.3655;-0.0248;
640.5000;0.3663;-0.0272;
640.8000;0.3663;-0.0297;
641.1000;0.3655;-0.0322;
641.4000;0.3639;-0.0322;
641.7000;0.3639;-0.0198;
642.0000;0.3663;-0.0099;
642.3000;0.3630;-0.0074;
642.6000;0.3622;-0.0099;
642.9000;0.3630;-0.0050;
643.2000;0.3647;-0.0223;
643.5000;0.3663;-0.0173;
643.8000;0.3630;-0.0297;
644.1000;0.3622;-0.0272;
644.4000;0.3598;-0.0297;
644.7000;0.3622;-0.0223;
645.0000;0.3614;-0.0223;
645.3000;0.3606;-0.0371;
645.6000;0.3606;-0.0322;
645.9000;0.3606;-0.0297;
646.2000;0.3590;-0.0371;
646.5000;0.3565;-0.0272;
646.8000;0.3590;-0.0149;
647.1000;0.3622;0.0000;
647.4000;0.3590;-0.0074;
647.7000;0.3565;-0.0124;
648.0000;0.3590;-0.0025;
648.3000;0.3582;-0.0025;
648.6000;0.3582;-0.0050;
648.9000;0.3565;-0.0124;
649.2000;0.3541;-0.0149;
649.5000;0.3582;-0.0173;
649.8000;0.3582;-0.0149;
650.1000;0.3639;-0.0050;
650.4000;0.3549;-0.0421;
650.7000;0.3557;-0.0421;
651.0000;0.3573;-0.0396;
651.3000;0.3516;-0.0396;
651.6000;0.3557;-0.0248;
651.9000;0.3468;-0.0396;
652.2000;0.3549;-0.0099;
652.5000;0.3541;-0.0074;
652.8000;0.3541;-0.0074;
653.1000;0.3614;0.0025;
653.4000;0.3525;-0.0198;
653.7000;0.3549;-0.0124;
654.0000;0.3541;-0.0124;
654.3000;0.3525;-0.0149;
654.6000;0.3525;-0.0025;
654.9000;0.3460;-0.0173;
655.2000;0.3516;0.0000;
655.5000;0.3508;-0.0025;
655.8000;0.3492;-0.0074;
656.1000;0.3516;-0.0149;
656.4000;0.3525;-0.0198;
656.7000;0.3525;-0.0099;
657.0000;0.3468;-0.0173;
657.3000;0.3516;-0.0124;
657.6000;0.3476;-0.0272;
657.9000;0.3500;-0.0198;
658.2000;0.3516;-0.0149;
658.5000;0.3492;-0.0173;
658.8000;0.3492;-0.0149;
659.1000;0.3460;-0.0198;
659.4000;0.3443;-0.0347;
659.7000;0.3476;-0.0223;
660.0000;0.3484;-0.0248;
660.3000;0.3435;-0.0371;
660.6000;0.3451;-0.0396;
660.9000;0.3443;-0.0421;
661.2000;0.3492;-0.0347;
661.5000;0.3476;-0.0272;
661.8000;0.3460;-0.0297;
662.1000;0.3451;-0.0248;
662.4000;0.3451;-0.0198;
662.7000;0.3476;-0.0149;
663.0000;0.3460;-0.0149;
663.3000;0.3403;-0.0297;
663.6000;0.3460;-0.0198;
663.9000;0.3451;-0.0272;
664.2000;0.3468;-0.0272;
664.5000;0.3443;-0.0347;
664.8000;0.3443;-0.0396;
665.1000;0.3443;-0.0347;
665.4000;0.3443;-0.0297;
665.7000;0.3468;-0.0297;
666.0000;0.3394;-0.0520;
666.3000;0.3443;-0.0347;
666.6000;0.3435;-0.0198;
666.9000;0.3443;-0.0223;
667.2000;0.3427;-0.0272;
667.5000;0.3443;-0.0223;
667.8000;0.3427;-0.0173;
668.1000;0.3443;-0.0198;
668.4000;0.3419;-0.0223;
668.7000;0.3419;-0.0371;
669.0000;0.3411;-0.0421;
669.3000;0.3427;-0.0421;
669.6000;0.3419;-0.0347;
669.9000;0.3403;-0.0446;
670.2000;0.3419;-0.0396;
670.5000;0.3411;-0.0396;
670.8000;0.3337;-0.0570;
671.1000;0.3435;-0.0248;
671.4000;0.3403;-0.0248;
671.7000;0.3411;-0.0198;
672.0000;0.3427;-0.0173;
672.3000;0.3394;-0.0248;
672.6000;0.3451;-0.0074;
672.9000;0.3386;-0.0198;
673.2000;0.3419;-0.0248;
673.5000;0.3419;-0.0223;
673.8000;0.3394;-0.0272;
674.1000;0.3378;-0.0223;
674.4000;0.3403;-0.0149;
674.7000;0.3386;-0.0198;
675.0000;0.3419;-0.0149;
675.3000;0.3378;-0.0198;
675.6000;0.3378;-0.0272;
675.9000;0.3370;-0.0371;
676.2000;0.3386;-0.0297;
676.5000;0.3362;-0.0371;
676.8000;0.3370;-0.0322;
677.1000;0.3378;-0.0297;
677.4000;0.3378;-0.0248;
677.7000;0.3362;-0.0297;
678.0000;0.3378;-0.0223;
678.3000;0.3386;-0.0297;
678.6000;0.3370;-0.0272;
678.9000;0.3313;-0.0297;
679.2000;0.3378;-0.0124;
679.5000;0.3354;-0.0198;
679.8000;0.3370;-0.0297;
680.1000;0.3354;-0.0347;
680.4000;0.3305;-0.0495;
680.7000;0.3297;-0.0495;
681.0000;0.3346;-0.0371;
681.3000;0.3329;-0.0421;
681.6000;0.3329;-0.0371;
681.9000;0.3362;-0.0322;
682.2000;0.3346;-0.0223;
682.5000;0.3329;-0.0297;
682.8000;0.3362;-0.0198;
683.1000;0.3337;-0.0248;
683.4000;0.3321;-0.0297;
683.7000;0.3346;-0.0248;
684.0000;0.3329;-0.0322;
684.3000;0.3386;-0.0124;
684.6000;0.3337;-0.0248;
684.9000;0.3329;-0.0297;
685.2000;0.3370;-0.0248;
685.5000;0.3305;-0.0347;
685.8000;0.3354;-0.0173;
686.1000;0.3346;-0.0099;
686.4000;0.3321;-0.0198;
686.7000;0.3321;-0.0272;
687.0000;0.3346;-0.0198;
687.3000;0.3329;-0.0198;
687.6000;0.3329;-0.0198;
687.9000;0.3337;-0.0173;
688.2000;0.3354;-0.0149;
688.5000;0.3346;-0.0198;
688.8000;0.3337;-0.0173;
689.1000;0.3354;-0.0223;
689.4000;0.3321;-0.0248;
689.7000;0.3329;-0.0248;
690.0000;0.3289;-0.0297;
690.3000;0.3297;-0.0223;
690.6000;0.3313;-0.0248;
690.9000;0.3305;-0.0297;
691.2000;0.3289;-0.0347;
691.5000;0.3272;-0.0272;
691.8000;0.3297;-0.0297;
692.1000;0.3313;-0.0223;
692.4000;0.3313;-0.0297;
692.7000;0.3321;-0.0371;
693.0000;0.3264;-0.0520;
693.3000;0.3272;-0.0446;
693.6000;0.3289;-0.0520;
693.9000;0.3264;-0.0545;
694.2000;0.3289;-0.0421;
694.5000;0.3305;-0.0347;
694.8000;0.3346;-0.0198;
695.1000;0.3280;-0.0297;
695.4000;0.3378;-0.0074;
695.7000;0.3297;-0.0272;
696.0000;0.3362;-0.0124;
696.3000;0.3386;-0.0099;
696.6000;0.3297;-0.0272;
696.9000;0.3386;-0.0074;
697.2000;0.3329;-0.0173;
697.5000;0.3297;-0.0272;
697.8000;0.3297;-0.0223;
698.1000;0.3329;-0.0149;
698.4000;0.3248;-0.0421;
698.7000;0.3289;-0.0173;
699.0000;0.3264;-0.0149;
699.3000;0.3272;-0.0198;
699.6000;0.3280;-0.0297;
699.9000;0.3297;-0.0223;
700.2000;0.3289;-0.0124;
700.5000;0.3297;-0.0025;
700.8000;0.3272;-0.0124;
701.1000;0.3272;-0.0074;
701.4000;0.3289;-0.0025;
701.7000;0.3272;0.0000;
702.0000;0.3272;-0.0025;
702.3000;0.3272;0.0025;
702.6000;0.3272;0.0025;
702.9000;0.3248;-0.0050;
703.2000;0.3289;-0.0025;
703.5000;0.3264;-0.0223;
703.8000;0.3223;-0.0223;
704.1000;0.3256;-0.0149;
704.4000;0.3289;-0.0149;
704.7000;0.3272;-0.0248;
705.0000;0.3272;-0.0173;
705.3000;0.3321;-0.0050;
705.6000;0.3264;-0.0173;
705.9000;0.3280;-0.0050;
706.2000;0.3264;-0.0074;
706.5000;0.3264;-0.0099;
706.8000;0.3272;-0.0124;
707.1000;0.3248;-0.0099;
707.4000;0.3297;0.0050;
707.7000;0.3256;-0.0099;
708.0000;0.3256;-0.0099;
708.3000;0.3264;-0.0099;
708.6000;0.3272;-0.0124;
708.9000;0.3280;-0.0074;
709.2000;0.3264;-0.0198;
709.5000;0.3240;-0.0223;
709.8000;0.3256;-0.0198;
710.1000;0.3264;-0.0223;
710.4000;0.3256;-0.0198;
710.7000;0.3256;-0.0198;
711.0000;0.3256;-0.0198;
711.3000;0.3248;-0.0272;
711.6000;0.3240;-0.0297;
711.9000;0.3248;-0.0322;
712.2000;0.3183;-0.0421;
712.5000;0.3240;-0.0347;
712.8000;0.3240;-0.0297;
713.1000;0.3248;-0.0223;
713.4000;0.3232;-0.0272;
713.7000;0.3232;-0.0248;
714.0000;0.3240;-0.0198;
714.3000;0.3248;-0.0223;
714.6000;0.3232;-0.0272;
714.9000;0.3313;-0.0074;
715.2000;0.3264;-0.0173;
715.5000;0.3223;-0.0297;
715.8000;0.3240;-0.0248;
716.1000;0.3207;-0.0297;
716.4000;0.3215;-0.0272;
716.7000;0.3223;-0.0248;
717.0000;0.3232;-0.0248;
717.3000;0.3207;-0.0198;
717.6000;0.3215;-0.0198;
717.9000;0.3256;-0.0124;
718.2000;0.3232;-0.0074;
718.5000;0.3223;-0.0025;
718.8000;0.3232;0.0000;
719.1000;0.3232;-0.0074;
719.4000;0.3215;0.0000;
719.7000;0.3223;-0.0050;
720.0000;0.3166;-0.0149;
720.3000;0.3248;0.0050;
720.6000;0.3223;-0.0050;
720.9000;0.3272;0.0074;
721.2000;0.3215;0.0000;
721.5000;0.3223;-0.0124;
721.8000;0.3223;-0.0198;
722.1000;0.3199;-0.0198;
722.4000;0.3215;-0.0223;
722.7000;0.3240;-0.0149;
723.0000;0.3215;-0.0223;
723.3000;0.3223;-0.0198;
723.6000;0.3199;-0.0173;
723.9000;0.3199;-0.0149;
724.2000;0.3215;-0.0074;
724.5000;0.3183;-0.0272;
724.8000;0.3191;-0.0198;
725.1000;0.3199;-0.0149;
725.4000;0.3248;-0.0099;
725.7000;0.3223;-0.0050;
726.0000;0.3215;0.0000;
726.3000;0.3199;0.0025;
726.6000;0.3207;0.0074;
726.9000;0.3215;-0.0050;
727.2000;0.3223;-0.0050;
727.5000;0.3207;0.0025;
727.8000;0.3199;-0.0025;
728.1000;0.3207;-0.0173;
728.4000;0.3199;-0.0173;
728.7000;0.3223;-0.0099;
729.0000;0.3199;-0.0149;
729.3000;0.3215;-0.0124;
729.6000;0.3232;-0.0050;
729.9000;0.3264;-0.0025;
730.2000;0.3240;-0.0025;
730.5000;0.3183;-0.0149;
730.8000;0.3166;-0.0124;
731.1000;0.3223;-0.0025;
731.4000;0.3215;-0.0074;
731.7000;0.3223;-0.0099;
732.0000;0.3191;-0.0124;
732.3000;0.3207;0.0000;
732.6000;0.3207;-0.0025;
732.9000;0.3191;-0.0050;
733.2000;0.3207;-0.0099;
733.5000;0.3150;-0.0149;
733.8000;0.3215;0.0000;
734.1000;0.3207;0.0025;
734.4000;0.3191;0.0000;
734.7000;0.3183;0.0050;
735.0000;0.3207;0.0074;
735.3000;0.3191;0.0074;
735.6000;0.3175;0.0074;
735.9000;0.3199;0.0149;
736.2000;0.3207;0.0149;
736.5000;0.3215;0.0149;
736.8000;0.3166;-0.0050;
737.1000;0.3183;-0.0099;
737.4000;0.3199;-0.0050;
737.7000;0.3207;-0.0074;
738.0000;0.3183;-0.0074;
738.3000;0.3199;-0.0124;
738.6000;0.3191;-0.0173;
738.9000;0.3191;-0.0099;
739.2000;0.3183;-0.0173;
739.5000;0.3183;-0.0272;
739.8000;0.3175;-0.0223;
740.1000;0.3191;-0.0173;
740.4000;0.3175;-0.0198;
740.7000;0.3175;-0.0223;
741.0000;0.3175;-0.0248;
741.3000;0.3150;-0.0223;
741.6000;0.3183;-0.0198;
741.9000;0.3191;-0.0248;
742.2000;0.3191;-0.0173;
742.5000;0.3191;-0.0248;
742.8000;0.3199;-0.0347;
743.1000;0.3183;-0.0396;
743.4000;0.3183;-0.0396;
743.7000;0.3199;-0.0421;
744.0000;0.3191;-0.0470;
744.3000;0.3207;-0.0272;
744.6000;0.3175;-0.0297;
744.9000;0.3183;-0.0322;
745.2000;0.3199;-0.0248;
745.5000;0.3166;-0.0396;
745.8000;0.3158;-0.0421;
746.1000;0.3175;-0.0446;
746.4000;0.3158;-0.0371;
746.7000;0.3183;-0.0248;
747.0000;0.3166;-0.0272;
747.3000;0.3199;-0.0347;
747.6000;0.3166;-0.0322;
747.9000;0.3199;-0.0297;
748.2000;0.3158;-0.0371;
748.5000;0.3101;-0.0545;
748.8000;0.3166;-0.0396;
749.1000;0.3166;-0.0446;
749.4000;0.3183;-0.0396;
749.7000;0.3150;-0.0470;
750.0000;0.3166;-0.0347;
750.3000;0.3142;-0.0347;
750.6000;0.3158;-0.0446;
750.9000;0.3166;-0.0371;
751.2000;0.3158;-0.0322;
751.5000;0.3175;-0.0272;
751.8000;0.3191;-0.0272;
752.1000;0.3158;-0.0272;
752.4000;0.3175;-0.0198;
752.7000;0.3158;-0.0248;
753.0000;0.3183;-0.0198;
753.3000;0.3191;-0.0149;
753.6000;0.3158;-0.0173;
753.9000;0.3126;-0.0173;
754.2000;0.3158;-0.0149;
754.5000;0.3166;-0.0074;
754.8000;0.3175;-0.0099;
755.1000;0.3166;-0.0198;
755.4000;0.3150;-0.0272;
755.7000;0.3272;0.0025;
756.0000;0.3158;-0.0248;
756.3000;0.3109;-0.0322;
756.6000;0.3166;-0.0223;
756.9000;0.3191;-0.0223;
757.2000;0.3158;-0.0347;
757.5000;0.3191;-0.0347;
757.8000;0.3158;-0.0272;
758.1000;0.3166;-0.0322;
758.4000;0.3191;-0.0223;
758.7000;0.3150;-0.0272;
759.0000;0.3183;-0.0074;
759.3000;0.3166;-0.0050;
759.6000;0.3150;-0.0124;
759.9000;0.3158;-0.0124;
760.2000;0.3158;-0.0074;
760.5000;0.3207;0.0050;
760.8000;0.3166;0.0000;
761.1000;0.3207;0.0198;
761.4000;0.3109;-0.0025;
761.7000;0.3142;0.0025;
762.0000;0.3142;0.0099;
762.3000;0.3150;0.0099;
762.6000;0.3085;-0.0074;
762.9000;0.3142;0.0074;
763.2000;0.3142;0.0074;
763.5000;0.3199;0.0198;
763.8000;0.3158;0.0050;
764.1000;0.3150;0.0050;
764.4000;0.3150;0.0074;
764.7000;0.3134;0.0050;
765.0000;0.3215;0.0322;
765.3000;0.3150;0.0074;
765.6000;0.3150;0.0074;
765.9000;0.3166;0.0099;
766.2000;0.3142;0.0124;
766.5000;0.3150;0.0149;
766.8000;0.3150;0.0149;
767.1000;0.3158;0.0173;
767.4000;0.3142;0.0124;
767.7000;0.3142;0.0099;
768.0000;0.3191;0.0173;
768.3000;0.3175;0.0198;
768.6000;0.3150;0.0198;
768.9000;0.3166;0.0223;
769.2000;0.3077;0.0124;
769.5000;0.3126;0.0124;
769.8000;0.3142;0.0074;
770.1000;0.3166;0.0099;
770.4000;0.3134;-0.0050;
770.7000;0.3142;-0.0074;
771.0000;0.3020;-0.0371;
771.3000;0.3126;-0.0025;
771.6000;0.3166;0.0173;
771.9000;0.3158;0.0050;
772.2000;0.3166;0.0074;
772.5000;0.3142;-0.0074;
772.8000;0.3142;-0.0074;
773.1000;0.3134;-0.0050;
773.4000;0.3158;0.0074;
773.7000;0.3150;0.0025;
774.0000;0.3134;-0.0074;
774.3000;0.3126;-0.0099;
774.6000;0.3118;-0.0173;
774.9000;0.3118;-0.0050;
775.2000;0.3166;0.0074;
775.5000;0.3158;0.0074;
775.8000;0.3126;-0.0025;
776.1000;0.3134;0.0099;
776.4000;0.3134;0.0025;
776.7000;0.3158;0.0074;
777.0000;0.3134;0.0198;
777.3000;0.3158;0.0322;
777.6000;0.3134;0.0173;
777.9000;0.3183;0.0173;
778.2000;0.3093;0.0050;
778.5000;0.3134;0.0099;
778.8000;0.3134;0.0050;
779.1000;0.3150;0.0124;
779.4000;0.3166;0.0173;
779.7000;0.3142;-0.0050;
780.0000;0.3109;-0.0124;
780.3000;0.3134;-0.0149;
780.6000;0.3109;-0.0149;
780.9000;0.3126;-0.0124;
781.2000;0.3134;-0.0124;
781.5000;0.3118;-0.0124;
781.8000;0.3134;-0.0025;
782.1000;0.3118;-0.0099;
782.4000;0.3126;-0.0074;
782.7000;0.3085;-0.0124;
783.0000;0.3126;0.0000;
783.3000;0.3118;0.0050;
783.6000;0.3109;0.0050;
783.9000;0.3126;0.0074;
784.2000;0.3101;0.0025;
784.5000;0.3109;0.0025;
784.8000;0.3101;0.0025;
785.1000;0.3118;0.0025;
785.4000;0.3077;-0.0099;
785.7000;0.3118;-0.0025;
786.0000;0.3126;0.0025;
786.3000;0.3109;0.0025;
786.6000;0.3126;0.0050;
786.9000;0.3134;0.0124;
787.2000;0.3118;0.0074;
787.5000;0.3109;0.0074;
787.8000;0.3118;0.0124;
788.1000;0.3126;0.0124;
788.4000;0.3118;0.0124;
788.7000;0.3142;0.0198;
789.0000;0.3101;0.0124;
789.3000;0.3134;0.0124;
789.6000;0.3109;0.0099;
789.9000;0.3109;0.0074;
790.2000;0.3126;0.0074;
790.5000;0.3109;0.0099;
790.8000;0.3118;0.0050;
791.1000;0.3126;0.0099;
791.4000;0.3126;0.0074;
791.7000;0.3118;0.0074;
792.0000;0.3126;0.0149;
792.3000;0.3109;0.0173;
792.6000;0.3101;0.0124;
792.9000;0.3085;0.0099;
793.2000;0.3053;-0.0050;
793.5000;0.3134;0.0149;
793.8000;0.3101;0.0025;
794.1000;0.3134;0.0173;
794.4000;0.3118;0.0124;
794.7000;0.3142;0.0099;
795.0000;0.3126;0.0149;
795.3000;0.3093;0.0074;
795.6000;0.3109;0.0124;
795.9000;0.3109;0.0173;
796.2000;0.3093;0.0198;
796.5000;0.3085;0.0173;
796.8000;0.3109;0.0223;
797.1000;0.3118;0.0198;
797.4000;0.3109;0.0099;
797.7000;0.3109;0.0149;
798.0000;0.3118;0.0074;
798.3000;0.3101;-0.0025;
798.6000;0.3109;0.0000;
798.9000;0.3101;-0.0074;
799.2000;0.3101;-0.0025;
799.5000;0.3109;-0.0050;
799.8000;0.3101;-0.0124;
800.1000;0.3085;-0.0198;
800.4000;0.3093;-0.0099;
800.7000;0.3093;-0.0074;
801.0000;0.3093;-0.0050;
801.3000;0.3093;-0.0050;
801.6000;0.3077;0.0025;
801.9000;0.3093;0.0050;
802.2000;0.3109;0.0074;
802.5000;0.3109;0.0124;
802.8000;0.3085;0.0198;
803.1000;0.3093;0.0173;
803.4000;0.3093;0.0198;
803.7000;0.3118;0.0198;
804.0000;0.3101;0.0124;
804.3000;0.3109;0.0149;
804.6000;0.3101;0.0124;
804.9000;0.3126;0.0074;
805.2000;0.3126;0.0025;
805.5000;0.3093;-0.0025;
805.8000;0.3109;0.0074;
806.1000;0.3093;-0.0025;
806.4000;0.3085;-0.0074;
806.7000;0.3069;-0.0099;
807.0000;0.3085;-0.0025;
807.3000;0.3093;0.0000;
807.6000;0.3085;0.0000;
807.9000;0.3077;-0.0025;
808.2000;0.3053;0.0000;
808.5000;0.3085;0.0099;
808.8000;0.3061;0.0050;
809.1000;0.3183;0.0371;
809.4000;0.3085;0.0025;
809.7000;0.3077;0.0000;
810.0000;0.3077;-0.0124;
810.3000;0.3109;-0.0198;
810.6000;0.3085;-0.0297;
810.9000;0.3069;-0.0421;
811.2000;0.3077;-0.0396;
811.5000;0.3150;-0.0198;
811.8000;0.3085;-0.0248;
812.1000;0.3118;-0.0124;
812.4000;0.3044;-0.0347;
812.7000;0.3093;-0.0074;
813.0000;0.3093;-0.0025;
813.3000;0.3093;-0.0074;
813.6000;0.3126;-0.0025;
813.9000;0.3109;-0.0074;
814.2000;0.3101;-0.0050;
814.5000;0.3101;0.0025;
814.8000;0.3093;0.0050;
815.1000;0.3085;-0.0025;
815.4000;0.3109;-0.0025;
815.7000;0.3085;0.0025;
816.0000;0.3101;0.0025;
816.3000;0.3101;0.0074;
816.6000;0.3020;-0.0124;
816.9000;0.3036;-0.0124;
817.2000;0.3109;-0.0025;
817.5000;0.3085;-0.0099;
817.8000;0.3101;-0.0025;
818.1000;0.3077;-0.0099;
818.4000;0.3085;-0.0074;
818.7000;0.3093;-0.0050;
819.0000;0.3109;0.0000;
819.3000;0.3069;-0.0099;
819.6000;0.3085;-0.0050;
819.9000;0.3077;-0.0025;
820.2000;0.3069;0.0074;
820.5000;0.3093;0.0050;
820.8000;0.3069;0.0050;
821.1000;0.3069;0.0074;
821.4000;0.3069;0.0149;
821.7000;0.3093;0.0173;
822.0000;0.3077;0.0074;
822.3000;0.3101;0.0173;
822.6000;0.3085;0.0099;
822.9000;0.3109;0.0272;
823.2000;0.3101;0.0248;
823.5000;0.3077;0.0149;
823.8000;0.3053;0.0099;
824.1000;0.3085;0.0223;
824.4000;0.3085;0.0198;
824.7000;0.3053;0.0025;
825.0000;0.3093;0.0124;
825.3000;0.3118;0.0149;
825.6000;0.3077;0.0025;
825.9000;0.3142;0.0124;
826.2000;0.3101;0.0124;
826.5000;0.3069;0.0099;
826.8000;0.3126;0.0223;
827.1000;0.3077;0.0149;
827.4000;0.3109;0.0198;
827.7000;0.3077;0.0173;
828.0000;0.3093;0.0149;
828.3000;0.3101;0.0223;
828.6000;0.3069;0.0198;
828.9000;0.3077;0.0124;
829.2000;0.3109;0.0248;
829.5000;0.3093;0.0173;
829.8000;0.3085;0.0223;
830.1000;0.3077;0.0223;
830.4000;0.3069;0.0173;
830.7000;0.3044;0.0099;
831.0000;0.3077;0.0223;
831.3000;0.3101;0.0297;
831.6000;0.3085;0.0272;
831.9000;0.3101;0.0297;
832.2000;0.3077;0.0173;
832.5000;0.3085;0.0124;
832.8000;0.3077;0.0000;
833.1000;0.3061;-0.0074;
833.4000;0.3069;-0.0099;
833.7000;0.3069;-0.0124;
834.0000;0.3069;-0.0099;
834.3000;0.3061;-0.0025;
834.6000;0.3077;-0.0025;
834.9000;0.3077;0.0025;
835.2000;0.3069;0.0025;
835.5000;0.3077;0.0099;
835.8000;0.3069;0.0099;
836.1000;0.3069;0.0099;
836.4000;0.3077;0.0124;
836.7000;0.3093;0.0198;
837.0000;0.3053;0.0074;
837.3000;0.3085;0.0149;
837.6000;0.3061;0.0124;
837.9000;0.3061;0.0074;
838.2000;0.3077;0.0124;
838.5000;0.3093;0.0099;
838.8000;0.3069;0.0099;
839.1000;0.3044;-0.0025;
839.4000;0.3069;0.0025;
839.7000;0.3077;0.0025;
840.0000;0.3069;0.0050;
840.3000;0.3053;-0.0074;
840.6000;0.3069;-0.0099;
840.9000;0.3077;0.0000;
841.2000;0.3020;-0.0248;
841.5000;0.3109;0.0050;
841.8000;0.3069;-0.0124;
842.1000;0.3061;-0.0124;
842.4000;0.3069;-0.0074;
842.7000;0.3085;-0.0025;
843.0000;0.3061;-0.0124;
843.3000;0.3077;-0.0149;
843.6000;0.3085;-0.0074;
843.9000;0.3101;0.0025;
844.2000;0.3053;-0.0050;
844.5000;0.3069;0.0000;
844.8000;0.3093;0.0124;
845.1000;0.3077;0.0025;
845.4000;0.3085;0.0124;
845.7000;0.3069;0.0074;
846.0000;0.3069;0.0074;
846.3000;0.3085;0.0074;
846.6000;0.3069;-0.0025;
846.9000;0.3061;0.0000;
847.2000;0.3061;-0.0074;
847.5000;0.3069;-0.0099;
847.8000;0.3053;-0.0124;
848.1000;0.3069;-0.0149;
848.4000;0.3069;-0.0173;
848.7000;0.3044;-0.0198;
849.0000;0.3061;0.0000;
849.3000;0.3077;-0.0050;
849.6000;0.3053;-0.0074;
849.9000;0.3069;-0.0025;
850.2000;0.2987;-0.0297;
850.5000;0.3093;0.0074;
850.8000;0.3061;0.0124;
851.1000;0.3061;0.0173;
851.4000;0.3069;0.0297;
851.7000;0.3061;0.0198;
852.0000;0.3028;0.0050;
852.3000;0.3061;0.0124;
852.6000;0.3118;0.0223;
852.9000;0.3053;0.0025;
853.2000;0.3077;0.0124;
853.5000;0.3093;0.0149;
853.8000;0.3077;0.0050;
854.1000;0.3053;-0.0050;
854.4000;0.3053;-0.0099;
854.7000;0.3061;-0.0050;
855.0000;0.3061;0.0050;
855.3000;0.3061;0.0050;
855.6000;0.3069;0.0025;
855.9000;0.3061;0.0074;
856.2000;0.3134;0.0272;
856.5000;0.3061;0.0000;
856.8000;0.3053;-0.0025;
857.1000;0.3053;0.0074;
857.4000;0.3053;0.0149;
857.7000;0.3069;0.0173;
858.0000;0.3069;0.0198;
858.3000;0.3109;0.0272;
858.6000;0.3053;0.0099;
858.9000;0.3069;0.0149;
859.2000;0.3069;0.0149;
859.5000;0.3061;0.0025;
859.8000;0.3061;0.0000;
860.1000;0.3053;0.0074;
860.4000;0.3069;0.0074;
860.7000;0.3085;0.0099;
861.0000;0.3061;0.0198;
861.3000;0.3028;0.0099;
861.6000;0.3053;0.0173;
861.9000;0.3077;0.0149;
862.2000;0.3061;0.0124;
862.5000;0.3077;0.0149;
862.8000;0.3085;0.0124;
863.1000;0.3044;0.0149;
863.4000;0.3061;0.0248;
863.7000;0.3077;0.0223;
864.0000;0.3061;0.0198;
864.3000;0.3061;0.0223;
864.6000;0.3093;0.0198;
864.9000;0.3069;0.0074;
865.2000;0.3061;0.0099;
865.5000;0.3061;0.0074;
865.8000;0.3077;0.0025;
866.1000;0.3053;0.0025;
866.4000;0.3069;0.0000;
866.7000;0.3061;-0.0050;
867.0000;0.3053;-0.0025;
867.3000;0.3044;-0.0025;
867.6000;0.3069;0.0000;
867.9000;0.3093;0.0074;
868.2000;0.3061;-0.0025;
868.5000;0.3061;-0.0124;
868.8000;0.3077;-0.0124;
869.1000;0.3053;-0.0099;
869.4000;0.3069;-0.0050;
869.7000;0.3053;-0.0025;
870.0000;0.3053;0.0025;
870.3000;0.3044;-0.0025;
870.6000;0.3044;-0.0025;
870.9000;0.3053;0.0000;
871.2000;0.3053;0.0000;
871.5000;0.3004;-0.0173;
871.8000;0.3044;-0.0099;
872.1000;0.3077;-0.0050;
872.4000;0.3028;-0.0124;
872.7000;0.3004;-0.0198;
873.0000;0.3053;-0.0074;
873.3000;0.3101;0.0050;
873.6000;0.3053;-0.0025;
873.9000;0.3069;0.0000;
874.2000;0.3053;0.0025;
874.5000;0.3158;0.0421;
874.8000;0.3069;0.0198;
875.1000;0.3028;0.0099;
875.4000;0.3061;0.0149;
875.7000;0.3053;0.0124;
876.0000;0.3044;0.0099;
876.3000;0.3166;0.0396;
876.6000;0.3061;0.0025;
876.9000;0.3053;-0.0074;
877.2000;0.3069;-0.0025;
877.5000;0.3069;-0.0074;
877.8000;0.3061;-0.0050;
878.1000;0.3036;0.0000;
878.4000;0.2996;-0.0099;
878.7000;0.3061;0.0124;
879.0000;0.3061;0.0124;
879.3000;0.3053;0.0124;
879.6000;0.3044;0.0124;
879.9000;0.3053;0.0149;
880.2000;0.3036;0.0074;
880.5000;0.3028;0.0074;
880.8000;0.3053;0.0099;
881.1000;0.3061;0.0198;
881.4000;0.3020;0.0000;
881.7000;0.3061;0.0124;
882.0000;0.3069;0.0124;
882.3000;0.3061;0.0198;
882.6000;0.3020;0.0099;
882.9000;0.3004;0.0099;
883.2000;0.3028;0.0272;
883.5000;0.3053;0.0297;
883.8000;0.3077;0.0322;
884.1000;0.3036;0.0198;
884.4000;0.3044;0.0198;
884.7000;0.3044;0.0223;
885.0000;0.3069;0.0272;
885.3000;0.3085;0.0396;
885.6000;0.3053;0.0297;
885.9000;0.3044;0.0173;
886.2000;0.3004;0.0050;
886.5000;0.3053;0.0173;
886.8000;0.3061;0.0173;
887.1000;0.3004;-0.0099;
887.4000;0.3061;0.0025;
887.7000;0.3053;-0.0074;
888.0000;0.3053;-0.0099;
888.3000;0.3036;-0.0124;
888.6000;0.3044;-0.0099;
888.9000;0.3044;-0.0074;
889.2000;0.3028;-0.0099;
889.5000;0.3044;-0.0025;
889.8000;0.3044;-0.0025;
890.1000;0.3044;0.0000;
890.4000;0.3053;0.0074;
890.7000;0.3044;-0.0050;
891.0000;0.3004;-0.0149;
891.3000;0.3061;0.0050;
891.6000;0.3069;0.0099;
891.9000;0.3044;0.0099;
892.2000;0.3036;0.0050;
892.5000;0.3061;-0.0025;
892.8000;0.3020;0.0000;
893.1000;0.3036;0.0149;
893.4000;0.3077;0.0347;
893.7000;0.3053;0.0297;
894.0000;0.3020;0.0173;
894.3000;0.3036;0.0149;
894.6000;0.3053;0.0173;
894.9000;0.3012;0.0099;
895.2000;0.3036;0.0124;
895.5000;0.3012;0.0025;
895.8000;0.3053;-0.0025;
896.1000;0.3044;0.0050;
896.4000;0.3036;0.0050;
896.7000;0.3061;0.0173;
897.0000;0.3036;0.0099;
897.3000;0.3044;-0.0050;
897.6000;0.3053;0.0074;
897.9000;0.3053;0.0074;
898.2000;0.3028;0.0025;
898.5000;0.3061;0.0099;
898.8000;0.3028;-0.0050;
899.1000;0.3036;0.0000;
899.4000;0.3044;0.0000;
899.7000;0.3044;0.0074;
900.0000;0.3028;0.0099;
900.3000;0.3077;0.0124;
900.6000;0.3085;0.0198;
900.9000;0.3061;0.0025;
901.2000;0.3053;0.0000;
901.5000;0.3012;-0.0173;
901.8000;0.3061;-0.0124;
902.1000;0.3061;-0.0050;
902.4000;0.3085;0.0000;
902.7000;0.3134;0.0074;
903.0000;0.3069;-0.0099;
903.3000;0.3044;-0.0149;
903.6000;0.3044;-0.0124;
903.9000;0.3036;-0.0149;
904.2000;0.3028;-0.0099;
904.5000;0.3028;-0.0074;
904.8000;0.3036;-0.0074;
905.1000;0.3036;-0.0074;
905.4000;0.3061;0.0000;
905.7000;0.3036;0.0000;
906.0000;0.3036;-0.0025;
906.3000;0.3036;-0.0025;
906.6000;0.3061;0.0025;
906.9000;0.3109;0.0149;
907.2000;0.3061;0.0025;
907.5000;0.3044;0.0025;
907.8000;0.2971;-0.0198;
908.1000;0.3061;0.0074;
908.4000;0.3053;0.0025;
908.7000;0.3036;-0.0025;
909.0000;0.3109;0.0173;
909.3000;0.3053;0.0050;
909.6000;0.3036;0.0099;
909.9000;0.3028;-0.0025;
910.2000;0.2971;-0.0198;
910.5000;0.3028;0.0050;
910.8000;0.3044;0.0074;
911.1000;0.3053;0.0025;
911.4000;0.3028;0.0025;
911.7000;0.3020;0.0050;
912.0000;0.3101;0.0272;
912.3000;0.3044;0.0050;
912.6000;0.3036;0.0025;
912.9000;0.3036;0.0074;
913.2000;0.3053;0.0124;
913.5000;0.3061;0.0124;
913.8000;0.3053;0.0099;
914.1000;0.3036;0.0099;
914.4000;0.3036;0.0074;
914.7000;0.3044;0.0198;
915.0000;0.3044;0.0149;
915.3000;0.3044;0.0149;
915.6000;0.3036;0.0173;
915.9000;0.3020;0.0124;
916.2000;0.3044;0.0149;
916.5000;0.3044;0.0099;
916.8000;0.3044;0.0074;
917.1000;0.3053;0.0074;
917.4000;0.3044;0.0074;
917.7000;0.3053;0.0149;
918.0000;0.3012;0.0025;
918.3000;0.3004;-0.0025;
918.6000;0.3044;0.0050;
918.9000;0.3053;0.0000;
919.2000;0.3126;0.0198;
919.5000;0.2987;-0.0149;
919.8000;0.3044;-0.0050;
920.1000;0.3012;-0.0025;
920.4000;0.3044;-0.0050;
920.7000;0.3036;0.0000;
921.0000;0.3036;-0.0074;
921.3000;0.3036;-0.0025;
921.6000;0.3036;-0.0074;
921.9000;0.3053;-0.0099;
922.2000;0.3044;-0.0050;
922.5000;0.3077;0.0050;
922.8000;0.3069;-0.0025;
923.1000;0.3053;0.0025;
923.4000;0.3053;0.0099;
923.7000;0.3053;0.0124;
924.0000;0.3061;0.0099;
924.3000;0.3028;0.0025;
924.6000;0.3036;0.0099;
924.9000;0.3028;0.0000;
925.2000;0.3044;-0.0025;
925.5000;0.3036;-0.0099;
925.8000;0.3044;-0.0074;
926.1000;0.2987;-0.0272;
926.4000;0.3044;-0.0149;
926.7000;0.2987;-0.0223;
927.0000;0.3012;-0.0099;
927.3000;0.3028;-0.0074;
927.6000;0.3028;0.0025;
927.9000;0.3044;0.0099;
928.2000;0.3020;0.0000;
928.5000;0.3028;0.0000;
928.8000;0.3053;0.0074;
929.1000;0.3044;0.0149;
929.4000;0.3036;0.0000;
929.7000;0.3036;0.0000;
930.0000;0.3036;-0.0050;
930.3000;0.3044;-0.0074;
930.6000;0.3044;-0.0124;
930.9000;0.3012;-0.0050;
931.2000;0.3036;0.0000;
931.5000;0.3044;0.0000;
931.8000;0.3028;-0.0025;
932.1000;0.3020;-0.0149;
932.4000;0.3020;-0.0173;
932.7000;0.3053;-0.0074;
933.0000;0.3044;-0.0050;
933.3000;0.3044;-0.0099;
933.6000;0.3036;-0.0173;
933.9000;0.3012;-0.0173;
934.2000;0.3069;-0.0149;
934.5000;0.3061;-0.0173;
934.8000;0.3053;-0.0248;
935.1000;0.3036;-0.0198;
935.4000;0.3044;-0.0173;
935.7000;0.3036;-0.0173;
936.0000;0.3044;-0.0272;
936.3000;0.3044;-0.0272;
936.6000;0.3061;-0.0248;
936.9000;0.3036;-0.0124;
937.2000;0.3028;-0.0173;
937.5000;0.3020;-0.0149;
937.8000;0.3036;-0.0074;
938.1000;0.3036;0.0050;
938.4000;0.3020;0.0074;
938.7000;0.3004;0.0025;
939.0000;0.3012;0.0025;
939.3000;0.3061;0.0198;
939.6000;0.3044;0.0124;
939.9000;0.3085;0.0173;
940.2000;0.3020;0.0050;
940.5000;0.3028;0.0050;
940.8000;0.3028;0.0099;
941.1000;0.3036;0.0099;
941.4000;0.3036;0.0000;
941.7000;0.3061;0.0099;
942.0000;0.3036;0.0074;
942.3000;0.3028;0.0050;
942.6000;0.3020;0.0025;
942.9000;0.3028;-0.0025;
943.2000;0.3036;-0.0198;
943.5000;0.3044;-0.0074;
943.8000;0.3020;0.0000;
944.1000;0.3044;0.0050;
944.4000;0.3036;0.0099;
944.7000;0.3028;0.0074;
945.0000;0.3044;0.0099;
945.3000;0.3036;0.0149;
945.6000;0.3036;0.0074;
945.9000;0.3028;0.0025;
946.2000;0.3036;0.0000;
946.5000;0.3053;0.0074;
946.8000;0.2971;-0.0099;
947.1000;0.3028;0.0050;
947.4000;0.3020;0.0124;
947.7000;0.3020;0.0050;
948.0000;0.3028;0.0025;
948.3000;0.3044;0.0050;
948.6000;0.3028;0.0050;
948.9000;0.3044;0.0149;
949.2000;0.3004;0.0050;
949.5000;0.3036;0.0149;
949.8000;0.3053;0.0248;
950.1000;0.3044;0.0198;
950.4000;0.3028;0.0099;
950.7000;0.3036;0.0050;
951.0000;0.3085;0.0074;
951.3000;0.3044;0.0025;
951.6000;0.3036;0.0149;
951.9000;0.3020;0.0124;
952.2000;0.3036;0.0173;
952.5000;0.3044;0.0297;
952.8000;0.3028;0.0198;
953.1000;0.3020;0.0074;
953.4000;0.3036;0.0025;
953.7000;0.3028;0.0050;
954.0000;0.3028;0.0025;
954.3000;0.3020;0.0000;
954.6000;0.3036;0.0074;
954.9000;0.3036;0.0198;
955.2000;0.3036;0.0223;
955.5000;0.3036;0.0124;
955.8000;0.3036;0.0124;
956.1000;0.2979;-0.0074;
956.4000;0.3028;0.0050;
956.7000;0.3044;0.0124;
957.0000;0.3036;0.0099;
957.3000;0.3061;0.0248;
957.6000;0.3028;0.0099;
957.9000;0.3028;0.0025;
958.2000;0.2963;-0.0124;
958.5000;0.3036;0.0050;
958.8000;0.3028;-0.0025;
959.1000;0.3020;-0.0025;
959.4000;0.3020;0.0025;
959.7000;0.3012;0.0000;
960.0000;0.3036;0.0050;
960.3000;0.3036;0.0000;
960.6000;0.3028;0.0025;
960.9000;0.3036;0.0000;
961.2000;0.3028;0.0000;
961.5000;0.3053;0.0050;
961.8000;0.3028;-0.0025;
962.1000;0.3028;-0.0050;
962.4000;0.3020;-0.0050;
962.7000;0.3012;-0.0149;
963.0000;0.3028;-0.0149;
963.3000;0.3028;-0.0173;
963.6000;0.3028;-0.0149;
963.9000;0.2979;-0.0149;
964.2000;0.3012;-0.0074;
964.5000;0.2979;-0.0198;
964.8000;0.2939;-0.0223;
965.1000;0.3020;-0.0025;
965.4000;0.3036;-0.0099;
965.7000;0.3093;0.0050;
966.0000;0.3036;-0.0149;
966.3000;0.3012;-0.0149;
966.6000;0.3044;-0.0074;
966.9000;0.3036;-0.0124;
967.2000;0.3036;-0.0124;
967.5000;0.3044;-0.0050;
967.8000;0.3036;-0.0074;
968.1000;0.3053;0.0149;
968.4000;0.3028;0.0149;
968.7000;0.3053;0.0198;
969.0000;0.3036;0.0173;
969.3000;0.3028;0.0223;
969.6000;0.3028;0.0198;
969.9000;0.3020;0.0074;
970.2000;0.3036;0.0025;
970.5000;0.3036;0.0099;
970.8000;0.3036;0.0124;
971.1000;0.3020;0.0050;
971.4000;0.3069;0.0173;
971.7000;0.3028;0.0099;
972.0000;0.3028;0.0074;
972.3000;0.3004;0.0099;
972.6000;0.2955;-0.0074;
972.9000;0.3020;-0.0025;
973.2000;0.3036;0.0099;
973.5000;0.2963;-0.0074;
973.8000;0.3020;0.0050;
974.1000;0.3028;0.0025;
974.4000;0.3036;0.0050;
974.7000;0.2996;-0.0124;
975.0000;0.3020;0.0025;
975.3000;0.3036;0.0025;
975.6000;0.3036;0.0099;
975.9000;0.3012;0.0025;
976.2000;0.3012;0.0000;
976.5000;0.3012;-0.0074;
976.8000;0.3044;0.0000;
977.1000;0.3044;0.0074;
977.4000;0.3036;0.0099;
977.7000;0.3028;0.0173;
978.0000;0.3036;0.0074;
978.3000;0.3036;0.0025;
978.6000;0.3028;0.0099;
978.9000;0.3028;0.0149;
979.2000;0.3028;0.0124;
979.5000;0.3028;0.0074;
979.8000;0.3020;0.0025;
980.1000;0.3028;-0.0025;
980.4000;0.3028;0.0124;
980.7000;0.3020;0.0025;
981.0000;0.3028;0.0000;
981.3000;0.3053;0.0025;
981.6000;0.3028;-0.0099;
981.9000;0.3036;-0.0099;
982.2000;0.3036;-0.0124;
982.5000;0.2963;-0.0248;
982.8000;0.3020;-0.0149;
983.1000;0.2987;-0.0223;
983.4000;0.3053;-0.0149;
983.7000;0.3020;-0.0223;
984.0000;0.3028;-0.0124;
984.3000;0.3028;-0.0099;
984.6000;0.3036;-0.0124;
984.9000;0.3020;-0.0099;
985.2000;0.3028;0.0000;
985.5000;0.3020;-0.0025;
985.8000;0.3020;-0.0074;
986.1000;0.3012;-0.0198;
986.4000;0.3004;-0.0173;
986.7000;0.2996;-0.0050;
987.0000;0.3020;-0.0099;
987.3000;0.3036;-0.0074;
987.6000;0.3012;-0.0099;
987.9000;0.3020;-0.0050;
988.2000;0.3036;0.0050;
988.5000;0.3134;0.0371;
988.8000;0.3020;0.0074;
989.1000;0.3020;0.0050;
989.4000;0.3093;0.0173;
989.7000;0.3020;0.0124;
990.0000;0.3012;0.0050;
990.3000;0.3020;-0.0074;
990.6000;0.3020;-0.0025;
990.9000;0.3044;0.0050;
991.2000;0.2971;-0.0223;
991.5000;0.3036;-0.0074;
991.8000;0.3020;-0.0074;
992.1000;0.3044;-0.0050;
992.4000;0.3028;-0.0050;
992.7000;0.3028;-0.0149;
993.0000;0.3077;-0.0025;
993.3000;0.3036;-0.0099;
993.6000;0.3077;0.0025;
993.9000;0.3020;-0.0050;
994.2000;0.3036;-0.0074;
994.5000;0.3020;-0.0149;
994.8000;0.3044;-0.0124;
995.1000;0.3012;-0.0173;
995.4000;0.3028;-0.0149;
995.7000;0.3020;-0.0173;
996.0000;0.2987;-0.0272;
996.3000;0.3036;-0.0198;
996.6000;0.3004;-0.0272;
996.9000;0.3012;-0.0124;
997.2000;0.3012;-0.0099;
997.5000;0.2963;-0.0297;
997.8000;0.3028;-0.0124;
998.1000;0.2979;-0.0173;
998.4000;0.3004;-0.0124;
998.7000;0.3004;-0.0099;
999.0000;0.3028;-0.0025;
999.3000;0.3004;-0.0074;
999.6000;0.3020;-0.0099;
999.9000;0.3036;0.0025;
1000.2000;0.3028;-0.0050;
1000.5000;0.3020;-0.0050;
1000.8000;0.3044;0.0025;
1001.1000;0.2979;-0.0099;
1001.4000;0.2996;-0.0050;
1001.7000;0.3028;0.0025;
1002.0000;0.2996;-0.0074;
1002.3000;0.3004;-0.0074;
1002.6000;0.3020;-0.0025;
1002.9000;0.3004;-0.0050;
1003.2000;0.2979;-0.0149;
1003.5000;0.3012;-0.0025;
1003.8000;0.3028;-0.0074;
1004.1000;0.3036;-0.0050;
1004.4000;0.3028;0.0000;
1004.7000;0.3028;-0.0025;
1005.0000;0.3028;-0.0050;
1005.3000;0.3036;-0.0074;
1005.6000;0.3044;-0.0074;
1005.9000;0.3028;0.0000;
1006.2000;0.3028;0.0099;
1006.5000;0.3004;-0.0025;
1006.8000;0.3020;0.0000;
1007.1000;0.3020;-0.0025;
1007.4000;0.3012;-0.0099;
1007.7000;0.3053;0.0000;
1008.0000;0.3020;-0.0149;
1008.3000;0.3012;-0.0074;
1008.6000;0.3044;-0.0124;
1008.9000;0.3020;-0.0050;
1009.2000;0.3020;-0.0050;
1009.5000;0.3020;-0.0050;
1009.8000;0.3044;0.0025;
1010.1000;0.3028;0.0025;
1010.4000;0.3020;0.0025;
1010.7000;0.3012;-0.0074;
1011.0000;0.3036;0.0000;
1011.3000;0.3028;0.0000;
1011.6000;0.3044;0.0124;
1011.9000;0.3020;0.0124;
1012.2000;0.3012;0.0050;
1012.5000;0.3012;-0.0050;
1012.8000;0.3044;0.0050;
1013.1000;0.3020;0.0000;
1013.4000;0.3020;-0.0050;
1013.7000;0.2939;-0.0272;
1014.0000;0.3020;0.0025;
1014.3000;0.3028;0.0000;
1014.6000;0.2987;-0.0074;
1014.9000;0.3012;0.0050;
1015.2000;0.3069;0.0198;
1015.5000;0.3004;0.0050;
1015.8000;0.3020;0.0099;
1016.1000;0.3044;0.0124;
1016.4000;0.3053;0.0124;
1016.7000;0.3053;0.0223;
1017.0000;0.2979;0.0025;
1017.3000;0.3004;0.0149;
1017.6000;0.3028;0.0099;
1017.9000;0.3028;0.0099;
1018.2000;0.3101;0.0198;
1018.5000;0.3028;-0.0025;
1018.8000;0.3020;-0.0099;
1019.1000;0.3020;-0.0124;
1019.4000;0.3028;-0.0074;
1019.7000;0.3077;0.0050;
1020.0000;0.3004;-0.0050;
1020.3000;0.3020;-0.0074;
1020.6000;0.3020;-0.0074;
1020.9000;0.2979;-0.0198;
1021.2000;0.3020;0.0000;
1021.5000;0.3012;-0.0074;
1021.8000;0.2987;-0.0025;
1022.1000;0.3028;0.0124;
1022.4000;0.3012;0.0124;
1022.7000;0.3004;0.0074;
1023.0000;0.3004;0.0050;
1023.3000;0.2987;-0.0050;
1023.6000;0.2996;-0.0050;
1023.9000;0.3012;-0.0025;
1024.2000;0.3020;-0.0050;
1024.5000;0.3004;0.0124;
1024.8000;0.3069;0.0198;
1025.1000;0.3004;0.0050;
1025.4000;0.3004;0.0074;
1025.7000;0.3020;0.0124;
1026.0000;0.3004;0.0074;
1026.3000;0.3044;0.0099;
1026.6000;0.3004;0.0099;
1026.9000;0.3012;0.0025;
1027.2000;0.3020;0.0000;
1027.5000;0.3028;0.0074;
1027.8000;0.3020;0.0074;
1028.1000;0.3036;0.0099;
1028.4000;0.2979;-0.0074;
1028.7000;0.3028;0.0025;
1029.0000;0.3012;-0.0050;
1029.3000;0.3020;0.0025;
1029.6000;0.3044;0.0074;
1029.9000;0.3020;0.0099;
1030.2000;0.3020;0.0000;
1030.5000;0.3012;-0.0074;
1030.8000;0.3012;-0.0124;
1031.1000;0.3020;-0.0099;
1031.4000;0.3012;-0.0074;
1031.7000;0.3020;-0.0099;
1032.0000;0.3093;0.0099;
1032.3000;0.3028;-0.0050;
1032.6000;0.3020;-0.0074;
1032.9000;0.3020;0.0000;
1033.2000;0.3020;0.0000;
1033.5000;0.3020;-0.0025;
1033.8000;0.3020;-0.0025;
1034.1000;0.3012;-0.0074;
1034.4000;0.3028;-0.0050;
1034.7000;0.3020;0.0025;
1035.0000;0.3028;0.0099;
1035.3000;0.3012;0.0025;
1035.6000;0.3053;0.0050;
1035.9000;0.3012;0.0025;
1036.2000;0.3028;0.0074;
1036.5000;0.3036;0.0149;
1036.8000;0.2996;0.0025;
1037.1000;0.3020;0.0099;
1037.4000;0.3012;0.0000;
1037.7000;0.3028;-0.0074;
1038.0000;0.3004;-0.0124;
1038.3000;0.3020;-0.0025;
1038.6000;0.3028;0.0050;
1038.9000;0.3012;0.0025;
1039.2000;0.3028;0.0099;
1039.5000;0.3004;0.0099;
1039.8000;0.3004;0.0074;
1040.1000;0.3004;0.0050;
1040.4000;0.3028;0.0074;
1040.7000;0.2996;-0.0025;
1041.0000;0.3061;0.0173;
1041.3000;0.3012;0.0025;
1041.6000;0.3044;0.0198;
1041.9000;0.3028;0.0050;
1042.2000;0.3044;0.0099;
1042.5000;0.3012;0.0050;
1042.8000;0.3028;0.0099;
1043.1000;0.3012;0.0074;
1043.4000;0.2914;-0.0149;
1043.7000;0.3061;0.0149;
1044.0000;0.3004;-0.0050;
1044.3000;0.3004;0.0000;
1044.6000;0.3004;0.0000;
1044.9000;0.3028;0.0025;
1045.2000;0.3012;0.0025;
1045.5000;0.3020;0.0099;
1045.8000;0.3020;0.0074;
1046.1000;0.2996;-0.0025;
1046.4000;0.3028;0.0074;
1046.7000;0.3012;0.0050;
1047.0000;0.3061;0.0223;
1047.3000;0.3020;0.0050;
1047.6000;0.3020;0.0025;
1047.9000;0.3012;-0.0050;
1048.2000;0.3012;-0.0099;
1048.5000;0.3012;-0.0025;
1048.8000;0.3020;0.0050;
1049.1000;0.3036;-0.0099;
1049.4000;0.3020;0.0000;
1049.7000;0.3028;0.0050;
1050.0000;0.3036;0.0099;
1050.3000;0.3028;0.0198;
1050.6000;0.3020;0.0322;
1050.9000;0.3012;0.0223;
1051.2000;0.3020;0.0322;
1051.5000;0.3012;0.0248;
1051.8000;0.3020;0.0173;
1052.1000;0.3028;0.0173;
1052.4000;0.3004;0.0074;
1052.7000;0.3004;0.0050;
1053.0000;0.3020;0.0025;
1053.3000;0.3028;0.0025;
1053.6000;0.3020;0.0099;
1053.9000;0.3012;0.0000;
1054.2000;0.2996;0.0025;
1054.5000;0.2963;-0.0124;
1054.8000;0.3020;0.0000;
1055.1000;0.2963;-0.0149;
1055.4000;0.3004;-0.0025;
1055.7000;0.3036;0.0050;
1056.0000;0.3004;0.0050;
1056.3000;0.3012;0.0000;
1056.6000;0.3012;0.0025;
1056.9000;0.3028;0.0025;
1057.2000;0.3012;0.0074;
1057.5000;0.3012;0.0050;
1057.8000;0.3004;0.0025;
1058.1000;0.3012;0.0050;
1058.4000;0.3020;0.0025;
1058.7000;0.2987;0.0000;
1059.0000;0.3004;-0.0074;
1059.3000;0.3012;-0.0149;
1059.6000;0.3012;-0.0173;
1059.9000;0.3020;-0.0074;
1060.2000;0.3020;-0.0124;
1060.5000;0.3044;-0.0099;
1060.8000;0.3012;-0.0223;
1061.1000;0.3012;-0.0149;
1061.4000;0.3012;-0.0099;
1061.7000;0.3077;0.0074;
1062.0000;0.3044;0.0025;
1062.3000;0.3004;0.0000;
1062.6000;0.3012;-0.0099;
1062.9000;0.3028;-0.0099;
1063.2000;0.2996;-0.0074;
1063.5000;0.3012;-0.0050;
1063.8000;0.3020;-0.0074;
1064.1000;0.2996;-0.0198;
1064.4000;0.3036;-0.0124;
1064.7000;0.3028;-0.0099;
1065.0000;0.3012;-0.0074;
1065.3000;0.3012;-0.0050;
1065.6000;0.3004;0.0000;
1065.9000;0.2996;0.0074;
1066.2000;0.2996;0.0074;
1066.5000;0.3004;0.0000;
1066.8000;0.3012;0.0000;
1067.1000;0.3004;-0.0050;
1067.4000;0.3012;-0.0074;
1067.7000;0.3004;-0.0074;
1068.0000;0.3028;0.0000;
1068.3000;0.3020;0.0074;
1068.6000;0.3012;0.0099;
1068.9000;0.3012;0.0099;
1069.2000;0.2996;0.0000;
1069.5000;0.3012;0.0124;
1069.8000;0.3028;0.0124;
1070.1000;0.3020;0.0124;
1070.4000;0.3012;0.0050;
1070.7000;0.3028;0.0000;
1071.0000;0.2987;0.0000;
1071.3000;0.3020;0.0099;
1071.6000;0.3012;0.0050;
1071.9000;0.3028;0.0025;
1072.2000;0.3020;0.0000;
1072.5000;0.3028;-0.0025;
1072.8000;0.3004;-0.0050;
1073.1000;0.3012;-0.0025;
1073.4000;0.2996;0.0000;
1073.7000;0.3020;0.0025;
1074.0000;0.3028;0.0000;
1074.3000;0.3020;-0.0124;
1074.6000;0.3020;-0.0149;
1074.9000;0.3044;-0.0198;
1075.2000;0.3020;-0.0297;
1075.5000;0.3036;-0.0223;
1075.8000;0.3020;-0.0223;
1076.1000;0.3020;-0.0272;
1076.4000;0.3020;-0.0223;
1076.7000;0.3020;-0.0272;
1077.0000;0.2996;-0.0371;
1077.3000;0.3020;-0.0446;
1077.6000;0.3020;-0.0446;
1077.9000;0.3004;-0.0446;
1078.2000;0.3020;-0.0347;
1078.5000;0.3028;-0.0322;
1078.8000;0.3012;-0.0322;
1079.1000;0.3036;-0.0297;
1079.4000;0.3004;-0.0347;
1079.7000;0.3020;-0.0322;
1080.0000;0.3028;-0.0173;
1080.3000;0.3028;-0.0050;
1080.6000;0.2987;-0.0074;
1080.9000;0.3004;-0.0124;
1081.2000;0.3012;-0.0149;
1081.5000;0.3028;-0.0050;
1081.8000;0.3012;-0.0050;
1082.1000;0.3004;-0.0050;
1082.4000;0.3028;0.0000;
1082.7000;0.3020;-0.0050;
1083.0000;0.3028;-0.0099;
1083.3000;0.3020;-0.0198;
1083.6000;0.3012;-0.0149;
1083.9000;0.3004;-0.0124;
1084.2000;0.3012;-0.0099;
1084.5000;0.3012;-0.0099;
1084.8000;0.3020;-0.0050;
1085.1000;0.3036;0.0025;
1085.4000;0.2939;-0.0297;
1085.7000;0.3020;-0.0099;
1086.0000;0.3012;-0.0124;
1086.3000;0.3012;-0.0198;
1086.6000;0.3012;-0.0248;
1086.9000;0.3004;-0.0272;
1087.2000;0.3028;-0.0297;
1087.5000;0.3020;-0.0396;
1087.8000;0.3028;-0.0421;
1088.1000;0.3077;-0.0198;
1088.4000;0.3028;-0.0322;
1088.7000;0.3004;-0.0396;
1089.0000;0.3061;-0.0248;
1089.3000;0.3020;-0.0248;
1089.6000;0.3004;-0.0173;
1089.9000;0.3020;-0.0099;
1090.2000;0.3004;-0.0099;
1090.5000;0.2971;-0.0198;
1090.8000;0.3004;-0.0149;
1091.1000;0.3004;-0.0074;
1091.4000;0.3020;-0.0050;
1091.7000;0.2939;-0.0248;
1092.0000;0.2996;-0.0074;
1092.3000;0.3004;0.0025;
1092.6000;0.3004;0.0025;
1092.9000;0.3028;0.0025;
1093.2000;0.3020;0.0050;
1093.5000;0.3020;0.0074;
1093.8000;0.3012;-0.0025;
1094.1000;0.3012;0.0050;
1094.4000;0.3012;0.0272;
1094.7000;0.3012;0.0248;
1095.0000;0.3012;0.0173;
1095.3000;0.3036;0.0173;
1095.6000;0.3028;0.0149;
1095.9000;0.3036;0.0149;
1096.2000;0.3020;0.0149;
1096.5000;0.3004;0.0050;
1096.8000;0.3061;0.0223;
1097.1000;0.3061;0.0297;
1097.4000;0.3012;0.0272;
1097.7000;0.3036;0.0149;
1098.0000;0.3028;0.0099;
1098.3000;0.3028;0.0099;
1098.6000;0.3085;0.0322;
1098.9000;0.3012;0.0149;
1099.2000;0.3012;0.0124;
1099.5000;0.2947;-0.0050;
1099.8000;0.3004;0.0149;
1100.1000;0.3004;0.0099;
1100.4000;0.2987;0.0074;
1100.7000;0.3004;0.0173;
1101.0000;0.3004;0.0198;
1101.3000;0.2996;0.0124;
1101.6000;0.2996;0.0124;
1101.9000;0.3020;0.0198;
1102.2000;0.3020;0.0248;
1102.5000;0.3004;0.0124;
1102.8000;0.3020;0.0050;
1103.1000;0.3012;-0.0025;
1103.4000;0.3028;-0.0025;
1103.7000;0.2987;-0.0050;
1104.0000;0.3020;0.0050;
1104.3000;0.3020;0.0099;
1104.6000;0.3012;0.0074;
1104.9000;0.3020;0.0099;
1105.2000;0.3036;0.0074;
1105.5000;0.2971;-0.0099;
1105.8000;0.3012;-0.0025;
1106.1000;0.3044;0.0099;
1106.4000;0.2987;-0.0025;
1106.7000;0.3004;0.0025;
1107.0000;0.3044;0.0050;
1107.3000;0.3036;-0.0074;
1107.6000;0.3012;-0.0099;
1107.9000;0.3012;-0.0099;
1108.2000;0.3012;-0.0124;
1108.5000;0.2987;-0.0149;
1108.8000;0.3012;-0.0099;
1109.1000;0.3012;-0.0050;
1109.4000;0.3012;-0.0074;
1109.7000;0.3012;-0.0074;
1110.0000;0.3028;-0.0074;
1110.3000;0.3004;-0.0074;
1110.6000;0.3020;0.0074;
1110.9000;0.3004;0.0074;
1111.2000;0.3012;0.0124;
1111.5000;0.3028;0.0173;
1111.8000;0.3004;0.0099;
1112.1000;0.3028;0.0124;
1112.4000;0.3004;0.0000;
1112.7000;0.3012;-0.0025;
1113.0000;0.3012;-0.0074;
1113.3000;0.3028;-0.0149;
1113.6000;0.3061;-0.0025;
1113.9000;0.3028;-0.0074;
1114.2000;0.2996;-0.0149;
1114.5000;0.2963;-0.0272;
1114.8000;0.3012;-0.0074;
1115.1000;0.3020;0.0025;
1115.4000;0.2979;-0.0099;
1115.7000;0.3109;0.0347;
1116.0000;0.3012;0.0124;
1116.3000;0.3020;0.0074;
1116.6000;0.3020;0.0050;
1116.9000;0.2979;-0.0099;
1117.2000;0.2971;-0.0124;
1117.5000;0.3028;0.0025;
1117.8000;0.3036;0.0050;
1118.1000;0.3036;0.0149;
1118.4000;0.3020;0.0124;
1118.7000;0.3028;0.0223;
1119.0000;0.3044;0.0297;
1119.3000;0.2987;0.0173;
1119.6000;0.3012;0.0173;
1119.9000;0.3036;0.0223;
1120.2000;0.3020;0.0248;
1120.5000;0.3004;0.0173;
1120.8000;0.3004;0.0124;
1121.1000;0.3020;0.0124;
1121.4000;0.3012;0.0124;
1121.7000;0.3020;0.0124;
1122.0000;0.3012;0.0149;
1122.3000;0.3004;0.0173;
1122.6000;0.2971;0.0074;
1122.9000;0.3036;0.0248;
1123.2000;0.3036;0.0272;
1123.5000;0.3012;0.0173;
1123.8000;0.3012;0.0173;
1124.1000;0.3028;0.0149;
1124.4000;0.3012;0.0074;
1124.7000;0.3020;0.0173;
1125.0000;0.3020;0.0198;
1125.3000;0.3020;0.0198;
1125.6000;0.3012;0.0248;
1125.9000;0.3004;0.0223;
1126.2000;0.2996;0.0173;
1126.5000;0.3028;0.0173;
1126.8000;0.3004;0.0099;
1127.1000;0.3020;0.0050;
1127.4000;0.2963;-0.0099;
1127.7000;0.3004;-0.0025;
1128.0000;0.3036;0.0124;
1128.3000;0.3004;0.0099;
1128.6000;0.3004;0.0149;
1128.9000;0.2996;0.0149;
1129.2000;0.3020;0.0124;
1129.5000;0.3012;0.0099;
1129.8000;0.3004;0.0173;
1130.1000;0.3012;0.0297;
1130.4000;0.3020;0.0347;
1130.7000;0.2996;0.0248;
1131.0000;0.3012;0.0347;
1131.3000;0.2947;0.0198;
1131.6000;0.2971;0.0248;
1131.9000;0.3012;0.0322;
1132.2000;0.3012;0.0297;
1132.5000;0.3004;0.0297;
1132.8000;0.3028;0.0371;
1133.1000;0.3028;0.0396;
1133.4000;0.3020;0.0322;
1133.7000;0.3053;0.0347;
1134.0000;0.3004;0.0248;
1134.3000;0.3004;0.0322;
1134.6000;0.3012;0.0347;
1134.9000;0.3020;0.0421;
1135.2000;0.3004;0.0396;
1135.5000;0.3012;0.0396;
1135.8000;0.3028;0.0371;
1136.1000;0.3012;0.0272;
1136.4000;0.3012;0.0198;
1136.7000;0.2955;0.0099;
1137.0000;0.2979;0.0173;
1137.3000;0.3004;0.0248;
1137.6000;0.2979;0.0050;
1137.9000;0.3036;0.0173;
1138.2000;0.3004;0.0149;
1138.5000;0.3020;0.0223;
1138.8000;0.2996;0.0149;
1139.1000;0.2987;0.0149;
1139.4000;0.3004;0.0248;
1139.7000;0.3012;0.0297;
1140.0000;0.3004;0.0223;
1140.3000;0.3012;0.0198;
1140.6000;0.3012;0.0173;
1140.9000;0.3020;0.0124;
1141.2000;0.2996;0.0149;
1141.5000;0.3028;0.0223;
1141.8000;0.3020;0.0124;
1142.1000;0.3020;0.0173;
1142.4000;0.3020;0.0272;
1142.7000;0.3012;0.0272;
1143.0000;0.3004;0.0173;
1143.3000;0.2996;0.0149;
1143.6000;0.2987;0.0124;
1143.9000;0.2987;0.0074;
1144.2000;0.3004;0.0050;
1144.5000;0.3004;0.0124;
1144.8000;0.3028;0.0124;
1145.1000;0.2996;0.0124;
1145.4000;0.2996;0.0099;
1145.7000;0.2996;0.0099;
1146.0000;0.3012;0.0149;
1146.3000;0.3012;0.0074;
1146.6000;0.3012;0.0099;
1146.9000;0.2996;0.0025;
1147.2000;0.3020;0.0025;
1147.5000;0.3028;0.0050;
1147.8000;0.3004;-0.0099;
1148.1000;0.3004;-0.0124;
1148.4000;0.3020;-0.0099;
1148.7000;0.3004;-0.0074;
1149.0000;0.3004;0.0000;
1149.3000;0.3004;0.0025;
1149.6000;0.3004;0.0124;
1149.9000;0.3004;0.0248;
1150.2000;0.2996;0.0223;
1150.5000;0.2996;0.0149;
1150.8000;0.3004;0.0149;
1151.1000;0.3004;0.0099;
1151.4000;0.2996;0.0050;
1151.7000;0.3061;0.0149;
1152.0000;0.2996;0.0149;
1152.3000;0.3028;0.0050;
1152.6000;0.3012;-0.0025;
1152.9000;0.3012;-0.0025;
1153.2000;0.3004;0.0025;
1153.5000;0.3020;0.0025;
1153.8000;0.2979;-0.0124;
1154.1000;0.3012;-0.0074;
1154.4000;0.3004;-0.0099;
1154.7000;0.3012;-0.0050;
1155.0000;0.2996;-0.0124;
1155.3000;0.2996;-0.0198;
1155.6000;0.3012;-0.0124;
1155.9000;0.3036;-0.0025;
1156.2000;0.3077;0.0000;
1156.5000;0.2987;-0.0248;
1156.8000;0.3012;-0.0173;
1157.1000;0.2996;-0.0223;
1157.4000;0.2987;-0.0272;
1157.7000;0.3004;-0.0297;
1158.0000;0.3020;-0.0297;
1158.3000;0.3044;-0.0223;
1158.6000;0.3020;-0.0248;
1158.9000;0.3012;-0.0223;
1159.2000;0.3028;-0.0198;
1159.5000;0.3028;-0.0099;
1159.8000;0.3020;0.0000;
1160.1000;0.3012;-0.0025;
1160.4000;0.3012;-0.0074;
1160.7000;0.3020;-0.0074;
1161.0000;0.2955;-0.0173;
1161.3000;0.3004;-0.0099;
1161.6000;0.3004;-0.0099;
1161.9000;0.3012;-0.0099;
1162.2000;0.2987;-0.0149;
1162.5000;0.2987;-0.0124;
1162.8000;0.3004;-0.0173;
1163.1000;0.3004;-0.0173;
1163.4000;0.2996;-0.0099;
1163.7000;0.3004;-0.0050;
1164.0000;0.3012;-0.0124;
1164.3000;0.3028;-0.0074;
1164.6000;0.3028;-0.0074;
1164.9000;0.2987;-0.0149;
1165.2000;0.3004;-0.0124;
1165.5000;0.3004;-0.0124;
1165.8000;0.3012;-0.0099;
1166.1000;0.2987;-0.0025;
1166.4000;0.3036;0.0074;
1166.7000;0.3004;0.0000;
1167.0000;0.3036;0.0025;
1167.3000;0.3004;0.0099;
1167.6000;0.3004;0.0099;
1167.9000;0.3012;0.0198;
1168.2000;0.3028;0.0124;
1168.5000;0.3020;0.0099;
1168.8000;0.3012;0.0074;
1169.1000;0.3020;0.0099;
1169.4000;0.3012;0.0000;
1169.7000;0.3028;0.0074;
1170.0000;0.3012;0.0149;
1170.3000;0.2996;0.0025;
1170.6000;0.3004;-0.0050;
1170.9000;0.3012;0.0074;
1171.2000;0.3012;0.0173;
1171.5000;0.3020;0.0099;
1171.8000;0.3004;0.0074;
1172.1000;0.3020;0.0025;
1172.4000;0.3012;-0.0025;
1172.7000;0.3020;0.0000;
1173.0000;0.2996;-0.0050;
1173.3000;0.3012;-0.0074;
1173.6000;0.3004;-0.0099;
1173.9000;0.3036;0.0025;
1174.2000;0.3004;0.0025;
1174.5000;0.2996;0.0025;
1174.8000;0.3012;0.0074;
1175.1000;0.3077;0.0173;
1175.4000;0.3004;-0.0050;
1175.7000;0.3020;-0.0025;
1176.0000;0.3028;-0.0050;
1176.3000;0.3004;-0.0099;
1176.6000;0.3053;0.0050;
1176.9000;0.3020;0.0099;
1177.2000;0.3004;0.0099;
1177.5000;0.3004;0.0074;
1177.8000;0.3077;0.0297;
1178.1000;0.3004;0.0074;
1178.4000;0.3020;0.0099;
1178.7000;0.3012;0.0025;
1179.0000;0.3004;-0.0099;
1179.3000;0.3004;-0.0149;
1179.6000;0.2996;-0.0025;
1179.9000;0.2971;-0.0124;
1180.2000;0.2979;-0.0050;
1180.5000;0.3012;0.0025;
1180.8000;0.3004;0.0074;
1181.1000;0.3004;0.0050;
1181.4000;0.3012;0.0099;
1181.7000;0.3004;0.0000;
1182.0000;0.3004;0.0050;
1182.3000;0.3020;0.0000;
1182.6000;0.3020;-0.0074;
1182.9000;0.3004;-0.0173;
1183.2000;0.3004;-0.0223;
1183.5000;0.3028;-0.0050;
1183.8000;0.3012;-0.0074;
1184.1000;0.3012;0.0000;
1184.4000;0.3004;-0.0099;
1184.7000;0.3036;0.0025;
1185.0000;0.3028;0.0099;
1185.3000;0.3020;0.0149;
1185.6000;0.2987;0.0099;
1185.9000;0.3004;0.0074;
1186.2000;0.3004;0.0099;
1186.5000;0.2996;0.0025;
1186.8000;0.2987;0.0025;
1187.1000;0.3044;0.0198;
1187.4000;0.3004;0.0099;
1187.7000;0.3004;0.0050;
1188.0000;0.3012;0.0099;
1188.3000;0.3004;0.0025;
1188.6000;0.2963;-0.0099;
1188.9000;0.2996;0.0025;
1189.2000;0.3004;0.0050;
1189.5000;0.3004;-0.0025;
1189.8000;0.3028;0.0099;
1190.1000;0.3020;0.0099;
1190.4000;0.3004;0.0074;
1190.7000;0.3004;0.0025;
1191.0000;0.3020;0.0050;
1191.3000;0.3004;0.0050;
1191.6000;0.3012;0.0000;
1191.9000;0.3012;-0.0074;
1192.2000;0.3012;-0.0050;
1192.5000;0.3036;-0.0050;
1192.8000;0.3012;-0.0099;
1193.1000;0.3020;-0.0074;
1193.4000;0.3036;-0.0099;
1193.7000;0.3044;0.0025;
1194.0000;0.3020;0.0000;
1194.3000;0.2987;-0.0124;
1194.6000;0.3004;-0.0099;
1194.9000;0.2987;-0.0050;
1195.2000;0.3004;0.0025;
1195.5000;0.3012;-0.0050;
1195.8000;0.3004;-0.0074;
1196.1000;0.3012;-0.0025;
1196.4000;0.3028;-0.0050;
1196.7000;0.3036;-0.0050;
1197.0000;0.3028;-0.0074;
1197.3000;0.3004;-0.0099;
1197.6000;0.3012;-0.0074;
1197.9000;0.3020;-0.0025;
1198.2000;0.3004;0.0050;
1198.5000;0.2979;-0.0099;
1198.8000;0.2996;-0.0124;
1199.1000;0.3004;-0.0099;
1199.4000;0.2996;-0.0074;
1199.7000;0.2971;-0.0099;
1200.0000;0.2996;-0.0025;
1200.3000;0.3020;0.0025;
1200.6000;0.3020;0.0050;
1200.9000;0.2979;-0.0124;
1201.2000;0.2996;-0.0099;
1201.5000;0.3004;-0.0050;
1201.8000;0.3020;-0.0050;
1202.1000;0.3028;-0.0050;
1202.4000;0.3004;-0.0025;
1202.7000;0.2914;-0.0322;
1203.0000;0.3012;-0.0099;
1203.3000;0.3004;-0.0124;
1203.6000;0.2979;-0.0198;
1203.9000;0.3004;-0.0223;
1204.2000;0.3012;-0.0223;
1204.5000;0.3012;-0.0198;
1204.8000;0.3020;-0.0173;
1205.1000;0.3061;-0.0050;
1205.4000;0.3004;-0.0099;
1205.7000;0.2987;-0.0099;
1206.0000;0.3004;-0.0099;
1206.3000;0.3004;-0.0099;
1206.6000;0.2939;-0.0322;
1206.9000;0.3028;-0.0050;
1207.2000;0.2996;-0.0099;
1207.5000;0.3020;-0.0198;
1207.8000;0.3012;-0.0173;
1208.1000;0.3012;-0.0198;
1208.4000;0.3012;-0.0223;
1208.7000;0.2996;-0.0223;
1209.0000;0.2987;-0.0173;
1209.3000;0.3012;-0.0124;
1209.6000;0.3101;0.0050;
1209.9000;0.3004;-0.0173;
1210.2000;0.3028;-0.0099;
1210.5000;0.2996;-0.0272;
1210.8000;0.2996;-0.0223;
1211.1000;0.3012;-0.0223;
1211.4000;0.3036;-0.0173;
1211.7000;0.3020;-0.0149;
1212.0000;0.3028;-0.0099;
1212.3000;0.3012;-0.0173;
1212.6000;0.3004;-0.0149;
1212.9000;0.2939;-0.0396;
1213.2000;0.3020;-0.0198;
1213.5000;0.3012;-0.0198;
1213.8000;0.2906;-0.0396;
1214.1000;0.2987;-0.0272;
1214.4000;0.3004;-0.0173;
1214.7000;0.3004;-0.0198;
1215.0000;0.3012;-0.0173;
1215.3000;0.2963;-0.0371;
1215.6000;0.2971;-0.0396;
1215.9000;0.3020;-0.0322;
1216.2000;0.2939;-0.0470;
1216.5000;0.3004;-0.0272;
1216.8000;0.2996;-0.0297;
1217.1000;0.3020;-0.0347;
1217.4000;0.2979;-0.0396;
1217.7000;0.3012;-0.0272;
1218.0000;0.3004;-0.0248;
1218.3000;0.3020;-0.0173;
1218.6000;0.3028;-0.0099;
1218.9000;0.3012;-0.0149;
1219.2000;0.3004;-0.0124;
1219.5000;0.3012;-0.0124;
1219.8000;0.3012;-0.0149;
1220.1000;0.3004;-0.0198;
1220.4000;0.2947;-0.0347;
1220.7000;0.2987;-0.0223;
1221.0000;0.3004;-0.0297;
1221.3000;0.3004;-0.0371;
1221.6000;0.3077;-0.0198;
1221.9000;0.3012;-0.0297;
1222.2000;0.3020;-0.0173;
1222.5000;0.2955;-0.0347;
1222.8000;0.3004;-0.0173;
1223.1000;0.2996;-0.0173;
1223.4000;0.3020;-0.0173;
1223.7000;0.2987;-0.0322;
1224.0000;0.3020;-0.0272;
1224.3000;0.3004;-0.0173;
1224.6000;0.2955;-0.0223;
1224.9000;0.3004;-0.0124;
1225.2000;0.2996;-0.0099;
1225.5000;0.3012;0.0000;
1225.8000;0.2979;-0.0099;
1226.1000;0.3036;0.0050;
1226.4000;0.2987;-0.0050;
1226.7000;0.2996;-0.0074;
1227.0000;0.3004;-0.0025;
1227.3000;0.3061;0.0099;
1227.6000;0.2996;-0.0050;
1227.9000;0.3012;-0.0025;
1228.2000;0.3012;0.0050;
1228.5000;0.2979;0.0074;
1228.8000;0.3012;0.0099;
1229.1000;0.3012;0.0074;
1229.4000;0.2971;0.0025;
1229.7000;0.3012;0.0050;
1230.0000;0.3012;0.0025;
1230.3000;0.2963;-0.0074;
1230.6000;0.3028;-0.0025;
1230.9000;0.3012;-0.0050;
1231.2000;0.3012;-0.0050;
1231.5000;0.3028;0.0050;
1231.8000;0.3036;0.0050;
1232.1000;0.3004;0.0025;
1232.4000;0.2939;-0.0050;
1232.7000;0.3020;0.0074;
1233.0000;0.3044;0.0124;
1233.3000;0.3044;0.0074;
1233.6000;0.3020;-0.0025;
1233.9000;0.3036;0.0050;
1234.2000;0.3004;-0.0074;
1234.5000;0.3004;-0.0050;
1234.8000;0.3004;-0.0074;
1235.1000;0.3012;-0.0025;
1235.4000;0.2996;-0.0198;
1235.7000;0.3012;-0.0198;
1236.0000;0.2987;-0.0297;
1236.3000;0.3028;-0.0248;
1236.6000;0.3004;-0.0297;
1236.9000;0.3004;-0.0272;
1237.2000;0.2971;-0.0297;
1237.5000;0.3020;-0.0173;
1237.8000;0.3012;-0.0272;
1238.1000;0.3028;-0.0223;
1238.4000;0.2996;-0.0347;
1238.7000;0.3012;-0.0223;
1239.0000;0.3012;-0.0099;
1239.3000;0.3004;-0.0074;
1239.6000;0.3004;-0.0124;
1239.9000;0.3004;-0.0223;
1240.2000;0.2963;-0.0347;
1240.5000;0.3012;-0.0248;
1240.8000;0.3012;-0.0248;
1241.1000;0.3036;-0.0173;
1241.4000;0.2987;-0.0223;
1241.7000;0.3020;-0.0099;
1242.0000;0.3020;-0.0099;
1242.3000;0.3004;-0.0173;
1242.6000;0.3012;-0.0124;
1242.9000;0.3012;-0.0124;
1243.2000;0.3004;-0.0124;
1243.5000;0.3012;-0.0198;
1243.8000;0.3012;-0.0173;
1244.1000;0.3012;-0.0173;
1244.4000;0.2996;-0.0248;
1244.7000;0.3020;-0.0173;
1245.0000;0.3004;-0.0173;
1245.3000;0.2987;-0.0248;
1245.6000;0.3012;-0.0149;
1245.9000;0.3061;-0.0050;
1246.2000;0.2996;-0.0198;
1246.5000;0.3020;-0.0198;
1246.8000;0.3012;-0.0223;
1247.1000;0.3012;-0.0223;
1247.4000;0.2996;-0.0149;
1247.7000;0.2971;-0.0297;
1248.0000;0.2996;-0.0124;
1248.3000;0.3004;-0.0025;
1248.6000;0.2963;-0.0124;
1248.9000;0.2996;-0.0173;
1249.2000;0.2963;-0.0248;
1249.5000;0.3012;-0.0124;
1249.8000;0.2996;-0.0124;
1250.1000;0.2996;-0.0124;
1250.4000;0.3020;-0.0025;
1250.7000;0.2979;-0.0099;
1251.0000;0.3036;0.0025;
1251.3000;0.3020;-0.0074;
1251.6000;0.3028;-0.0025;
1251.9000;0.3012;0.0000;
1252.2000;0.3028;0.0050;
1252.5000;0.2939;-0.0173;
1252.8000;0.2996;-0.0050;
1253.1000;0.3020;-0.0050;
1253.4000;0.3069;0.0124;
1253.7000;0.3004;0.0050;
1254.0000;0.3004;0.0099;
1254.3000;0.3044;0.0248;
1254.6000;0.3004;0.0074;
1254.9000;0.3012;0.0099;
1255.2000;0.3004;0.0025;
1255.5000;0.3004;-0.0025;
1255.8000;0.3004;0.0000;
1256.1000;0.3012;0.0099;
1256.4000;0.3093;0.0223;
1256.7000;0.3020;-0.0099;
1257.0000;0.3012;-0.0074;
1257.3000;0.3020;-0.0050;
1257.6000;0.2996;-0.0099;
1257.9000;0.2996;-0.0050;
1258.2000;0.3004;-0.0074;
1258.5000;0.2971;-0.0124;
1258.8000;0.3004;-0.0099;
1259.1000;0.2987;-0.0198;
1259.4000;0.2979;-0.0173;
1259.7000;0.3020;0.0025;
1260.0000;0.3020;-0.0099;
1260.3000;0.3004;-0.0124;
1260.6000;0.2996;-0.0074;
1260.9000;0.2987;-0.0025;
1261.2000;0.2996;-0.0074;
1261.5000;0.3012;-0.0099;
1261.8000;0.3020;-0.0074;
1262.1000;0.3012;-0.0124;
1262.4000;0.2987;-0.0099;
1262.7000;0.3004;-0.0074;
1263.0000;0.2987;-0.0074;
1263.3000;0.2996;0.0000;
1263.6000;0.2996;-0.0050;
1263.9000;0.2979;-0.0149;
1264.2000;0.2987;-0.0149;
1264.5000;0.2996;-0.0198;
1264.8000;0.3028;-0.0124;
1265.1000;0.3004;-0.0050;
1265.4000;0.3020;-0.0025;
1265.7000;0.3004;-0.0074;
1266.0000;0.3012;-0.0050;
1266.3000;0.3028;0.0000;
1266.6000;0.3004;0.0025;
1266.9000;0.3012;0.0025;
1267.2000;0.3020;0.0074;
1267.5000;0.3012;0.0000;
1267.8000;0.3028;0.0025;
1268.1000;0.3004;0.0099;
1268.4000;0.3077;0.0272;
1268.7000;0.3028;0.0124;
1269.0000;0.3012;0.0099;
1269.3000;0.3012;0.0074;
1269.6000;0.2996;0.0000;
1269.9000;0.2979;0.0000;
1270.2000;0.3004;0.0124;
1270.5000;0.3012;0.0074;
1270.8000;0.3036;0.0099;
1271.1000;0.3020;-0.0025;
1271.4000;0.3004;-0.0050;
1271.7000;0.2987;-0.0099;
1272.0000;0.3028;0.0025;
1272.3000;0.3004;-0.0074;
1272.6000;0.3004;-0.0025;
1272.9000;0.3028;0.0074;
1273.2000;0.3012;0.0000;
1273.5000;0.3012;-0.0074;
1273.8000;0.3020;-0.0050;
1274.1000;0.2979;-0.0099;
1274.4000;0.3012;-0.0050;
1274.7000;0.3012;-0.0050;
1275.0000;0.3004;-0.0099;
1275.3000;0.3004;-0.0124;
1275.6000;0.2996;-0.0198;
1275.9000;0.3012;-0.0198;
1276.2000;0.3028;-0.0272;
1276.5000;0.3012;-0.0421;
1276.8000;0.3004;-0.0470;
1277.1000;0.3012;-0.0421;
1277.4000;0.3012;-0.0446;
1277.7000;0.3028;-0.0495;
1278.0000;0.2987;-0.0570;
1278.3000;0.3044;-0.0446;
1278.6000;0.3053;-0.0396;
1278.9000;0.3012;-0.0421;
1279.2000;0.3020;-0.0421;
1279.5000;0.3004;-0.0470;
1279.8000;0.3020;-0.0297;
1280.1000;0.3012;-0.0322;
1280.4000;0.2996;-0.0371;
1280.7000;0.3020;-0.0322;
1281.0000;0.3012;-0.0371;
1281.3000;0.3004;-0.0297;
1281.6000;0.2996;-0.0347;
1281.9000;0.3004;-0.0248;
1282.2000;0.3012;-0.0198;
1282.5000;0.2987;-0.0198;
1282.8000;0.2987;-0.0099;
1283.1000;0.3004;-0.0025;
1283.4000;0.2987;-0.0074;
1283.7000;0.2987;-0.0099;
1284.0000;0.2996;-0.0099;
1284.3000;0.2996;-0.0099;
1284.6000;0.3020;-0.0099;
1284.9000;0.3004;-0.0272;
1285.2000;0.2987;-0.0198;
1285.5000;0.3004;-0.0149;
1285.8000;0.3004;-0.0074;
1286.1000;0.3004;-0.0149;
1286.4000;0.2987;-0.0223;
1286.7000;0.3012;-0.0124;
1287.0000;0.3004;-0.0173;
1287.3000;0.2987;-0.0223;
1287.6000;0.2987;-0.0272;
1287.9000;0.3020;-0.0198;
1288.2000;0.2996;-0.0198;
1288.5000;0.3012;-0.0173;
1288.8000;0.3028;-0.0099;
1289.1000;0.3044;-0.0074;
1289.4000;0.3028;-0.0124;
1289.7000;0.3036;-0.0149;
1290.0000;0.3004;-0.0198;
1290.3000;0.3020;-0.0198;
1290.6000;0.3012;-0.0173;
1290.9000;0.3028;-0.0074;
1291.2000;0.3004;-0.0099;
1291.5000;0.3004;0.0000;
1291.8000;0.2996;-0.0050;
1292.1000;0.3004;-0.0074;
1292.4000;0.2963;-0.0124;
1292.7000;0.3012;0.0025;
1293.0000;0.2987;-0.0050;
1293.3000;0.3004;-0.0025;
1293.6000;0.2955;-0.0198;
1293.9000;0.2987;-0.0099;
1294.2000;0.3053;0.0099;
1294.5000;0.3004;-0.0050;
1294.8000;0.3004;-0.0074;
1295.1000;0.3012;-0.0149;
1295.4000;0.3012;-0.0074;
1295.7000;0.2987;-0.0074;
1296.0000;0.3004;0.0000;
1296.3000;0.3004;0.0074;
1296.6000;0.3028;0.0124;
1296.9000;0.3012;0.0099;
1297.2000;0.2996;0.0149;
1297.5000;0.3004;0.0198;
1297.8000;0.2987;0.0149;
1298.1000;0.3004;0.0099;
1298.4000;0.3004;0.0099;
1298.7000;0.2930;-0.0149;
1299.0000;0.3012;0.0025;
1299.3000;0.3004;0.0050;
1299.6000;0.3012;-0.0025;
1299.9000;0.3012;-0.0074;
1300.2000;0.3012;-0.0099;
1300.5000;0.3012;-0.0099;
1300.8000;0.2996;-0.0272;
1301.1000;0.3004;-0.0248;
1301.4000;0.3012;-0.0198;
1301.7000;0.2987;-0.0149;
1302.0000;0.3004;-0.0124;
1302.3000;0.3012;-0.0223;
1302.6000;0.3004;-0.0322;
1302.9000;0.3004;-0.0297;
1303.2000;0.3004;-0.0297;
1303.5000;0.2971;-0.0421;
1303.8000;0.3004;-0.0198;
1304.1000;0.3012;-0.0149;
1304.4000;0.2987;-0.0124;
1304.7000;0.3020;0.0050;
1305.0000;0.3012;0.0173;
1305.3000;0.2996;0.0124;
1305.6000;0.3004;0.0149;
1305.9000;0.2987;0.0074;
1306.2000;0.3012;0.0050;
1306.5000;0.3012;0.0000;
1306.8000;0.3020;-0.0025;
1307.1000;0.3053;0.0050;
1307.4000;0.3012;-0.0050;
1307.7000;0.3028;-0.0025;
1308.0000;0.3012;-0.0124;
1308.3000;0.3012;-0.0099;
1308.6000;0.2979;-0.0173;
1308.9000;0.2996;-0.0124;
1309.2000;0.3012;0.0000;
1309.5000;0.3004;0.0000;
1309.8000;0.3004;-0.0025;
1310.1000;0.3020;0.0025;
1310.4000;0.3004;0.0025;
1310.7000;0.3012;0.0050;
1311.0000;0.3004;0.0025;
1311.3000;0.3004;0.0050;
1311.6000;0.2996;-0.0074;
1311.9000;0.3028;-0.0050;
1312.2000;0.3004;-0.0099;
1312.5000;0.3004;-0.0074;
1312.8000;0.3012;-0.0074;
1313.1000;0.3004;-0.0050;
1313.4000;0.2996;-0.0074;
1313.7000;0.2996;-0.0149;
1314.0000;0.2996;-0.0198;
1314.3000;0.3004;-0.0198;
1314.6000;0.2987;-0.0223;
1314.9000;0.3028;-0.0198;
1315.2000;0.2987;-0.0198;
1315.5000;0.3012;-0.0074;
1315.8000;0.3004;-0.0099;
1316.1000;0.3004;-0.0124;
1316.4000;0.2996;-0.0198;
1316.7000;0.2987;-0.0223;
1317.0000;0.2987;-0.0248;
1317.3000;0.2996;-0.0272;
1317.6000;0.2963;-0.0371;
1317.9000;0.3004;-0.0297;
1318.2000;0.3020;-0.0297;
1318.5000;0.3004;-0.0297;
1318.8000;0.2996;-0.0248;
1319.1000;0.2939;-0.0347;
1319.4000;0.3028;-0.0173;
1319.7000;0.3020;-0.0223;
1320.0000;0.2996;-0.0371;
1320.3000;0.3036;-0.0297;
1320.6000;0.2987;-0.0470;
1320.9000;0.3028;-0.0396;
1321.2000;0.3004;-0.0347;
1321.5000;0.2979;-0.0421;
1321.8000;0.3004;-0.0371;
1322.1000;0.3012;-0.0371;
1322.4000;0.2996;-0.0347;
1322.7000;0.2963;-0.0371;
1323.0000;0.2996;-0.0248;
1323.3000;0.3012;-0.0322;
1323.6000;0.3020;-0.0371;
1323.9000;0.3004;-0.0322;
1324.2000;0.2996;-0.0396;
1324.5000;0.3012;-0.0371;
1324.8000;0.3004;-0.0446;
1325.1000;0.2979;-0.0545;
1325.4000;0.2996;-0.0520;
1325.7000;0.3004;-0.0421;
1326.0000;0.2996;-0.0272;
1326.3000;0.2947;-0.0248;
1326.6000;0.2971;-0.0248;
1326.9000;0.2987;-0.0347;
1327.2000;0.3012;-0.0297;
1327.5000;0.2971;-0.0396;
1327.8000;0.3004;-0.0421;
1328.1000;0.3020;-0.0371;
1328.4000;0.3004;-0.0322;
1328.7000;0.3004;-0.0297;
1329.0000;0.3012;-0.0347;
1329.3000;0.3028;-0.0297;
1329.6000;0.3012;-0.0248;
1329.9000;0.2987;-0.0322;
1330.2000;0.3028;-0.0248;
1330.5000;0.2987;-0.0396;
1330.8000;0.3028;-0.0347;
1331.1000;0.3012;-0.0421;
1331.4000;0.2996;-0.0520;
1331.7000;0.3004;-0.0520;
1332.0000;0.3004;-0.0470;
1332.3000;0.2971;-0.0520;
1332.6000;0.3020;-0.0396;
1332.9000;0.3028;-0.0347;
1333.2000;0.3012;-0.0347;
1333.5000;0.3004;-0.0396;
1333.8000;0.2996;-0.0446;
1334.1000;0.3012;-0.0396;
1334.4000;0.3069;-0.0272;
1334.7000;0.3028;-0.0347;
1335.0000;0.3028;-0.0272;
1335.3000;0.3028;-0.0248;
1335.6000;0.3028;-0.0223;
1335.9000;0.3012;-0.0099;
1336.2000;0.3012;-0.0099;
1336.5000;0.3004;-0.0223;
1336.8000;0.3012;-0.0223;
1337.1000;0.3028;-0.0248;
1337.4000;0.3020;-0.0223;
1337.7000;0.3028;-0.0173;
1338.0000;0.3004;-0.0198;
1338.3000;0.2987;-0.0198;
1338.6000;0.3004;-0.0099;
1338.9000;0.3020;-0.0099;
1339.2000;0.3020;-0.0124;
1339.5000;0.3020;-0.0173;
1339.8000;0.3004;-0.0074;
1340.1000;0.3020;-0.0124;
1340.4000;0.3012;-0.0025;
1340.7000;0.2979;-0.0050;
1341.0000;0.3004;-0.0050;
1341.3000;0.3012;-0.0025;
1341.6000;0.3036;-0.0025;
1341.9000;0.3012;-0.0149;
1342.2000;0.2987;-0.0223;
1342.5000;0.3020;-0.0173;
1342.8000;0.3028;-0.0173;
1343.1000;0.3004;-0.0198;
1343.4000;0.2987;-0.0347;
1343.7000;0.3012;-0.0248;
1344.0000;0.3036;-0.0198;
1344.3000;0.2987;-0.0322;
1344.6000;0.3004;-0.0347;
1344.9000;0.3028;-0.0297;
1345.2000;0.3028;-0.0223;
1345.5000;0.3012;-0.0149;
1345.8000;0.3012;-0.0248;
1346.1000;0.3069;-0.0198;
1346.4000;0.3028;-0.0272;
1346.7000;0.3061;-0.0149;
1347.0000;0.3004;-0.0272;
1347.3000;0.3004;-0.0173;
1347.6000;0.3012;-0.0124;
1347.9000;0.3012;-0.0099;
1348.2000;0.3020;-0.0099;
1348.5000;0.2987;-0.0124;
1348.8000;0.3012;-0.0074;
1349.1000;0.3020;0.0000;
1349.4000;0.3004;-0.0074;
1349.7000;0.3020;-0.0025;
1350.0000;0.3012;-0.0025;
1350.3000;0.3012;-0.0050;
1350.6000;0.3020;-0.0124;
1350.9000;0.3012;-0.0248;
1351.2000;0.3012;-0.0223;
1351.5000;0.3004;-0.0248;
1351.8000;0.3020;-0.0173;
1352.1000;0.3036;-0.0149;
1352.4000;0.3020;-0.0173;
1352.7000;0.2996;-0.0173;
1353.0000;0.2996;-0.0198;
1353.3000;0.2996;-0.0173;
1353.6000;0.3012;-0.0050;
1353.9000;0.3004;0.0050;
1354.2000;0.3101;0.0297;
1354.5000;0.3004;0.0050;
1354.8000;0.3004;-0.0074;
1355.1000;0.3020;-0.0099;
1355.4000;0.3004;-0.0124;
1355.7000;0.3028;-0.0074;
1356.0000;0.3020;-0.0025;
1356.3000;0.3004;-0.0050;
1356.6000;0.3012;-0.0074;
1356.9000;0.3028;-0.0124;
1357.2000;0.2971;-0.0149;
1357.5000;0.3028;-0.0099;
1357.8000;0.3012;-0.0223;
1358.1000;0.2971;-0.0322;
1358.4000;0.2987;-0.0297;
1358.7000;0.3004;-0.0272;
1359.0000;0.3012;-0.0322;
1359.3000;0.2996;-0.0322;
1359.6000;0.2987;-0.0223;
1359.9000;0.3004;-0.0223;
1360.2000;0.3061;-0.0124;
1360.5000;0.3004;-0.0272;
1360.8000;0.3012;-0.0173;
1361.1000;0.3061;0.0025;
1361.4000;0.2963;-0.0248;
1361.7000;0.3004;-0.0173;
1362.0000;0.2987;-0.0099;
1362.3000;0.2971;-0.0124;
1362.6000;0.3004;-0.0149;
1362.9000;0.2987;-0.0198;
1363.2000;0.2996;-0.0074;
1363.5000;0.3012;-0.0025;
1363.8000;0.2963;-0.0050;
1364.1000;0.2971;-0.0074;
1364.4000;0.3012;0.0074;
1364.7000;0.2971;0.0050;
1365.0000;0.2987;0.0149;
1365.3000;0.3020;0.0173;
1365.6000;0.2996;0.0074;
1365.9000;0.2996;0.0025;
1366.2000;0.3012;0.0074;
1366.5000;0.2987;-0.0050;
1366.8000;0.2996;0.0000;
1367.1000;0.2996;0.0000;
1367.4000;0.3028;0.0074;
1367.7000;0.3012;0.0025;
1368.0000;0.2996;-0.0025;
1368.3000;0.3004;0.0000;
1368.6000;0.3012;0.0025;
1368.9000;0.3004;-0.0074;
1369.2000;0.2987;-0.0149;
1369.5000;0.2971;-0.0099;
1369.8000;0.3061;0.0223;
1370.1000;0.3020;0.0074;
1370.4000;0.3020;0.0099;
1370.7000;0.3004;0.0050;
1371.0000;0.3004;-0.0050;
1371.3000;0.2987;-0.0074;
1371.6000;0.3044;0.0050;
1371.9000;0.3012;0.0025;
1372.2000;0.2987;-0.0074;
1372.5000;0.3004;0.0000;
1372.8000;0.3012;0.0000;
1373.1000;0.3004;-0.0074;
1373.4000;0.3036;0.0025;
1373.7000;0.2971;-0.0223;
1374.0000;0.3004;-0.0099;
1374.3000;0.3004;-0.0074;
1374.6000;0.3020;-0.0074;
1374.9000;0.3028;-0.0050;
1375.2000;0.3004;-0.0149;
1375.5000;0.3012;-0.0198;
1375.8000;0.2979;-0.0297;
1376.1000;0.3036;-0.0099;
1376.4000;0.2996;-0.0248;
1376.7000;0.3004;-0.0297;
1377.0000;0.3004;-0.0297;
1377.3000;0.3020;-0.0124;
1377.6000;0.3012;-0.0149;
1377.9000;0.2996;-0.0173;
1378.2000;0.3004;-0.0198;
1378.5000;0.3004;-0.0223;
1378.8000;0.3020;-0.0173;
1379.1000;0.3012;-0.0297;
1379.4000;0.2987;-0.0371;
1379.7000;0.3004;-0.0421;
1380.0000;0.3004;-0.0396;
1380.3000;0.3004;-0.0396;
1380.6000;0.2996;-0.0371;
1380.9000;0.2996;-0.0371;
1381.2000;0.2987;-0.0396;
1381.5000;0.2996;-0.0322;
1381.8000;0.3004;-0.0347;
1382.1000;0.3004;-0.0272;
1382.4000;0.3004;-0.0223;
1382.7000;0.3012;-0.0248;
1383.0000;0.2987;-0.0322;
1383.3000;0.3004;-0.0248;
1383.6000;0.2996;-0.0421;
1383.9000;0.2987;-0.0495;
1384.2000;0.3020;-0.0470;
1384.5000;0.2996;-0.0446;
1384.8000;0.3004;-0.0396;
1385.1000;0.2955;-0.0520;
1385.4000;0.3004;-0.0371;
1385.7000;0.2971;-0.0421;
1386.0000;0.3004;-0.0347;
1386.3000;0.2996;-0.0248;
1386.6000;0.3004;-0.0272;
1386.9000;0.2939;-0.0421;
1387.2000;0.3020;-0.0198;
1387.5000;0.3004;-0.0198;
1387.8000;0.3012;-0.0198;
1388.1000;0.3004;-0.0248;
1388.4000;0.2996;-0.0297;
1388.7000;0.3028;-0.0198;
1389.0000;0.3004;-0.0272;
1389.3000;0.3020;-0.0173;
1389.6000;0.3012;-0.0272;
1389.9000;0.3053;-0.0248;
1390.2000;0.2906;-0.0545;
1390.5000;0.3012;-0.0297;
1390.8000;0.3004;-0.0297;
1391.1000;0.3020;-0.0124;
1391.4000;0.2996;-0.0149;
1391.7000;0.3012;-0.0074;
1392.0000;0.2996;-0.0198;
1392.3000;0.3020;-0.0149;
1392.6000;0.3004;-0.0173;
1392.9000;0.3004;-0.0074;
1393.2000;0.2996;-0.0074;
1393.5000;0.3012;-0.0074;
1393.8000;0.3012;-0.0050;
1394.1000;0.2996;-0.0074;
1394.4000;0.3004;-0.0149;
1394.7000;0.2996;-0.0198;
1395.0000;0.2996;-0.0223;
1395.3000;0.3004;-0.0124;
1395.6000;0.3004;-0.0149;
1395.9000;0.3004;-0.0173;
1396.2000;0.3004;-0.0248;
1396.5000;0.3004;-0.0396;
1396.8000;0.3004;-0.0470;
1397.1000;0.3004;-0.0470;
1397.4000;0.2996;-0.0520;
1397.7000;0.3004;-0.0470;
1398.0000;0.3012;-0.0520;
1398.3000;0.3044;-0.0396;
1398.6000;0.2996;-0.0446;
1398.9000;0.3004;-0.0396;
1399.2000;0.3004;-0.0421;
1399.5000;0.3053;-0.0297;
1399.8000;0.3012;-0.0297;
