time/ms;Fluo/V;P700 deltaI/I x10³;
-199.8000;0.4501;-0.0074;
-199.5000;0.4501;-0.0050;
-199.2000;0.4510;-0.0025;
-198.9000;0.4510;-0.0025;
-198.6000;0.4510;0.0000;
-198.3000;0.4510;-0.0025;
-198.0000;0.4510;0.0000;
-197.7000;0.4510;0.0000;
-197.4000;0.4567;0.0248;
-197.1000;0.4526;0.0149;
-196.8000;0.4510;0.0149;
-196.5000;0.4501;0.0198;
-196.2000;0.4518;0.0223;
-195.9000;0.4518;0.0223;
-195.6000;0.4518;0.0173;
-195.3000;0.4510;0.0173;
-195.0000;0.4518;0.0198;
-194.7000;0.4518;0.0272;
-194.4000;0.4518;0.0272;
-194.1000;0.4501;0.0149;
-193.8000;0.4526;0.0149;
-193.5000;0.4510;0.0198;
-193.2000;0.4526;0.0198;
-192.9000;0.4501;0.0124;
-192.6000;0.4510;0.0074;
-192.3000;0.4518;0.0124;
-192.0000;0.4518;0.0124;
-191.7000;0.4501;0.0074;
-191.4000;0.4501;0.0074;
-191.1000;0.4501;0.0124;
-190.8000;0.4583;0.0371;
-190.5000;0.4510;0.0248;
-190.2000;0.4510;0.0198;
-189.9000;0.4526;0.0223;
-189.6000;0.4567;0.0322;
-189.3000;0.4526;0.0347;
-189.0000;0.4518;0.0396;
-188.7000;0.4518;0.0272;
-188.4000;0.4510;0.0198;
-188.1000;0.4542;0.0223;
-187.8000;0.4501;0.0099;
-187.5000;0.4493;0.0074;
-187.2000;0.4518;0.0173;
-186.9000;0.4518;0.0248;
-186.6000;0.4493;0.0248;
-186.3000;0.4501;0.0173;
-186.0000;0.4518;0.0198;
-185.7000;0.4518;0.0173;
-185.4000;0.4510;0.0248;
-185.1000;0.4485;0.0124;
-184.8000;0.4510;0.0248;
-184.5000;0.4510;0.0198;
-184.2000;0.4534;0.0297;
-183.9000;0.4501;0.0099;
-183.6000;0.4510;0.0099;
-183.3000;0.4518;0.0149;
-183.0000;0.4501;0.0297;
-182.7000;0.4526;0.0421;
-182.4000;0.4526;0.0396;
-182.1000;0.4558;0.0446;
-181.8000;0.4510;0.0322;
-181.5000;0.4510;0.0297;
-181.2000;0.4485;0.0272;
-180.9000;0.4493;0.0272;
-180.6000;0.4518;0.0297;
-180.3000;0.4510;0.0272;
-180.0000;0.4501;0.0272;
-179.7000;0.4501;0.0297;
-179.4000;0.4518;0.0371;
-179.1000;0.4526;0.0297;
-178.8000;0.4518;0.0248;
-178.5000;0.4510;0.0223;
-178.2000;0.4518;0.0223;
-177.9000;0.4518;0.0223;
-177.6000;0.4501;0.0198;
-177.3000;0.4558;0.0371;
-177.0000;0.4518;0.0198;
-176.7000;0.4526;0.0198;
-176.4000;0.4558;0.0322;
-176.1000;0.4534;0.0248;
-175.8000;0.4501;0.0074;
-175.5000;0.4493;0.0050;
-175.2000;0.4493;0.0074;
-174.9000;0.4469;0.0000;
-174.6000;0.4510;0.0050;
-174.3000;0.4510;0.0050;
-174.0000;0.4510;0.0050;
-173.7000;0.4485;0.0099;
-173.4000;0.4558;0.0297;
-173.1000;0.4501;0.0223;
-172.8000;0.4526;0.0248;
-172.5000;0.4493;0.0173;
-172.2000;0.4518;0.0198;
-171.9000;0.4518;0.0198;
-171.6000;0.4526;0.0198;
-171.3000;0.4526;0.0272;
-171.0000;0.4501;0.0347;
-170.7000;0.4493;0.0297;
-170.4000;0.4526;0.0322;
-170.1000;0.4501;0.0198;
-169.8000;0.4501;0.0223;
-169.5000;0.4510;0.0248;
-169.2000;0.4518;0.0248;
-168.9000;0.4526;0.0297;
-168.6000;0.4501;0.0149;
-168.3000;0.4501;0.0198;
-168.0000;0.4518;0.0297;
-167.7000;0.4461;0.0173;
-167.4000;0.4428;0.0074;
-167.1000;0.4477;0.0124;
-166.8000;0.4510;0.0272;
-166.5000;0.4510;0.0272;
-166.2000;0.4526;0.0297;
-165.9000;0.4501;0.0173;
-165.6000;0.4510;0.0149;
-165.3000;0.4493;0.0099;
-165.0000;0.4510;0.0099;
-164.7000;0.4485;0.0198;
-164.4000;0.4493;0.0272;
-164.1000;0.4485;0.0272;
-163.8000;0.4526;0.0396;
-163.5000;0.4526;0.0322;
-163.2000;0.4534;0.0396;
-162.9000;0.4493;0.0297;
-162.6000;0.4518;0.0396;
-162.3000;0.4534;0.0446;
-162.0000;0.4518;0.0421;
-161.7000;0.4510;0.0421;
-161.4000;0.4510;0.0371;
-161.1000;0.4534;0.0371;
-160.8000;0.4526;0.0396;
-160.5000;0.4501;0.0396;
-160.2000;0.4501;0.0396;
-159.9000;0.4501;0.0446;
-159.6000;0.4510;0.0520;
-159.3000;0.4501;0.0470;
-159.0000;0.4501;0.0421;
-158.7000;0.4518;0.0322;
-158.4000;0.4518;0.0396;
-158.1000;0.4510;0.0347;
-157.8000;0.4542;0.0470;
-157.5000;0.4526;0.0396;
-157.2000;0.4518;0.0371;
-156.9000;0.4510;0.0297;
-156.6000;0.4510;0.0297;
-156.3000;0.4477;0.0198;
-156.0000;0.4518;0.0272;
-155.7000;0.4510;0.0198;
-155.4000;0.4510;0.0149;
-155.1000;0.4518;0.0173;
-154.8000;0.4518;0.0322;
-154.5000;0.4526;0.0322;
-154.2000;0.4518;0.0272;
-153.9000;0.4501;0.0223;
-153.6000;0.4518;0.0297;
-153.3000;0.4469;0.0272;
-153.0000;0.4518;0.0371;
-152.7000;0.4510;0.0272;
-152.4000;0.4444;0.0149;
-152.1000;0.4518;0.0446;
-151.8000;0.4469;0.0347;
-151.5000;0.4493;0.0396;
-151.2000;0.4493;0.0396;
-150.9000;0.4501;0.0446;
-150.6000;0.4510;0.0470;
-150.3000;0.4493;0.0421;
-150.0000;0.4510;0.0495;
-149.7000;0.4550;0.0495;
-149.4000;0.4510;0.0421;
-149.1000;0.4526;0.0545;
-148.8000;0.4485;0.0495;
-148.5000;0.4518;0.0520;
-148.2000;0.4518;0.0520;
-147.9000;0.4550;0.0545;
-147.6000;0.4510;0.0371;
-147.3000;0.4510;0.0347;
-147.0000;0.4518;0.0297;
-146.7000;0.4510;0.0272;
-146.4000;0.4518;0.0272;
-146.1000;0.4510;0.0198;
-145.8000;0.4534;0.0272;
-145.5000;0.4550;0.0347;
-145.2000;0.4501;0.0198;
-144.9000;0.4493;0.0248;
-144.6000;0.4518;0.0248;
-144.3000;0.4518;0.0297;
-144.0000;0.4550;0.0347;
-143.7000;0.4510;0.0223;
-143.4000;0.4501;0.0272;
-143.1000;0.4534;0.0347;
-142.8000;0.4526;0.0371;
-142.5000;0.4526;0.0371;
-142.2000;0.4510;0.0446;
-141.9000;0.4501;0.0520;
-141.6000;0.4518;0.0520;
-141.3000;0.4518;0.0520;
-141.0000;0.4510;0.0470;
-140.7000;0.4534;0.0520;
-140.4000;0.4526;0.0495;
-140.1000;0.4526;0.0371;
-139.8000;0.4526;0.0421;
-139.5000;0.4526;0.0520;
-139.2000;0.4510;0.0495;
-138.9000;0.4534;0.0421;
-138.6000;0.4518;0.0446;
-138.3000;0.4510;0.0347;
-138.0000;0.4501;0.0272;
-137.7000;0.4526;0.0421;
-137.4000;0.4510;0.0421;
-137.1000;0.4518;0.0371;
-136.8000;0.4493;0.0322;
-136.5000;0.4510;0.0371;
-136.2000;0.4501;0.0371;
-135.9000;0.4469;0.0297;
-135.6000;0.4510;0.0297;
-135.3000;0.4510;0.0371;
-135.0000;0.4510;0.0421;
-134.7000;0.4485;0.0421;
-134.4000;0.4501;0.0396;
-134.1000;0.4534;0.0347;
-133.8000;0.4518;0.0371;
-133.5000;0.4518;0.0347;
-133.2000;0.4510;0.0297;
-132.9000;0.4501;0.0347;
-132.6000;0.4469;0.0272;
-132.3000;0.4501;0.0347;
-132.0000;0.4501;0.0396;
-131.7000;0.4550;0.0470;
-131.4000;0.4501;0.0421;
-131.1000;0.4534;0.0421;
-130.8000;0.4501;0.0421;
-130.5000;0.4526;0.0371;
-130.2000;0.4518;0.0446;
-129.9000;0.4518;0.0446;
-129.6000;0.4510;0.0396;
-129.3000;0.4518;0.0446;
-129.0000;0.4510;0.0446;
-128.7000;0.4510;0.0495;
-128.4000;0.4510;0.0495;
-128.1000;0.4518;0.0644;
-127.8000;0.4534;0.0743;
-127.5000;0.4510;0.0619;
-127.2000;0.4510;0.0545;
-126.9000;0.4583;0.0669;
-126.6000;0.4518;0.0495;
-126.3000;0.4436;0.0347;
-126.0000;0.4510;0.0545;
-125.7000;0.4485;0.0421;
-125.4000;0.4510;0.0446;
-125.1000;0.4534;0.0470;
-124.8000;0.4493;0.0446;
-124.5000;0.4510;0.0495;
-124.2000;0.4510;0.0570;
-123.9000;0.4510;0.0619;
-123.6000;0.4518;0.0570;
-123.3000;0.4526;0.0495;
-123.0000;0.4534;0.0545;
-122.7000;0.4558;0.0619;
-122.4000;0.4501;0.0446;
-122.1000;0.4518;0.0446;
-121.8000;0.4526;0.0520;
-121.5000;0.4550;0.0619;
-121.2000;0.4501;0.0470;
-120.9000;0.4501;0.0470;
-120.6000;0.4453;0.0322;
-120.3000;0.4510;0.0396;
-120.0000;0.4518;0.0446;
-119.7000;0.4607;0.0743;
-119.4000;0.4501;0.0347;
-119.1000;0.4526;0.0446;
-118.8000;0.4526;0.0520;
-118.5000;0.4526;0.0619;
-118.2000;0.4518;0.0594;
-117.9000;0.4534;0.0619;
-117.6000;0.4550;0.0669;
-117.3000;0.4510;0.0594;
-117.0000;0.4501;0.0669;
-116.7000;0.4501;0.0693;
-116.4000;0.4510;0.0718;
-116.1000;0.4510;0.0644;
-115.8000;0.4510;0.0693;
-115.5000;0.4510;0.0768;
-115.2000;0.4501;0.0743;
-114.9000;0.4510;0.0644;
-114.6000;0.4518;0.0619;
-114.3000;0.4518;0.0594;
-114.0000;0.4510;0.0545;
-113.7000;0.4510;0.0545;
-113.4000;0.4526;0.0570;
-113.1000;0.4518;0.0520;
-112.8000;0.4493;0.0470;
-112.5000;0.4493;0.0347;
-112.2000;0.4501;0.0347;
-111.9000;0.4534;0.0446;
-111.6000;0.4493;0.0371;
-111.3000;0.4461;0.0223;
-111.0000;0.4518;0.0371;
-110.7000;0.4501;0.0297;
-110.4000;0.4501;0.0272;
-110.1000;0.4493;0.0272;
-109.8000;0.4510;0.0149;
-109.5000;0.4510;0.0149;
-109.2000;0.4493;0.0173;
-108.9000;0.4510;0.0198;
-108.6000;0.4510;0.0198;
-108.3000;0.4558;0.0347;
-108.0000;0.4534;0.0272;
-107.7000;0.4518;0.0297;
-107.4000;0.4501;0.0248;
-107.1000;0.4501;0.0223;
-106.8000;0.4518;0.0248;
-106.5000;0.4518;0.0322;
-106.2000;0.4510;0.0297;
-105.9000;0.4518;0.0272;
-105.6000;0.4510;0.0198;
-105.3000;0.4518;0.0149;
-105.0000;0.4493;0.0149;
-104.7000;0.4510;0.0198;
-104.4000;0.4510;0.0198;
-104.1000;0.4510;0.0297;
-103.8000;0.4518;0.0297;
-103.5000;0.4558;0.0421;
-103.2000;0.4493;0.0223;
-102.9000;0.4526;0.0272;
-102.6000;0.4510;0.0248;
-102.3000;0.4518;0.0272;
-102.0000;0.4501;0.0322;
-101.7000;0.4461;0.0198;
-101.4000;0.4534;0.0421;
-101.1000;0.4534;0.0421;
-100.8000;0.4518;0.0446;
-100.5000;0.4558;0.0470;
-100.2000;0.4518;0.0371;
-99.9000;0.4518;0.0396;
-99.6000;0.4485;0.0371;
-99.3000;0.4510;0.0470;
-99.0000;0.4526;0.0495;
-98.7000;0.4444;0.0272;
-98.4000;0.4510;0.0470;
-98.1000;0.4518;0.0520;
-97.8000;0.4510;0.0644;
-97.5000;0.4501;0.0545;
-97.2000;0.4493;0.0421;
-96.9000;0.4510;0.0371;
-96.6000;0.4444;0.0198;
-96.3000;0.4510;0.0322;
-96.0000;0.4469;0.0272;
-95.7000;0.4510;0.0347;
-95.4000;0.4558;0.0396;
-95.1000;0.4526;0.0421;
-94.8000;0.4510;0.0347;
-94.5000;0.4518;0.0272;
-94.2000;0.4493;0.0248;
-93.9000;0.4510;0.0272;
-93.6000;0.4526;0.0297;
-93.3000;0.4501;0.0272;
-93.0000;0.4534;0.0396;
-92.7000;0.4534;0.0470;
-92.4000;0.4518;0.0470;
-92.1000;0.4534;0.0520;
-91.8000;0.4510;0.0421;
-91.5000;0.4526;0.0421;
-91.2000;0.4518;0.0371;
-90.9000;0.4518;0.0297;
-90.6000;0.4501;0.0248;
-90.3000;0.4518;0.0297;
-90.0000;0.4526;0.0371;
-89.7000;0.4510;0.0347;
-89.4000;0.4518;0.0297;
-89.1000;0.4510;0.0248;
-88.8000;0.4526;0.0322;
-88.5000;0.4518;0.0347;
-88.2000;0.4501;0.0297;
-87.9000;0.4493;0.0272;
-87.6000;0.4518;0.0297;
-87.3000;0.4501;0.0322;
-87.0000;0.4550;0.0421;
-86.7000;0.4477;0.0149;
-86.4000;0.4526;0.0297;
-86.1000;0.4485;0.0297;
-85.8000;0.4567;0.0446;
-85.5000;0.4526;0.0248;
-85.2000;0.4518;0.0248;
-84.9000;0.4501;0.0248;
-84.6000;0.4469;0.0149;
-84.3000;0.4510;0.0272;
-84.0000;0.4510;0.0297;
-83.7000;0.4510;0.0297;
-83.4000;0.4510;0.0347;
-83.1000;0.4526;0.0396;
-82.8000;0.4518;0.0470;
-82.5000;0.4518;0.0495;
-82.2000;0.4510;0.0495;
-81.9000;0.4510;0.0570;
-81.6000;0.4534;0.0594;
-81.3000;0.4518;0.0619;
-81.0000;0.4534;0.0619;
-80.7000;0.4510;0.0570;
-80.4000;0.4534;0.0619;
-80.1000;0.4534;0.0545;
-79.8000;0.4534;0.0570;
-79.5000;0.4518;0.0520;
-79.2000;0.4485;0.0297;
-78.9000;0.4493;0.0347;
-78.6000;0.4510;0.0371;
-78.3000;0.4501;0.0371;
-78.0000;0.4510;0.0396;
-77.7000;0.4510;0.0396;
-77.4000;0.4526;0.0495;
-77.1000;0.4526;0.0495;
-76.8000;0.4493;0.0421;
-76.5000;0.4518;0.0446;
-76.2000;0.4501;0.0396;
-75.9000;0.4526;0.0470;
-75.6000;0.4510;0.0396;
-75.3000;0.4518;0.0396;
-75.0000;0.4501;0.0421;
-74.7000;0.4558;0.0570;
-74.4000;0.4485;0.0396;
-74.1000;0.4550;0.0421;
-73.8000;0.4518;0.0347;
-73.5000;0.4461;0.0248;
-73.2000;0.4526;0.0371;
-72.9000;0.4518;0.0396;
-72.6000;0.4469;0.0322;
-72.3000;0.4510;0.0396;
-72.0000;0.4501;0.0322;
-71.7000;0.4518;0.0297;
-71.4000;0.4501;0.0297;
-71.1000;0.4510;0.0272;
-70.8000;0.4518;0.0272;
-70.5000;0.4526;0.0248;
-70.2000;0.4510;0.0248;
-69.9000;0.4518;0.0272;
-69.6000;0.4526;0.0347;
-69.3000;0.4518;0.0272;
-69.0000;0.4518;0.0248;
-68.7000;0.4518;0.0248;
-68.4000;0.4501;0.0322;
-68.1000;0.4534;0.0322;
-67.8000;0.4501;0.0347;
-67.5000;0.4510;0.0297;
-67.2000;0.4461;0.0297;
-66.9000;0.4485;0.0297;
-66.6000;0.4501;0.0272;
-66.3000;0.4518;0.0198;
-66.0000;0.4510;0.0272;
-65.7000;0.4518;0.0322;
-65.4000;0.4510;0.0272;
-65.1000;0.4485;0.0198;
-64.8000;0.4501;0.0248;
-64.5000;0.4534;0.0297;
-64.2000;0.4526;0.0223;
-63.9000;0.4510;0.0322;
-63.6000;0.4534;0.0396;
-63.3000;0.4493;0.0347;
-63.0000;0.4510;0.0297;
-62.7000;0.4510;0.0347;
-62.4000;0.4501;0.0421;
-62.1000;0.4485;0.0396;
-61.8000;0.4591;0.0619;
-61.5000;0.4493;0.0322;
-61.2000;0.4493;0.0272;
-60.9000;0.4501;0.0223;
-60.6000;0.4493;0.0149;
-60.3000;0.4461;0.0074;
-60.0000;0.4493;0.0173;
-59.7000;0.4444;0.0025;
-59.4000;0.4501;0.0149;
-59.1000;0.4510;0.0124;
-58.8000;0.4477;-0.0025;
-58.5000;0.4485;0.0025;
-58.2000;0.4518;0.0173;
-57.9000;0.4518;0.0272;
-57.6000;0.4534;0.0371;
-57.3000;0.4542;0.0470;
-57.0000;0.4501;0.0347;
-56.7000;0.4501;0.0248;
-56.4000;0.4469;0.0149;
-56.1000;0.4501;0.0173;
-55.8000;0.4493;0.0198;
-55.5000;0.4510;0.0124;
-55.2000;0.4518;0.0149;
-54.9000;0.4518;0.0272;
-54.6000;0.4510;0.0248;
-54.3000;0.4518;0.0248;
-54.0000;0.4518;0.0248;
-53.7000;0.4493;0.0149;
-53.4000;0.4510;0.0198;
-53.1000;0.4469;0.0198;
-52.8000;0.4510;0.0371;
-52.5000;0.4510;0.0347;
-52.2000;0.4493;0.0371;
-51.9000;0.4501;0.0446;
-51.6000;0.4501;0.0446;
-51.3000;0.4477;0.0371;
-51.0000;0.4510;0.0347;
-50.7000;0.4510;0.0297;
-50.4000;0.4510;0.0223;
-50.1000;0.4510;0.0322;
-49.8000;0.4501;0.0396;
-49.5000;0.4453;0.0322;
-49.2000;0.4518;0.0470;
-48.9000;0.4501;0.0495;
-48.6000;0.4501;0.0470;
-48.3000;0.4485;0.0495;
-48.0000;0.4485;0.0470;
-47.7000;0.4493;0.0421;
-47.4000;0.4493;0.0322;
-47.1000;0.4501;0.0297;
-46.8000;0.4526;0.0371;
-46.5000;0.4485;0.0347;
-46.2000;0.4526;0.0371;
-45.9000;0.4493;0.0198;
-45.6000;0.4510;0.0198;
-45.3000;0.4501;0.0198;
-45.0000;0.4518;0.0248;
-44.7000;0.4518;0.0272;
-44.4000;0.4510;0.0248;
-44.1000;0.4518;0.0173;
-43.8000;0.4510;0.0149;
-43.5000;0.4518;0.0173;
-43.2000;0.4534;0.0223;
-42.9000;0.4477;0.0149;
-42.6000;0.4526;0.0248;
-42.3000;0.4518;0.0248;
-42.0000;0.4477;0.0124;
-41.7000;0.4534;0.0223;
-41.4000;0.4534;0.0297;
-41.1000;0.4510;0.0198;
-40.8000;0.4534;0.0223;
-40.5000;0.4518;0.0248;
-40.2000;0.4501;0.0149;
-39.9000;0.4534;0.0149;
-39.6000;0.4534;0.0322;
-39.3000;0.4518;0.0297;
-39.0000;0.4510;0.0322;
-38.7000;0.4518;0.0371;
-38.4000;0.4510;0.0272;
-38.1000;0.4501;0.0272;
-37.8000;0.4510;0.0272;
-37.5000;0.4501;0.0198;
-37.2000;0.4501;0.0099;
-36.9000;0.4493;0.0099;
-36.6000;0.4510;0.0173;
-36.3000;0.4542;0.0149;
-36.0000;0.4501;0.0149;
-35.7000;0.4542;0.0223;
-35.4000;0.4526;0.0198;
-35.1000;0.4501;0.0050;
-34.8000;0.4526;0.0149;
-34.5000;0.4526;0.0149;
-34.2000;0.4501;0.0198;
-33.9000;0.4510;0.0248;
-33.6000;0.4485;0.0248;
-33.3000;0.4469;0.0149;
-33.0000;0.4534;0.0248;
-32.7000;0.4518;0.0198;
-32.4000;0.4485;0.0198;
-32.1000;0.4526;0.0223;
-31.8000;0.4518;0.0198;
-31.5000;0.4583;0.0347;
-31.2000;0.4510;0.0074;
-30.9000;0.4526;0.0074;
-30.6000;0.4510;0.0074;
-30.3000;0.4485;0.0074;
-30.0000;0.4510;0.0124;
-29.7000;0.4493;0.0099;
-29.4000;0.4501;0.0124;
-29.1000;0.4518;0.0099;
-28.8000;0.4493;0.0099;
-28.5000;0.4510;0.0223;
-28.2000;0.4501;0.0248;
-27.9000;0.4493;0.0173;
-27.6000;0.4510;0.0173;
-27.3000;0.4501;0.0149;
-27.0000;0.4501;0.0248;
-26.7000;0.4493;0.0173;
-26.4000;0.4518;0.0198;
-26.1000;0.4501;0.0099;
-25.8000;0.4518;0.0173;
-25.5000;0.4477;0.0074;
-25.2000;0.4518;0.0198;
-24.9000;0.4510;0.0124;
-24.6000;0.4518;0.0173;
-24.3000;0.4526;0.0322;
-24.0000;0.4518;0.0371;
-23.7000;0.4501;0.0272;
-23.4000;0.4485;0.0198;
-23.1000;0.4501;0.0198;
-22.8000;0.4510;0.0248;
-22.5000;0.4493;0.0173;
-22.2000;0.4501;0.0149;
-21.9000;0.4510;0.0198;
-21.6000;0.4518;0.0248;
-21.3000;0.4518;0.0272;
-21.0000;0.4501;0.0223;
-20.7000;0.4518;0.0198;
-20.4000;0.4510;0.0198;
-20.1000;0.4534;0.0322;
-19.8000;0.4518;0.0223;
-19.5000;0.4510;0.0149;
-19.2000;0.4493;0.0149;
-18.9000;0.4501;0.0099;
-18.6000;0.4493;0.0149;
-18.3000;0.4493;0.0149;
-18.0000;0.4518;0.0099;
-17.7000;0.4501;0.0000;
-17.4000;0.4510;0.0000;
-17.1000;0.4510;0.0000;
-16.8000;0.4501;0.0000;
-16.5000;0.4510;-0.0050;
-16.2000;0.4510;-0.0025;
-15.9000;0.4501;0.0025;
-15.6000;0.4518;0.0149;
-15.3000;0.4518;0.0198;
-15.0000;0.4518;0.0297;
-14.7000;0.4518;0.0347;
-14.4000;0.4493;0.0272;
-14.1000;0.4518;0.0297;
-13.8000;0.4510;0.0421;
-13.5000;0.4526;0.0520;
-13.2000;0.4501;0.0545;
-12.9000;0.4510;0.0545;
-12.6000;0.4493;0.0470;
-12.3000;0.4493;0.0495;
-12.0000;0.4501;0.0495;
-11.7000;0.4501;0.0520;
-11.4000;0.4510;0.0446;
-11.1000;0.4526;0.0446;
-10.8000;0.4501;0.0347;
-10.5000;0.4542;0.0421;
-10.2000;0.4518;0.0272;
-9.9000;0.4526;0.0347;
-9.6000;0.4558;0.0446;
-9.3000;0.4485;0.0173;
-9.0000;0.4469;0.0124;
-8.7000;0.4510;0.0272;
-8.4000;0.4542;0.0396;
-8.1000;0.4542;0.0322;
-7.8000;0.4501;0.0272;
-7.5000;0.4501;0.0248;
-7.2000;0.4510;0.0198;
-6.9000;0.4518;0.0149;
-6.6000;0.4518;0.0124;
-6.3000;0.4526;0.0099;
-6.0000;0.4518;0.0025;
-5.7000;0.4510;0.0050;
-5.4000;0.4542;0.0025;
-5.1000;0.4534;0.0050;
-4.8000;0.4575;0.0173;
-4.5000;0.4550;0.0050;
-4.2000;0.4485;-0.0124;
-3.9000;0.4510;-0.0025;
-3.6000;0.4534;0.0149;
-3.3000;0.4518;0.0173;
-3.0000;0.4526;0.0124;
-2.7000;0.4518;0.0124;
-2.4000;0.4518;0.0074;
-2.1000;0.4534;0.0149;
-1.8000;0.4510;0.0099;
-1.5000;0.4493;0.0099;
-1.2000;0.4501;0.0099;
-0.9000;0.4518;0.0149;
-0.6000;0.4501;0.0074;
-0.3000;0.4493;0.0074;
0.0000;0.4493;0.0074;
0.3000;0.4510;-0.0198;
0.6000;0.4542;-0.0074;
0.9000;0.4558;0.0050;
1.2000;0.4550;0.0223;
1.5000;0.4599;0.0470;
1.8000;0.4648;0.0718;
2.1000;0.4599;0.0718;
2.4000;0.4615;0.0891;
2.7000;0.4705;0.1164;
3.0000;0.4624;0.1065;
3.3000;0.4624;0.1065;
3.6000;0.4632;0.1065;
3.9000;0.4632;0.1065;
4.2000;0.4640;0.1164;
4.5000;0.4648;0.1213;
4.8000;0.4615;0.1238;
5.1000;0.4632;0.1238;
5.4000;0.4640;0.1312;
5.7000;0.4640;0.1337;
6.0000;0.4599;0.1213;
6.3000;0.4640;0.1486;
6.6000;0.4664;0.1511;
6.9000;0.4656;0.1436;
7.2000;0.4656;0.1486;
7.5000;0.4656;0.1461;
7.8000;0.4656;0.1461;
8.1000;0.4672;0.1535;
8.4000;0.4672;0.1486;
8.7000;0.4664;0.1411;
9.0000;0.4664;0.1387;
9.3000;0.4705;0.1511;
9.6000;0.4681;0.1535;
9.9000;0.4681;0.1511;
10.2000;0.4672;0.1436;
10.5000;0.4697;0.1585;
10.8000;0.4672;0.1585;
11.1000;0.4689;0.1585;
11.4000;0.4681;0.1511;
11.7000;0.4762;0.1783;
12.0000;0.4681;0.1560;
12.3000;0.4656;0.1511;
12.6000;0.4664;0.1535;
12.9000;0.4697;0.1634;
13.2000;0.4713;0.1733;
13.5000;0.4713;0.1709;
13.8000;0.4697;0.1684;
14.1000;0.4681;0.1659;
14.4000;0.4705;0.1709;
14.7000;0.4656;0.1511;
15.0000;0.4721;0.1634;
15.3000;0.4697;0.1634;
15.6000;0.4746;0.1684;
15.9000;0.4811;0.1783;
16.2000;0.4729;0.1585;
16.5000;0.4713;0.1585;
16.8000;0.4697;0.1535;
17.1000;0.4721;0.1535;
17.4000;0.4746;0.1560;
17.7000;0.4713;0.1411;
18.0000;0.4721;0.1362;
18.3000;0.4737;0.1411;
18.6000;0.4737;0.1312;
18.9000;0.4721;0.1238;
19.2000;0.4737;0.1312;
19.5000;0.4778;0.1337;
19.8000;0.4737;0.1288;
20.1000;0.4721;0.1263;
20.4000;0.4697;0.1263;
20.7000;0.4737;0.1362;
21.0000;0.4729;0.1337;
21.3000;0.4754;0.1486;
21.6000;0.4737;0.1535;
21.9000;0.4721;0.1585;
22.2000;0.4762;0.1783;
22.5000;0.4729;0.1659;
22.8000;0.4762;0.1733;
23.1000;0.4754;0.1709;
23.4000;0.4746;0.1659;
23.7000;0.4754;0.1634;
24.0000;0.4778;0.1634;
24.3000;0.4746;0.1511;
24.6000;0.4746;0.1461;
24.9000;0.4746;0.1436;
25.2000;0.4754;0.1511;
25.5000;0.4746;0.1461;
25.8000;0.4737;0.1461;
26.1000;0.4746;0.1535;
26.4000;0.4754;0.1535;
26.7000;0.4754;0.1511;
27.0000;0.4737;0.1436;
27.3000;0.4737;0.1461;
27.6000;0.4778;0.1560;
27.9000;0.4770;0.1585;
28.2000;0.4762;0.1634;
28.5000;0.4770;0.1585;
28.8000;0.4770;0.1610;
29.1000;0.4762;0.1610;
29.4000;0.4778;0.1634;
29.7000;0.4754;0.1610;
30.0000;0.4721;0.1560;
30.3000;0.4762;0.1610;
30.6000;0.4754;0.1535;
30.9000;0.4746;0.1560;
31.2000;0.4770;0.1634;
31.5000;0.4770;0.1684;
31.8000;0.4754;0.1733;
32.1000;0.4721;0.1684;
32.4000;0.4713;0.1585;
32.7000;0.4786;0.1733;
33.0000;0.4770;0.1758;
33.3000;0.4803;0.1907;
33.6000;0.4754;0.1783;
33.9000;0.4754;0.1709;
34.2000;0.4811;0.1758;
34.5000;0.4770;0.1684;
34.8000;0.4778;0.1684;
35.1000;0.4762;0.1610;
35.4000;0.4737;0.1659;
35.7000;0.4819;0.1783;
36.0000;0.4778;0.1634;
36.3000;0.4754;0.1585;
36.6000;0.4835;0.1808;
36.9000;0.4843;0.1907;
37.2000;0.4794;0.1709;
37.5000;0.4770;0.1634;
37.8000;0.4827;0.1733;
38.1000;0.4737;0.1535;
38.4000;0.4762;0.1535;
38.7000;0.4794;0.1659;
39.0000;0.4868;0.1832;
39.3000;0.4770;0.1560;
39.6000;0.4770;0.1535;
39.9000;0.4794;0.1634;
40.2000;0.4778;0.1560;
40.5000;0.4778;0.1585;
40.8000;0.4754;0.1560;
41.1000;0.4770;0.1560;
41.4000;0.4770;0.1535;
41.7000;0.4778;0.1610;
42.0000;0.4803;0.1709;
42.3000;0.4762;0.1560;
42.6000;0.4819;0.1684;
42.9000;0.4778;0.1659;
43.2000;0.4786;0.1709;
43.5000;0.4778;0.1634;
43.8000;0.4770;0.1560;
44.1000;0.4778;0.1709;
44.4000;0.4786;0.1882;
44.7000;0.4786;0.1882;
45.0000;0.4786;0.1808;
45.3000;0.4794;0.1808;
45.6000;0.4786;0.1733;
45.9000;0.4803;0.1709;
46.2000;0.4778;0.1684;
46.5000;0.4778;0.1733;
46.8000;0.4786;0.1808;
47.1000;0.4803;0.1783;
47.4000;0.4778;0.1684;
47.7000;0.4794;0.1684;
48.0000;0.4778;0.1709;
48.3000;0.4803;0.1733;
48.6000;0.4794;0.1733;
48.9000;0.4786;0.1684;
49.2000;0.4778;0.1634;
49.5000;0.4803;0.1684;
49.8000;0.4803;0.1709;
50.1000;0.4794;0.1684;
50.4000;0.4794;0.1709;
50.7000;0.4794;0.1709;
51.0000;0.4786;0.1659;
51.3000;0.4786;0.1610;
51.6000;0.4778;0.1560;
51.9000;0.4770;0.1610;
52.2000;0.4868;0.1808;
52.5000;0.4770;0.1511;
52.8000;0.4778;0.1585;
53.1000;0.4778;0.1634;
53.4000;0.4803;0.1684;
53.7000;0.4770;0.1535;
54.0000;0.4786;0.1585;
54.3000;0.4778;0.1585;
54.6000;0.4778;0.1585;
54.9000;0.4778;0.1535;
55.2000;0.4770;0.1585;
55.5000;0.4754;0.1560;
55.8000;0.4794;0.1634;
56.1000;0.4794;0.1659;
56.4000;0.4786;0.1659;
56.7000;0.4786;0.1511;
57.0000;0.4803;0.1560;
57.3000;0.4794;0.1535;
57.6000;0.4803;0.1585;
57.9000;0.4794;0.1610;
58.2000;0.4786;0.1634;
58.5000;0.4811;0.1709;
58.8000;0.4786;0.1709;
59.1000;0.4746;0.1610;
59.4000;0.4713;0.1461;
59.7000;0.4786;0.1560;
60.0000;0.4794;0.1511;
60.3000;0.4737;0.1411;
60.6000;0.4794;0.1634;
60.9000;0.4794;0.1659;
61.2000;0.4803;0.1610;
61.5000;0.4803;0.1610;
61.8000;0.4786;0.1659;
62.1000;0.4811;0.1783;
62.4000;0.4794;0.1808;
62.7000;0.4786;0.1832;
63.0000;0.4778;0.1832;
63.3000;0.4786;0.1808;
63.6000;0.4803;0.1733;
63.9000;0.4794;0.1634;
64.2000;0.4762;0.1585;
64.5000;0.4786;0.1585;
64.8000;0.4778;0.1585;
65.1000;0.4794;0.1585;
65.4000;0.4794;0.1535;
65.7000;0.4778;0.1511;
66.0000;0.4794;0.1535;
66.3000;0.4803;0.1535;
66.6000;0.4876;0.1758;
66.9000;0.4786;0.1535;
67.2000;0.4794;0.1560;
67.5000;0.4762;0.1486;
67.8000;0.4794;0.1585;
68.1000;0.4778;0.1610;
68.4000;0.4786;0.1610;
68.7000;0.4786;0.1659;
69.0000;0.4811;0.1659;
69.3000;0.4794;0.1659;
69.6000;0.4778;0.1610;
69.9000;0.4843;0.1684;
70.2000;0.4794;0.1461;
70.5000;0.4778;0.1387;
70.8000;0.4786;0.1461;
71.1000;0.4770;0.1288;
71.4000;0.4786;0.1263;
71.7000;0.4819;0.1387;
72.0000;0.4794;0.1337;
72.3000;0.4803;0.1387;
72.6000;0.4811;0.1461;
72.9000;0.4835;0.1511;
73.2000;0.4811;0.1411;
73.5000;0.4811;0.1486;
73.8000;0.4794;0.1560;
74.1000;0.4754;0.1411;
74.4000;0.4794;0.1634;
74.7000;0.4778;0.1511;
75.0000;0.4851;0.1684;
75.3000;0.4786;0.1511;
75.6000;0.4786;0.1634;
75.9000;0.4786;0.1585;
76.2000;0.4794;0.1560;
76.5000;0.4803;0.1535;
76.8000;0.4811;0.1511;
77.1000;0.4794;0.1486;
77.4000;0.4794;0.1461;
77.7000;0.4803;0.1511;
78.0000;0.4794;0.1486;
78.3000;0.4794;0.1387;
78.6000;0.4794;0.1461;
78.9000;0.4786;0.1362;
79.2000;0.4803;0.1461;
79.5000;0.4803;0.1461;
79.8000;0.4786;0.1411;
80.1000;0.4786;0.1461;
80.4000;0.4786;0.1461;
80.7000;0.4786;0.1486;
81.0000;0.4786;0.1461;
81.3000;0.4803;0.1486;
81.6000;0.4786;0.1486;
81.9000;0.4794;0.1486;
82.2000;0.4803;0.1511;
82.5000;0.4786;0.1535;
82.8000;0.4794;0.1486;
83.1000;0.4803;0.1511;
83.4000;0.4794;0.1486;
83.7000;0.4803;0.1461;
84.0000;0.4803;0.1486;
84.3000;0.4794;0.1486;
84.6000;0.4835;0.1560;
84.9000;0.4835;0.1634;
85.2000;0.4811;0.1511;
85.5000;0.4794;0.1461;
85.8000;0.4811;0.1486;
86.1000;0.4786;0.1486;
86.4000;0.4811;0.1535;
86.7000;0.4786;0.1486;
87.0000;0.4786;0.1511;
87.3000;0.4803;0.1511;
87.6000;0.4803;0.1560;
87.9000;0.4794;0.1511;
88.2000;0.4794;0.1560;
88.5000;0.4778;0.1634;
88.8000;0.4803;0.1634;
89.1000;0.4786;0.1560;
89.4000;0.4803;0.1610;
89.7000;0.4811;0.1585;
90.0000;0.4786;0.1511;
90.3000;0.4803;0.1511;
90.6000;0.4803;0.1535;
90.9000;0.4803;0.1486;
91.2000;0.4803;0.1486;
91.5000;0.4762;0.1486;
91.8000;0.4786;0.1610;
92.1000;0.4786;0.1634;
92.4000;0.4803;0.1659;
92.7000;0.4786;0.1535;
93.0000;0.4803;0.1585;
93.3000;0.4794;0.1436;
93.6000;0.4786;0.1461;
93.9000;0.4786;0.1535;
94.2000;0.4803;0.1560;
94.5000;0.4811;0.1486;
94.8000;0.4794;0.1486;
95.1000;0.4811;0.1560;
95.4000;0.4778;0.1511;
95.7000;0.4794;0.1511;
96.0000;0.4786;0.1560;
96.3000;0.4819;0.1610;
96.6000;0.4786;0.1634;
96.9000;0.4794;0.1585;
97.2000;0.4819;0.1486;
97.5000;0.4786;0.1337;
97.8000;0.4794;0.1362;
98.1000;0.4770;0.1362;
98.4000;0.4778;0.1486;
98.7000;0.4778;0.1535;
99.0000;0.4754;0.1387;
99.3000;0.4794;0.1535;
99.6000;0.4794;0.1634;
99.9000;0.4819;0.1659;
100.2000;0.4794;0.1585;
100.5000;0.4786;0.1511;
100.8000;0.4803;0.1610;
101.1000;0.4737;0.1436;
101.4000;0.4778;0.1535;
101.7000;0.4778;0.1461;
102.0000;0.4786;0.1461;
102.3000;0.4794;0.1511;
102.6000;0.4786;0.1411;
102.9000;0.4786;0.1387;
103.2000;0.4794;0.1362;
103.5000;0.4794;0.1411;
103.8000;0.4794;0.1337;
104.1000;0.4786;0.1337;
104.4000;0.4786;0.1362;
104.7000;0.4778;0.1213;
105.0000;0.4794;0.1213;
105.3000;0.4803;0.1164;
105.6000;0.4827;0.1238;
105.9000;0.4786;0.1164;
106.2000;0.4786;0.1164;
106.5000;0.4786;0.1189;
106.8000;0.4811;0.1238;
107.1000;0.4794;0.1337;
107.4000;0.4754;0.1288;
107.7000;0.4794;0.1461;
108.0000;0.4794;0.1461;
108.3000;0.4786;0.1486;
108.6000;0.4794;0.1560;
108.9000;0.4778;0.1486;
109.2000;0.4794;0.1560;
109.5000;0.4819;0.1511;
109.8000;0.4794;0.1411;
110.1000;0.4794;0.1411;
110.4000;0.4811;0.1461;
110.7000;0.4786;0.1436;
111.0000;0.4786;0.1461;
111.3000;0.4786;0.1436;
111.6000;0.4786;0.1461;
111.9000;0.4786;0.1511;
112.2000;0.4803;0.1436;
112.5000;0.4876;0.1684;
112.8000;0.4762;0.1387;
113.1000;0.4778;0.1511;
113.4000;0.4746;0.1387;
113.7000;0.4737;0.1461;
114.0000;0.4786;0.1610;
114.3000;0.4786;0.1659;
114.6000;0.4786;0.1585;
114.9000;0.4794;0.1511;
115.2000;0.4803;0.1461;
115.5000;0.4803;0.1461;
115.8000;0.4811;0.1486;
116.1000;0.4794;0.1362;
116.4000;0.4803;0.1362;
116.7000;0.4786;0.1411;
117.0000;0.4819;0.1486;
117.3000;0.4803;0.1436;
117.6000;0.4794;0.1387;
117.9000;0.4811;0.1486;
118.2000;0.4770;0.1411;
118.5000;0.4786;0.1362;
118.8000;0.4794;0.1387;
119.1000;0.4794;0.1411;
119.4000;0.4811;0.1461;
119.7000;0.4778;0.1411;
120.0000;0.4778;0.1461;
120.3000;0.4762;0.1535;
120.6000;0.4803;0.1634;
120.9000;0.4778;0.1585;
121.2000;0.4786;0.1535;
121.5000;0.4770;0.1610;
121.8000;0.4827;0.1659;
122.1000;0.4770;0.1610;
122.4000;0.4803;0.1610;
122.7000;0.4803;0.1560;
123.0000;0.4794;0.1610;
123.3000;0.4900;0.1882;
123.6000;0.4803;0.1634;
123.9000;0.4778;0.1560;
124.2000;0.4803;0.1560;
124.5000;0.4770;0.1436;
124.8000;0.4778;0.1436;
125.1000;0.4803;0.1461;
125.4000;0.4803;0.1411;
125.7000;0.4794;0.1436;
126.0000;0.4794;0.1511;
126.3000;0.4803;0.1461;
126.6000;0.4786;0.1486;
126.9000;0.4786;0.1486;
127.2000;0.4762;0.1511;
127.5000;0.4794;0.1486;
127.8000;0.4794;0.1535;
128.1000;0.4811;0.1560;
128.4000;0.4819;0.1535;
128.7000;0.4786;0.1362;
129.0000;0.4786;0.1312;
129.3000;0.4794;0.1312;
129.6000;0.4762;0.1288;
129.9000;0.4778;0.1387;
130.2000;0.4786;0.1411;
130.5000;0.4778;0.1436;
130.8000;0.4778;0.1436;
131.1000;0.4794;0.1511;
131.4000;0.4754;0.1362;
131.7000;0.4778;0.1362;
132.0000;0.4794;0.1387;
132.3000;0.4803;0.1411;
132.6000;0.4794;0.1461;
132.9000;0.4803;0.1461;
133.2000;0.4786;0.1486;
133.5000;0.4794;0.1461;
133.8000;0.4819;0.1411;
134.1000;0.4803;0.1312;
134.4000;0.4778;0.1312;
134.7000;0.4786;0.1238;
135.0000;0.4794;0.1139;
135.3000;0.4770;0.1065;
135.6000;0.4794;0.1114;
135.9000;0.4786;0.1189;
136.2000;0.4794;0.1312;
136.5000;0.4778;0.1288;
136.8000;0.4794;0.1362;
137.1000;0.4811;0.1387;
137.4000;0.4811;0.1362;
137.7000;0.4811;0.1337;
138.0000;0.4811;0.1312;
138.3000;0.4811;0.1312;
138.6000;0.4803;0.1288;
138.9000;0.4811;0.1288;
139.2000;0.4803;0.1213;
139.5000;0.4786;0.1164;
139.8000;0.4803;0.1189;
140.1000;0.4811;0.1263;
140.4000;0.4778;0.1189;
140.7000;0.4786;0.1189;
141.0000;0.4778;0.1213;
141.3000;0.4794;0.1263;
141.6000;0.4794;0.1238;
141.9000;0.4786;0.1263;
142.2000;0.4770;0.1263;
142.5000;0.4803;0.1312;
142.8000;0.4786;0.1312;
143.1000;0.4794;0.1312;
143.4000;0.4803;0.1288;
143.7000;0.4794;0.1312;
144.0000;0.4803;0.1387;
144.3000;0.4786;0.1337;
144.6000;0.4786;0.1213;
144.9000;0.4786;0.1288;
145.2000;0.4786;0.1189;
145.5000;0.4786;0.1337;
145.8000;0.4794;0.1486;
146.1000;0.4721;0.1411;
146.4000;0.4794;0.1486;
146.7000;0.4811;0.1511;
147.0000;0.4803;0.1461;
147.3000;0.4770;0.1362;
147.6000;0.4803;0.1486;
147.9000;0.4786;0.1511;
148.2000;0.4786;0.1486;
148.5000;0.4770;0.1436;
148.8000;0.4786;0.1585;
149.1000;0.4819;0.1610;
149.4000;0.4778;0.1436;
149.7000;0.4778;0.1387;
150.0000;0.4778;0.1337;
150.3000;0.4803;0.1461;
150.6000;0.4778;0.1461;
150.9000;0.4786;0.1411;
151.2000;0.4786;0.1387;
151.5000;0.4819;0.1461;
151.8000;0.4778;0.1436;
152.1000;0.4721;0.1337;
152.4000;0.4794;0.1535;
152.7000;0.4778;0.1560;
153.0000;0.4843;0.1808;
153.3000;0.4664;0.1312;
153.6000;0.4778;0.1659;
153.9000;0.4770;0.1634;
154.2000;0.4770;0.1560;
154.5000;0.4754;0.1511;
154.8000;0.4786;0.1511;
155.1000;0.4786;0.1511;
155.4000;0.4835;0.1634;
155.7000;0.4770;0.1411;
156.0000;0.4786;0.1511;
156.3000;0.4786;0.1461;
156.6000;0.4786;0.1461;
156.9000;0.4803;0.1486;
157.2000;0.4778;0.1461;
157.5000;0.4778;0.1461;
157.8000;0.4794;0.1511;
158.1000;0.4851;0.1659;
158.4000;0.4786;0.1511;
158.7000;0.4786;0.1436;
159.0000;0.4803;0.1411;
159.3000;0.4786;0.1337;
159.6000;0.4819;0.1362;
159.9000;0.4786;0.1337;
160.2000;0.4778;0.1312;
160.5000;0.4819;0.1436;
160.8000;0.4794;0.1337;
161.1000;0.4770;0.1288;
161.4000;0.4786;0.1337;
161.7000;0.4803;0.1362;
162.0000;0.4811;0.1411;
162.3000;0.4786;0.1411;
162.6000;0.4786;0.1411;
162.9000;0.4794;0.1387;
163.2000;0.4778;0.1337;
163.5000;0.4803;0.1411;
163.8000;0.4794;0.1411;
164.1000;0.4811;0.1436;
164.4000;0.4803;0.1337;
164.7000;0.4794;0.1337;
165.0000;0.4778;0.1238;
165.3000;0.4819;0.1312;
165.6000;0.4786;0.1362;
165.9000;0.4786;0.1411;
166.2000;0.4786;0.1337;
166.5000;0.4786;0.1411;
166.8000;0.4778;0.1387;
167.1000;0.4754;0.1337;
167.4000;0.4746;0.1288;
167.7000;0.4786;0.1387;
168.0000;0.4754;0.1213;
168.3000;0.4819;0.1436;
168.6000;0.4778;0.1387;
168.9000;0.4754;0.1312;
169.2000;0.4794;0.1411;
169.5000;0.4786;0.1461;
169.8000;0.4786;0.1411;
170.1000;0.4794;0.1511;
170.4000;0.4794;0.1535;
170.7000;0.4811;0.1511;
171.0000;0.4794;0.1461;
171.3000;0.4811;0.1610;
171.6000;0.4778;0.1535;
171.9000;0.4794;0.1511;
172.2000;0.4803;0.1486;
172.5000;0.4811;0.1486;
172.8000;0.4803;0.1362;
173.1000;0.4819;0.1362;
173.4000;0.4746;0.1263;
173.7000;0.4794;0.1411;
174.0000;0.4770;0.1362;
174.3000;0.4794;0.1312;
174.6000;0.4770;0.1362;
174.9000;0.4811;0.1362;
175.2000;0.4803;0.1362;
175.5000;0.4786;0.1436;
175.8000;0.4786;0.1535;
176.1000;0.4794;0.1535;
176.4000;0.4754;0.1411;
176.7000;0.4786;0.1511;
177.0000;0.4794;0.1486;
177.3000;0.4786;0.1486;
177.6000;0.4794;0.1511;
177.9000;0.4803;0.1560;
178.2000;0.4811;0.1585;
178.5000;0.4819;0.1585;
178.8000;0.4811;0.1560;
179.1000;0.4811;0.1585;
179.4000;0.4770;0.1511;
179.7000;0.4803;0.1659;
180.0000;0.4746;0.1486;
180.3000;0.4811;0.1610;
180.6000;0.4762;0.1486;
180.9000;0.4770;0.1535;
181.2000;0.4786;0.1585;
181.5000;0.4746;0.1411;
181.8000;0.4786;0.1486;
182.1000;0.4778;0.1387;
182.4000;0.4835;0.1610;
182.7000;0.4778;0.1486;
183.0000;0.4786;0.1486;
183.3000;0.4794;0.1486;
183.6000;0.4762;0.1486;
183.9000;0.4786;0.1511;
184.2000;0.4803;0.1560;
184.5000;0.4754;0.1461;
184.8000;0.4778;0.1461;
185.1000;0.4778;0.1436;
185.4000;0.4786;0.1387;
185.7000;0.4778;0.1312;
186.0000;0.4803;0.1362;
186.3000;0.4794;0.1387;
186.6000;0.4811;0.1337;
186.9000;0.4778;0.1288;
187.2000;0.4794;0.1337;
187.5000;0.4778;0.1411;
187.8000;0.4786;0.1436;
188.1000;0.4778;0.1486;
188.4000;0.4770;0.1436;
188.7000;0.4794;0.1535;
189.0000;0.4762;0.1461;
189.3000;0.4746;0.1486;
189.6000;0.4786;0.1585;
189.9000;0.4778;0.1585;
190.2000;0.4811;0.1610;
190.5000;0.4794;0.1486;
190.8000;0.4794;0.1461;
191.1000;0.4778;0.1511;
191.4000;0.4770;0.1486;
191.7000;0.4786;0.1610;
192.0000;0.4778;0.1610;
192.3000;0.4794;0.1634;
192.6000;0.4770;0.1585;
192.9000;0.4778;0.1610;
193.2000;0.4786;0.1560;
193.5000;0.4770;0.1535;
193.8000;0.4737;0.1436;
194.1000;0.4786;0.1436;
194.4000;0.4786;0.1411;
194.7000;0.4794;0.1411;
195.0000;0.4770;0.1362;
195.3000;0.4786;0.1387;
195.6000;0.4786;0.1312;
195.9000;0.4794;0.1461;
196.2000;0.4794;0.1486;
196.5000;0.4811;0.1560;
196.8000;0.4786;0.1610;
197.1000;0.4794;0.1610;
197.4000;0.4778;0.1511;
197.7000;0.4778;0.1560;
198.0000;0.4794;0.1535;
198.3000;0.4803;0.1535;
198.6000;0.4803;0.1461;
198.9000;0.4786;0.1486;
199.2000;0.4786;0.1560;
199.5000;0.4851;0.1709;
199.8000;0.4786;0.1511;
200.1000;0.4860;0.1758;
200.4000;0.4778;0.1560;
200.7000;0.4794;0.1560;
201.0000;0.4794;0.1585;
201.3000;0.4786;0.1535;
201.6000;0.4786;0.1486;
201.9000;0.4786;0.1411;
202.2000;0.4786;0.1486;
202.5000;0.4794;0.1486;
202.8000;0.4762;0.1461;
203.1000;0.4794;0.1461;
203.4000;0.4786;0.1461;
203.7000;0.4778;0.1461;
204.0000;0.4786;0.1411;
204.3000;0.4794;0.1461;
204.6000;0.4811;0.1535;
204.9000;0.4754;0.1411;
205.2000;0.4794;0.1511;
205.5000;0.4786;0.1535;
205.8000;0.4778;0.1560;
206.1000;0.4778;0.1634;
206.4000;0.4770;0.1659;
206.7000;0.4794;0.1709;
207.0000;0.4786;0.1783;
207.3000;0.4778;0.1684;
207.6000;0.4737;0.1535;
207.9000;0.4803;0.1585;
208.2000;0.4778;0.1511;
208.5000;0.4811;0.1585;
208.8000;0.4811;0.1585;
209.1000;0.4786;0.1511;
209.4000;0.4835;0.1659;
209.7000;0.4803;0.1610;
210.0000;0.4835;0.1585;
210.3000;0.4786;0.1362;
210.6000;0.4762;0.1312;
210.9000;0.4794;0.1387;
211.2000;0.4778;0.1387;
211.5000;0.4770;0.1312;
211.8000;0.4778;0.1387;
212.1000;0.4770;0.1387;
212.4000;0.4770;0.1288;
212.7000;0.4778;0.1288;
213.0000;0.4803;0.1312;
213.3000;0.4786;0.1263;
213.6000;0.4778;0.1213;
213.9000;0.4786;0.1263;
214.2000;0.4803;0.1362;
214.5000;0.4762;0.1238;
214.8000;0.4803;0.1238;
215.1000;0.4794;0.1189;
215.4000;0.4762;0.1139;
215.7000;0.4803;0.1263;
216.0000;0.4754;0.1114;
216.3000;0.4770;0.1189;
216.6000;0.4786;0.1238;
216.9000;0.4803;0.1288;
217.2000;0.4778;0.1189;
217.5000;0.4786;0.1164;
217.8000;0.4786;0.1139;
218.1000;0.4803;0.1139;
218.4000;0.4786;0.1114;
218.7000;0.4778;0.1213;
219.0000;0.4786;0.1263;
219.3000;0.4778;0.1288;
219.6000;0.4786;0.1337;
219.9000;0.4786;0.1337;
220.2000;0.4794;0.1263;
220.5000;0.4803;0.1288;
220.8000;0.4762;0.1164;
221.1000;0.4737;0.1164;
221.4000;0.4786;0.1387;
221.7000;0.4778;0.1535;
222.0000;0.4786;0.1560;
222.3000;0.4786;0.1535;
222.6000;0.4786;0.1511;
222.9000;0.4794;0.1461;
223.2000;0.4794;0.1486;
223.5000;0.4762;0.1337;
223.8000;0.4778;0.1387;
224.1000;0.4778;0.1411;
224.4000;0.4778;0.1411;
224.7000;0.4778;0.1387;
225.0000;0.4762;0.1411;
225.3000;0.4656;0.1139;
225.6000;0.4786;0.1436;
225.9000;0.4770;0.1486;
226.2000;0.4803;0.1610;
226.5000;0.4786;0.1511;
226.8000;0.4778;0.1461;
227.1000;0.4778;0.1387;
227.4000;0.4786;0.1411;
227.7000;0.4786;0.1387;
228.0000;0.4827;0.1560;
228.3000;0.4770;0.1511;
228.6000;0.4737;0.1337;
228.9000;0.4762;0.1486;
229.2000;0.4770;0.1436;
229.5000;0.4794;0.1486;
229.8000;0.4778;0.1436;
230.1000;0.4786;0.1436;
230.4000;0.4778;0.1461;
230.7000;0.4794;0.1585;
231.0000;0.4786;0.1659;
231.3000;0.4794;0.1634;
231.6000;0.4754;0.1511;
231.9000;0.4794;0.1585;
232.2000;0.4786;0.1610;
232.5000;0.4786;0.1560;
232.8000;0.4794;0.1436;
233.1000;0.4803;0.1511;
233.4000;0.4770;0.1436;
233.7000;0.4770;0.1436;
234.0000;0.4770;0.1511;
234.3000;0.4778;0.1560;
234.6000;0.4803;0.1560;
234.9000;0.4778;0.1511;
235.2000;0.4762;0.1436;
235.5000;0.4786;0.1411;
235.8000;0.4819;0.1535;
236.1000;0.4786;0.1387;
236.4000;0.4786;0.1362;
236.7000;0.4762;0.1238;
237.0000;0.4778;0.1312;
237.3000;0.4737;0.1139;
237.6000;0.4770;0.1213;
237.9000;0.4762;0.1090;
238.2000;0.4794;0.1263;
238.5000;0.4770;0.1288;
238.8000;0.4729;0.1288;
239.1000;0.4786;0.1362;
239.4000;0.4794;0.1461;
239.7000;0.4778;0.1387;
240.0000;0.4786;0.1337;
240.3000;0.4778;0.1312;
240.6000;0.4778;0.1263;
240.9000;0.4843;0.1486;
241.2000;0.4786;0.1288;
241.5000;0.4794;0.1288;
241.8000;0.4778;0.1337;
242.1000;0.4794;0.1461;
242.4000;0.4803;0.1337;
242.7000;0.4794;0.1312;
243.0000;0.4794;0.1213;
243.3000;0.4770;0.1164;
243.6000;0.4811;0.1263;
243.9000;0.4803;0.1312;
244.2000;0.4794;0.1312;
244.5000;0.4786;0.1337;
244.8000;0.4762;0.1312;
245.1000;0.4737;0.1238;
245.4000;0.4770;0.1312;
245.7000;0.4786;0.1387;
246.0000;0.4786;0.1387;
246.3000;0.4778;0.1337;
246.6000;0.4803;0.1461;
246.9000;0.4770;0.1461;
247.2000;0.4803;0.1610;
247.5000;0.4762;0.1436;
247.8000;0.4721;0.1213;
248.1000;0.4794;0.1387;
248.4000;0.4778;0.1411;
248.7000;0.4778;0.1387;
249.0000;0.4762;0.1387;
249.3000;0.4778;0.1337;
249.6000;0.4778;0.1263;
249.9000;0.4762;0.1288;
250.2000;0.4746;0.1213;
250.5000;0.4737;0.1263;
250.8000;0.4770;0.1362;
251.1000;0.4770;0.1362;
251.4000;0.4811;0.1461;
251.7000;0.4778;0.1387;
252.0000;0.4786;0.1337;
252.3000;0.4794;0.1337;
252.6000;0.4860;0.1511;
252.9000;0.4794;0.1362;
253.2000;0.4778;0.1411;
253.5000;0.4786;0.1461;
253.8000;0.4803;0.1511;
254.1000;0.4794;0.1486;
254.4000;0.4811;0.1461;
254.7000;0.4770;0.1411;
255.0000;0.4827;0.1436;
255.3000;0.4803;0.1436;
255.6000;0.4794;0.1436;
255.9000;0.4762;0.1362;
256.2000;0.4770;0.1362;
256.5000;0.4786;0.1411;
256.8000;0.4794;0.1387;
257.1000;0.4786;0.1362;
257.4000;0.4770;0.1362;
257.7000;0.4778;0.1411;
258.0000;0.4786;0.1436;
258.3000;0.4762;0.1387;
258.6000;0.4762;0.1461;
258.9000;0.4721;0.1238;
259.2000;0.4754;0.1337;
259.5000;0.4803;0.1486;
259.8000;0.4786;0.1486;
260.1000;0.4778;0.1461;
260.4000;0.4819;0.1486;
260.7000;0.4770;0.1411;
261.0000;0.4794;0.1486;
261.3000;0.4729;0.1387;
261.6000;0.4778;0.1436;
261.9000;0.4786;0.1486;
262.2000;0.4762;0.1486;
262.5000;0.4770;0.1535;
262.8000;0.4754;0.1436;
263.1000;0.4778;0.1411;
263.4000;0.4746;0.1337;
263.7000;0.4786;0.1387;
264.0000;0.4786;0.1362;
264.3000;0.4794;0.1337;
264.6000;0.4786;0.1213;
264.9000;0.4811;0.1288;
265.2000;0.4786;0.1411;
265.5000;0.4794;0.1362;
265.8000;0.4770;0.1362;
266.1000;0.4786;0.1337;
266.4000;0.4803;0.1436;
266.7000;0.4762;0.1288;
267.0000;0.4770;0.1213;
267.3000;0.4835;0.1337;
267.6000;0.4803;0.1263;
267.9000;0.4786;0.1213;
268.2000;0.4770;0.1189;
268.5000;0.4762;0.1164;
268.8000;0.4803;0.1312;
269.1000;0.4794;0.1362;
269.4000;0.4786;0.1337;
269.7000;0.4770;0.1288;
270.0000;0.4786;0.1263;
270.3000;0.4786;0.1139;
270.6000;0.4778;0.1090;
270.9000;0.4778;0.1114;
271.2000;0.4737;0.0941;
271.5000;0.4770;0.1040;
271.8000;0.4811;0.1189;
272.1000;0.4778;0.1288;
272.4000;0.4811;0.1387;
272.7000;0.4762;0.1312;
273.0000;0.4762;0.1387;
273.3000;0.4786;0.1312;
273.6000;0.4713;0.1040;
273.9000;0.4794;0.1213;
274.2000;0.4778;0.1263;
274.5000;0.4762;0.1362;
274.8000;0.4770;0.1411;
275.1000;0.4770;0.1362;
275.4000;0.4746;0.1213;
275.7000;0.4762;0.1288;
276.0000;0.4762;0.1362;
276.3000;0.4778;0.1436;
276.6000;0.4770;0.1461;
276.9000;0.4786;0.1486;
277.2000;0.4762;0.1387;
277.5000;0.4778;0.1387;
277.8000;0.4778;0.1411;
278.1000;0.4770;0.1411;
278.4000;0.4786;0.1387;
278.7000;0.4786;0.1436;
279.0000;0.4786;0.1486;
279.3000;0.4778;0.1560;
279.6000;0.4778;0.1585;
279.9000;0.4770;0.1535;
280.2000;0.4778;0.1535;
280.5000;0.4770;0.1436;
280.8000;0.4778;0.1511;
281.1000;0.4851;0.1634;
281.4000;0.4794;0.1486;
281.7000;0.4770;0.1486;
282.0000;0.4786;0.1535;
282.3000;0.4770;0.1511;
282.6000;0.4770;0.1461;
282.9000;0.4778;0.1486;
283.2000;0.4786;0.1486;
283.5000;0.4778;0.1387;
283.8000;0.4770;0.1337;
284.1000;0.4827;0.1486;
284.4000;0.4786;0.1436;
284.7000;0.4786;0.1436;
285.0000;0.4746;0.1337;
285.3000;0.4737;0.1263;
285.6000;0.4778;0.1312;
285.9000;0.4786;0.1213;
286.2000;0.4811;0.1238;
286.5000;0.4778;0.1139;
286.8000;0.4762;0.1114;
287.1000;0.4843;0.1337;
287.4000;0.4729;0.1114;
287.7000;0.4778;0.1213;
288.0000;0.4843;0.1436;
288.3000;0.4786;0.1312;
288.6000;0.4778;0.1238;
288.9000;0.4794;0.1263;
289.2000;0.4778;0.1312;
289.5000;0.4778;0.1362;
289.8000;0.4786;0.1436;
290.1000;0.4770;0.1362;
290.4000;0.4770;0.1288;
290.7000;0.4770;0.1337;
291.0000;0.4794;0.1362;
291.3000;0.4803;0.1387;
291.6000;0.4778;0.1312;
291.9000;0.4778;0.1238;
292.2000;0.4770;0.1263;
292.5000;0.4786;0.1362;
292.8000;0.4794;0.1362;
293.1000;0.4778;0.1337;
293.4000;0.4737;0.1189;
293.7000;0.4770;0.1238;
294.0000;0.4770;0.1238;
294.3000;0.4778;0.1312;
294.6000;0.4737;0.1090;
294.9000;0.4786;0.1139;
295.2000;0.4778;0.1114;
295.5000;0.4835;0.1288;
295.8000;0.4778;0.1164;
296.1000;0.4778;0.1288;
296.4000;0.4794;0.1337;
296.7000;0.4737;0.1288;
297.0000;0.4778;0.1411;
297.3000;0.4803;0.1387;
297.6000;0.4786;0.1411;
297.9000;0.4778;0.1411;
298.2000;0.4786;0.1387;
298.5000;0.4803;0.1411;
298.8000;0.4762;0.1263;
299.1000;0.4786;0.1238;
299.4000;0.4770;0.1288;
299.7000;0.4762;0.1263;
300.0000;0.4762;0.1263;
300.3000;0.4786;0.1337;
300.6000;0.4786;0.1362;
300.9000;0.4770;0.1312;
301.2000;0.4778;0.1337;
301.5000;0.4762;0.1312;
301.8000;0.4778;0.1312;
302.1000;0.4794;0.1411;
302.4000;0.4737;0.1263;
302.7000;0.4786;0.1486;
303.0000;0.4786;0.1411;
303.3000;0.4778;0.1411;
303.6000;0.4770;0.1436;
303.9000;0.4786;0.1411;
304.2000;0.4786;0.1511;
304.5000;0.4778;0.1535;
304.8000;0.4762;0.1486;
305.1000;0.4778;0.1461;
305.4000;0.4794;0.1486;
305.7000;0.4778;0.1436;
306.0000;0.4746;0.1387;
306.3000;0.4778;0.1461;
306.6000;0.4786;0.1486;
306.9000;0.4778;0.1436;
307.2000;0.4778;0.1461;
307.5000;0.4786;0.1461;
307.8000;0.4786;0.1461;
308.1000;0.4778;0.1436;
308.4000;0.4778;0.1436;
308.7000;0.4778;0.1436;
309.0000;0.4786;0.1461;
309.3000;0.4786;0.1535;
309.6000;0.4778;0.1411;
309.9000;0.4794;0.1411;
310.2000;0.4762;0.1436;
310.5000;0.4778;0.1535;
310.8000;0.4786;0.1511;
311.1000;0.4794;0.1511;
311.4000;0.4778;0.1486;
311.7000;0.4778;0.1486;
312.0000;0.4770;0.1461;
312.3000;0.4786;0.1610;
312.6000;0.4794;0.1684;
312.9000;0.4794;0.1610;
313.2000;0.4786;0.1585;
313.5000;0.4786;0.1709;
313.8000;0.4811;0.1832;
314.1000;0.4786;0.1808;
314.4000;0.4754;0.1659;
314.7000;0.4794;0.1733;
315.0000;0.4794;0.1733;
315.3000;0.4778;0.1733;
315.6000;0.4762;0.1733;
315.9000;0.4786;0.1808;
316.2000;0.4778;0.1709;
316.5000;0.4778;0.1610;
316.8000;0.4778;0.1511;
317.1000;0.4778;0.1486;
317.4000;0.4770;0.1436;
317.7000;0.4778;0.1362;
318.0000;0.4762;0.1312;
318.3000;0.4754;0.1337;
318.6000;0.4786;0.1436;
318.9000;0.4770;0.1387;
319.2000;0.4778;0.1337;
319.5000;0.4827;0.1411;
319.8000;0.4794;0.1337;
320.1000;0.4786;0.1312;
320.4000;0.4762;0.1362;
320.7000;0.4778;0.1411;
321.0000;0.4794;0.1486;
321.3000;0.4762;0.1411;
321.6000;0.4794;0.1387;
321.9000;0.4786;0.1362;
322.2000;0.4778;0.1312;
322.5000;0.4843;0.1511;
322.8000;0.4778;0.1362;
323.1000;0.4762;0.1461;
323.4000;0.4803;0.1659;
323.7000;0.4778;0.1634;
324.0000;0.4762;0.1585;
324.3000;0.4770;0.1610;
324.6000;0.4778;0.1560;
324.9000;0.4746;0.1511;
325.2000;0.4754;0.1511;
325.5000;0.4778;0.1560;
325.8000;0.4762;0.1535;
326.1000;0.4794;0.1610;
326.4000;0.4770;0.1560;
326.7000;0.4811;0.1634;
327.0000;0.4811;0.1659;
327.3000;0.4786;0.1783;
327.6000;0.4868;0.1956;
327.9000;0.4794;0.1733;
328.2000;0.4770;0.1684;
328.5000;0.4770;0.1634;
328.8000;0.4794;0.1634;
329.1000;0.4786;0.1585;
329.4000;0.4770;0.1585;
329.7000;0.4819;0.1832;
330.0000;0.4794;0.1733;
330.3000;0.4786;0.1733;
330.6000;0.4786;0.1634;
330.9000;0.4851;0.1758;
331.2000;0.4778;0.1560;
331.5000;0.4770;0.1610;
331.8000;0.4786;0.1610;
332.1000;0.4770;0.1560;
332.4000;0.4778;0.1535;
332.7000;0.4778;0.1511;
333.0000;0.4778;0.1461;
333.3000;0.4762;0.1362;
333.6000;0.4778;0.1511;
333.9000;0.4778;0.1634;
334.2000;0.4778;0.1659;
334.5000;0.4721;0.1511;
334.8000;0.4819;0.1882;
335.1000;0.4786;0.1758;
335.4000;0.4794;0.1758;
335.7000;0.4770;0.1709;
336.0000;0.4778;0.1659;
336.3000;0.4803;0.1709;
336.6000;0.4786;0.1585;
336.9000;0.4713;0.1288;
337.2000;0.4778;0.1486;
337.5000;0.4778;0.1486;
337.8000;0.4770;0.1535;
338.1000;0.4794;0.1634;
338.4000;0.4762;0.1560;
338.7000;0.4754;0.1560;
339.0000;0.4770;0.1709;
339.3000;0.4754;0.1634;
339.6000;0.4803;0.1733;
339.9000;0.4794;0.1634;
340.2000;0.4746;0.1461;
340.5000;0.4770;0.1535;
340.8000;0.4754;0.1461;
341.1000;0.4770;0.1511;
341.4000;0.4778;0.1560;
341.7000;0.4794;0.1684;
342.0000;0.4754;0.1659;
342.3000;0.4705;0.1560;
342.6000;0.4803;0.1783;
342.9000;0.4778;0.1684;
343.2000;0.4868;0.1907;
343.5000;0.4762;0.1709;
343.8000;0.4770;0.1758;
344.1000;0.4794;0.1783;
344.4000;0.4770;0.1783;
344.7000;0.4762;0.1832;
345.0000;0.4786;0.1931;
345.3000;0.4794;0.1981;
345.6000;0.4786;0.1857;
345.9000;0.4786;0.1857;
346.2000;0.4762;0.1709;
346.5000;0.4762;0.1733;
346.8000;0.4778;0.1709;
347.1000;0.4778;0.1733;
347.4000;0.4803;0.1783;
347.7000;0.4786;0.1709;
348.0000;0.4803;0.1659;
348.3000;0.4803;0.1709;
348.6000;0.4835;0.1758;
348.9000;0.4746;0.1511;
349.2000;0.4786;0.1709;
349.5000;0.4786;0.1709;
349.8000;0.4770;0.1709;
350.1000;0.4762;0.1610;
350.4000;0.4770;0.1511;
350.7000;0.4762;0.1511;
351.0000;0.4762;0.1560;
351.3000;0.4762;0.1511;
351.6000;0.4778;0.1511;
351.9000;0.4786;0.1634;
352.2000;0.4778;0.1634;
352.5000;0.4786;0.1610;
352.8000;0.4803;0.1684;
353.1000;0.4778;0.1610;
353.4000;0.4778;0.1634;
353.7000;0.4778;0.1659;
354.0000;0.4762;0.1684;
354.3000;0.4770;0.1709;
354.6000;0.4770;0.1684;
354.9000;0.4762;0.1684;
355.2000;0.4794;0.1758;
355.5000;0.4762;0.1684;
355.8000;0.4770;0.1659;
356.1000;0.4827;0.1783;
356.4000;0.4762;0.1610;
356.7000;0.4729;0.1634;
357.0000;0.4762;0.1684;
357.3000;0.4794;0.1634;
357.6000;0.4786;0.1560;
357.9000;0.4786;0.1535;
358.2000;0.4754;0.1585;
358.5000;0.4770;0.1659;
358.8000;0.4762;0.1659;
359.1000;0.4762;0.1684;
359.4000;0.4762;0.1634;
359.7000;0.4778;0.1585;
360.0000;0.4786;0.1634;
360.3000;0.4754;0.1634;
360.6000;0.4746;0.1585;
360.9000;0.4778;0.1560;
361.2000;0.4770;0.1560;
361.5000;0.4770;0.1560;
361.8000;0.4762;0.1486;
362.1000;0.4786;0.1560;
362.4000;0.4794;0.1560;
362.7000;0.4770;0.1560;
363.0000;0.4754;0.1585;
363.3000;0.4778;0.1634;
363.6000;0.4770;0.1758;
363.9000;0.4778;0.1783;
364.2000;0.4786;0.1808;
364.5000;0.4754;0.1783;
364.8000;0.4794;0.1758;
365.1000;0.4721;0.1610;
365.4000;0.4762;0.1733;
365.7000;0.4762;0.1659;
366.0000;0.4762;0.1610;
366.3000;0.4770;0.1560;
366.6000;0.4754;0.1461;
366.9000;0.4754;0.1387;
367.2000;0.4803;0.1436;
367.5000;0.4778;0.1436;
367.8000;0.4770;0.1411;
368.1000;0.4762;0.1461;
368.4000;0.4770;0.1436;
368.7000;0.4786;0.1585;
369.0000;0.4778;0.1585;
369.3000;0.4762;0.1634;
369.6000;0.4762;0.1709;
369.9000;0.4770;0.1634;
370.2000;0.4770;0.1634;
370.5000;0.4770;0.1511;
370.8000;0.4770;0.1486;
371.1000;0.4762;0.1511;
371.4000;0.4794;0.1610;
371.7000;0.4754;0.1511;
372.0000;0.4811;0.1634;
372.3000;0.4754;0.1535;
372.6000;0.4770;0.1585;
372.9000;0.4778;0.1511;
373.2000;0.4778;0.1535;
373.5000;0.4770;0.1560;
373.8000;0.4762;0.1486;
374.1000;0.4770;0.1486;
374.4000;0.4778;0.1684;
374.7000;0.4754;0.1709;
375.0000;0.4770;0.1758;
375.3000;0.4770;0.1758;
375.6000;0.4770;0.1758;
375.9000;0.4737;0.1709;
376.2000;0.4721;0.1659;
376.5000;0.4762;0.1709;
376.8000;0.4770;0.1659;
377.1000;0.4754;0.1758;
377.4000;0.4754;0.1709;
377.7000;0.4754;0.1684;
378.0000;0.4762;0.1659;
378.3000;0.4778;0.1684;
378.6000;0.4762;0.1585;
378.9000;0.4762;0.1585;
379.2000;0.4827;0.1684;
379.5000;0.4778;0.1511;
379.8000;0.4778;0.1535;
380.1000;0.4770;0.1560;
380.4000;0.4762;0.1535;
380.7000;0.4770;0.1560;
381.0000;0.4672;0.1288;
381.3000;0.4762;0.1461;
381.6000;0.4754;0.1461;
381.9000;0.4778;0.1486;
382.2000;0.4746;0.1436;
382.5000;0.4778;0.1436;
382.8000;0.4762;0.1511;
383.1000;0.4786;0.1511;
383.4000;0.4778;0.1511;
383.7000;0.4770;0.1486;
384.0000;0.4770;0.1486;
384.3000;0.4794;0.1486;
384.6000;0.4794;0.1560;
384.9000;0.4770;0.1560;
385.2000;0.4770;0.1511;
385.5000;0.4794;0.1585;
385.8000;0.4794;0.1585;
386.1000;0.4778;0.1486;
386.4000;0.4713;0.1411;
386.7000;0.4770;0.1511;
387.0000;0.4770;0.1486;
387.3000;0.4778;0.1362;
387.6000;0.4754;0.1312;
387.9000;0.4770;0.1288;
388.2000;0.4762;0.1411;
388.5000;0.4762;0.1362;
388.8000;0.4762;0.1461;
389.1000;0.4770;0.1461;
389.4000;0.4762;0.1585;
389.7000;0.4778;0.1560;
390.0000;0.4778;0.1634;
390.3000;0.4754;0.1585;
390.6000;0.4770;0.1511;
390.9000;0.4762;0.1585;
391.2000;0.4754;0.1535;
391.5000;0.4794;0.1684;
391.8000;0.4762;0.1585;
392.1000;0.4754;0.1560;
392.4000;0.4786;0.1585;
392.7000;0.4762;0.1511;
393.0000;0.4778;0.1535;
393.3000;0.4770;0.1511;
393.6000;0.4794;0.1585;
393.9000;0.4778;0.1511;
394.2000;0.4754;0.1535;
394.5000;0.4770;0.1634;
394.8000;0.4770;0.1535;
395.1000;0.4770;0.1436;
395.4000;0.4762;0.1436;
395.7000;0.4762;0.1461;
396.0000;0.4754;0.1511;
396.3000;0.4770;0.1610;
396.6000;0.4770;0.1585;
396.9000;0.4762;0.1560;
397.2000;0.4778;0.1610;
397.5000;0.4737;0.1461;
397.8000;0.4778;0.1585;
398.1000;0.4770;0.1560;
398.4000;0.4762;0.1610;
398.7000;0.4754;0.1634;
399.0000;0.4770;0.1610;
399.3000;0.4770;0.1634;
399.6000;0.4746;0.1610;
399.9000;0.4762;0.1733;
400.2000;0.4770;0.1709;
400.5000;0.4762;0.1709;
400.8000;0.4778;0.1783;
401.1000;0.4746;0.1709;
401.4000;0.4778;0.1758;
401.7000;0.4746;0.1659;
402.0000;0.4762;0.1659;
402.3000;0.4754;0.1684;
402.6000;0.4729;0.1585;
402.9000;0.4770;0.1610;
403.2000;0.4860;0.1758;
403.5000;0.4770;0.1511;
403.8000;0.4819;0.1585;
404.1000;0.4754;0.1461;
404.4000;0.4705;0.1387;
404.7000;0.4746;0.1659;
405.0000;0.4770;0.1709;
405.3000;0.4705;0.1511;
405.6000;0.4778;0.1684;
405.9000;0.4770;0.1733;
406.2000;0.4786;0.1709;
406.5000;0.4778;0.1684;
406.8000;0.4811;0.1709;
407.1000;0.4786;0.1709;
407.4000;0.4794;0.1684;
407.7000;0.4778;0.1634;
408.0000;0.4762;0.1535;
408.3000;0.4762;0.1511;
408.6000;0.4778;0.1511;
408.9000;0.4778;0.1535;
409.2000;0.4778;0.1535;
409.5000;0.4770;0.1535;
409.8000;0.4754;0.1486;
410.1000;0.4770;0.1535;
410.4000;0.4786;0.1634;
410.7000;0.4762;0.1634;
411.0000;0.4770;0.1634;
411.3000;0.4770;0.1659;
411.6000;0.4778;0.1709;
411.9000;0.4770;0.1634;
412.2000;0.4754;0.1659;
412.5000;0.4754;0.1684;
412.8000;0.4786;0.1709;
413.1000;0.4786;0.1709;
413.4000;0.4762;0.1758;
413.7000;0.4770;0.1709;
414.0000;0.4770;0.1758;
414.3000;0.4803;0.1758;
414.6000;0.4754;0.1733;
414.9000;0.4762;0.1684;
415.2000;0.4754;0.1684;
415.5000;0.4762;0.1733;
415.8000;0.4778;0.1758;
416.1000;0.4770;0.1783;
416.4000;0.4754;0.1684;
416.7000;0.4770;0.1684;
417.0000;0.4754;0.1733;
417.3000;0.4754;0.1684;
417.6000;0.4770;0.1684;
417.9000;0.4770;0.1758;
418.2000;0.4786;0.1733;
418.5000;0.4770;0.1634;
418.8000;0.4762;0.1585;
419.1000;0.4835;0.1758;
419.4000;0.4778;0.1610;
419.7000;0.4770;0.1659;
420.0000;0.4737;0.1535;
420.3000;0.4778;0.1535;
420.6000;0.4770;0.1659;
420.9000;0.4729;0.1610;
421.2000;0.4762;0.1684;
421.5000;0.4843;0.1907;
421.8000;0.4729;0.1610;
422.1000;0.4819;0.1857;
422.4000;0.4762;0.1634;
422.7000;0.4762;0.1585;
423.0000;0.4770;0.1709;
423.3000;0.4778;0.1709;
423.6000;0.4770;0.1709;
423.9000;0.4746;0.1758;
424.2000;0.4778;0.1808;
424.5000;0.4762;0.1733;
424.8000;0.4770;0.1634;
425.1000;0.4762;0.1610;
425.4000;0.4754;0.1585;
425.7000;0.4754;0.1610;
426.0000;0.4786;0.1585;
426.3000;0.4762;0.1511;
426.6000;0.4778;0.1560;
426.9000;0.4754;0.1610;
427.2000;0.4762;0.1610;
427.5000;0.4778;0.1634;
427.8000;0.4770;0.1659;
428.1000;0.4778;0.1684;
428.4000;0.4786;0.1758;
428.7000;0.4786;0.1733;
429.0000;0.4762;0.1659;
429.3000;0.4786;0.1634;
429.6000;0.4778;0.1585;
429.9000;0.4770;0.1535;
430.2000;0.4778;0.1560;
430.5000;0.4762;0.1585;
430.8000;0.4762;0.1560;
431.1000;0.4754;0.1634;
431.4000;0.4762;0.1634;
431.7000;0.4746;0.1535;
432.0000;0.4754;0.1585;
432.3000;0.4737;0.1486;
432.6000;0.4770;0.1511;
432.9000;0.4754;0.1486;
433.2000;0.4746;0.1436;
433.5000;0.4770;0.1461;
433.8000;0.4770;0.1461;
434.1000;0.4762;0.1461;
434.4000;0.4770;0.1486;
434.7000;0.4778;0.1610;
435.0000;0.4770;0.1684;
435.3000;0.4835;0.1832;
435.6000;0.4754;0.1684;
435.9000;0.4762;0.1610;
436.2000;0.4770;0.1659;
436.5000;0.4770;0.1634;
436.8000;0.4729;0.1585;
437.1000;0.4786;0.1733;
437.4000;0.4770;0.1659;
437.7000;0.4778;0.1610;
438.0000;0.4697;0.1387;
438.3000;0.4754;0.1511;
438.6000;0.4737;0.1610;
438.9000;0.4737;0.1560;
439.2000;0.4762;0.1634;
439.5000;0.4762;0.1560;
439.8000;0.4770;0.1634;
440.1000;0.4762;0.1634;
440.4000;0.4762;0.1610;
440.7000;0.4770;0.1684;
441.0000;0.4737;0.1610;
441.3000;0.4770;0.1634;
441.6000;0.4770;0.1610;
441.9000;0.4770;0.1560;
442.2000;0.4778;0.1535;
442.5000;0.4778;0.1511;
442.8000;0.4762;0.1486;
443.1000;0.4762;0.1560;
443.4000;0.4762;0.1585;
443.7000;0.4746;0.1610;
444.0000;0.4778;0.1684;
444.3000;0.4770;0.1684;
444.6000;0.4762;0.1783;
444.9000;0.4770;0.1733;
445.2000;0.4778;0.1783;
445.5000;0.4770;0.1684;
445.8000;0.4786;0.1684;
446.1000;0.4762;0.1634;
446.4000;0.4778;0.1634;
446.7000;0.4770;0.1560;
447.0000;0.4786;0.1461;
447.3000;0.4713;0.1238;
447.6000;0.4762;0.1337;
447.9000;0.4762;0.1461;
448.2000;0.4770;0.1486;
448.5000;0.4762;0.1560;
448.8000;0.4762;0.1560;
449.1000;0.4778;0.1560;
449.4000;0.4770;0.1560;
449.7000;0.4762;0.1511;
450.0000;0.4762;0.1387;
450.3000;0.4819;0.1461;
450.6000;0.4778;0.1312;
450.9000;0.4754;0.1213;
451.2000;0.4794;0.1411;
451.5000;0.4762;0.1337;
451.8000;0.4778;0.1288;
452.1000;0.4762;0.1238;
452.4000;0.4762;0.1337;
452.7000;0.4770;0.1411;
453.0000;0.4770;0.1436;
453.3000;0.4770;0.1337;
453.6000;0.4770;0.1288;
453.9000;0.4754;0.1189;
454.2000;0.4737;0.1090;
454.5000;0.4794;0.1139;
454.8000;0.4762;0.1065;
455.1000;0.4762;0.1114;
455.4000;0.4794;0.1263;
455.7000;0.4778;0.1164;
456.0000;0.4778;0.1189;
456.3000;0.4778;0.1164;
456.6000;0.4770;0.1213;
456.9000;0.4778;0.1312;
457.2000;0.4770;0.1312;
457.5000;0.4746;0.1362;
457.8000;0.4729;0.1387;
458.1000;0.4762;0.1486;
458.4000;0.4786;0.1610;
458.7000;0.4754;0.1560;
459.0000;0.4786;0.1585;
459.3000;0.4819;0.1709;
459.6000;0.4778;0.1610;
459.9000;0.4762;0.1659;
460.2000;0.4754;0.1585;
460.5000;0.4746;0.1535;
460.8000;0.4819;0.1684;
461.1000;0.4770;0.1585;
461.4000;0.4770;0.1535;
461.7000;0.4737;0.1411;
462.0000;0.4819;0.1659;
462.3000;0.4762;0.1461;
462.6000;0.4762;0.1486;
462.9000;0.4762;0.1486;
463.2000;0.4737;0.1337;
463.5000;0.4786;0.1436;
463.8000;0.4754;0.1461;
464.1000;0.4729;0.1387;
464.4000;0.4762;0.1486;
464.7000;0.4770;0.1511;
465.0000;0.4754;0.1436;
465.3000;0.4762;0.1387;
465.6000;0.4754;0.1461;
465.9000;0.4754;0.1535;
466.2000;0.4754;0.1511;
466.5000;0.4754;0.1461;
466.8000;0.4746;0.1486;
467.1000;0.4762;0.1585;
467.4000;0.4770;0.1560;
467.7000;0.4754;0.1560;
468.0000;0.4729;0.1461;
468.3000;0.4746;0.1610;
468.6000;0.4737;0.1634;
468.9000;0.4762;0.1634;
469.2000;0.4746;0.1585;
469.5000;0.4770;0.1634;
469.8000;0.4770;0.1733;
470.1000;0.4770;0.1709;
470.4000;0.4794;0.1758;
470.7000;0.4778;0.1659;
471.0000;0.4770;0.1684;
471.3000;0.4754;0.1610;
471.6000;0.4754;0.1486;
471.9000;0.4754;0.1461;
472.2000;0.4746;0.1436;
472.5000;0.4754;0.1411;
472.8000;0.4762;0.1387;
473.1000;0.4778;0.1511;
473.4000;0.4770;0.1387;
473.7000;0.4778;0.1461;
474.0000;0.4770;0.1461;
474.3000;0.4762;0.1387;
474.6000;0.4746;0.1411;
474.9000;0.4770;0.1436;
475.2000;0.4794;0.1486;
475.5000;0.4762;0.1511;
475.8000;0.4762;0.1486;
476.1000;0.4786;0.1461;
476.4000;0.4770;0.1362;
476.7000;0.4762;0.1337;
477.0000;0.4762;0.1337;
477.3000;0.4811;0.1436;
477.6000;0.4778;0.1387;
477.9000;0.4762;0.1288;
478.2000;0.4754;0.1288;
478.5000;0.4762;0.1312;
478.8000;0.4762;0.1337;
479.1000;0.4778;0.1312;
479.4000;0.4770;0.1362;
479.7000;0.4754;0.1312;
480.0000;0.4762;0.1436;
480.3000;0.4778;0.1461;
480.6000;0.4762;0.1486;
480.9000;0.4762;0.1486;
481.2000;0.4762;0.1436;
481.5000;0.4794;0.1560;
481.8000;0.4770;0.1511;
482.1000;0.4770;0.1511;
482.4000;0.4754;0.1461;
482.7000;0.4762;0.1411;
483.0000;0.4778;0.1436;
483.3000;0.4746;0.1288;
483.6000;0.4770;0.1362;
483.9000;0.4794;0.1436;
484.2000;0.4746;0.1411;
484.5000;0.4827;0.1535;
484.8000;0.4762;0.1436;
485.1000;0.4762;0.1535;
485.4000;0.4778;0.1610;
485.7000;0.4770;0.1610;
486.0000;0.4746;0.1511;
486.3000;0.4754;0.1560;
486.6000;0.4762;0.1535;
486.9000;0.4778;0.1511;
487.2000;0.4754;0.1411;
487.5000;0.4762;0.1411;
487.8000;0.4770;0.1411;
488.1000;0.4762;0.1461;
488.4000;0.4770;0.1535;
488.7000;0.4754;0.1585;
489.0000;0.4762;0.1659;
489.3000;0.4746;0.1684;
489.6000;0.4762;0.1758;
489.9000;0.4770;0.1733;
490.2000;0.4786;0.1733;
490.5000;0.4762;0.1634;
490.8000;0.4778;0.1634;
491.1000;0.4786;0.1758;
491.4000;0.4754;0.1659;
491.7000;0.4762;0.1709;
492.0000;0.4770;0.1684;
492.3000;0.4746;0.1560;
492.6000;0.4737;0.1560;
492.9000;0.4746;0.1610;
493.2000;0.4778;0.1560;
493.5000;0.4754;0.1411;
493.8000;0.4754;0.1387;
494.1000;0.4721;0.1387;
494.4000;0.4770;0.1436;
494.7000;0.4770;0.1511;
495.0000;0.4737;0.1362;
495.3000;0.4762;0.1362;
495.6000;0.4770;0.1411;
495.9000;0.4762;0.1436;
496.2000;0.4729;0.1362;
496.5000;0.4762;0.1436;
496.8000;0.4762;0.1461;
497.1000;0.4746;0.1436;
497.4000;0.4754;0.1436;
497.7000;0.4762;0.1461;
498.0000;0.4770;0.1535;
498.3000;0.4762;0.1486;
498.6000;0.4762;0.1560;
498.9000;0.4778;0.1585;
499.2000;0.4762;0.1511;
499.5000;0.4762;0.1486;
499.8000;0.4770;0.1511;
500.1000;0.4762;0.1535;
500.4000;0.4754;0.1486;
500.7000;0.4770;0.1486;
501.0000;0.4794;0.1461;
501.3000;0.4778;0.1362;
501.6000;0.4754;0.1387;
501.9000;0.4794;0.1560;
502.2000;0.4729;0.1436;
502.5000;0.4746;0.1511;
502.8000;0.4754;0.1461;
503.1000;0.4762;0.1411;
503.4000;0.4754;0.1461;
503.7000;0.4754;0.1461;
504.0000;0.4762;0.1535;
504.3000;0.4746;0.1511;
504.6000;0.4770;0.1511;
504.9000;0.4786;0.1560;
505.2000;0.4762;0.1486;
505.5000;0.4754;0.1461;
505.8000;0.4762;0.1560;
506.1000;0.4762;0.1486;
506.4000;0.4754;0.1461;
506.7000;0.4762;0.1411;
507.0000;0.4803;0.1535;
507.3000;0.4770;0.1560;
507.6000;0.4762;0.1585;
507.9000;0.4762;0.1610;
508.2000;0.4737;0.1560;
508.5000;0.4737;0.1461;
508.8000;0.4811;0.1585;
509.1000;0.4754;0.1511;
509.4000;0.4762;0.1486;
509.7000;0.4762;0.1461;
510.0000;0.4746;0.1337;
510.3000;0.4778;0.1387;
510.6000;0.4729;0.1263;
510.9000;0.4729;0.1288;
511.2000;0.4803;0.1436;
511.5000;0.4754;0.1411;
511.8000;0.4754;0.1436;
512.1000;0.4762;0.1560;
512.4000;0.4746;0.1511;
512.7000;0.4746;0.1610;
513.0000;0.4843;0.1857;
513.3000;0.4754;0.1659;
513.6000;0.4754;0.1733;
513.9000;0.4770;0.1758;
514.2000;0.4762;0.1733;
514.5000;0.4762;0.1709;
514.8000;0.4762;0.1659;
515.1000;0.4803;0.1709;
515.4000;0.4786;0.1610;
515.7000;0.4721;0.1461;
516.0000;0.4778;0.1560;
516.3000;0.4786;0.1585;
516.6000;0.4754;0.1461;
516.9000;0.4770;0.1535;
517.2000;0.4754;0.1511;
517.5000;0.4762;0.1436;
517.8000;0.4778;0.1486;
518.1000;0.4770;0.1461;
518.4000;0.4786;0.1486;
518.7000;0.4794;0.1535;
519.0000;0.4778;0.1486;
519.3000;0.4762;0.1535;
519.6000;0.4737;0.1486;
519.9000;0.4754;0.1535;
520.2000;0.4721;0.1511;
520.5000;0.4762;0.1634;
520.8000;0.4778;0.1659;
521.1000;0.4803;0.1684;
521.4000;0.4778;0.1585;
521.7000;0.4778;0.1535;
522.0000;0.4770;0.1585;
522.3000;0.4770;0.1634;
522.6000;0.4770;0.1659;
522.9000;0.4762;0.1684;
523.2000;0.4754;0.1709;
523.5000;0.4770;0.1758;
523.8000;0.4770;0.1684;
524.1000;0.4754;0.1634;
524.4000;0.4770;0.1610;
524.7000;0.4770;0.1659;
525.0000;0.4754;0.1634;
525.3000;0.4754;0.1610;
525.6000;0.4770;0.1560;
525.9000;0.4762;0.1461;
526.2000;0.4754;0.1486;
526.5000;0.4746;0.1486;
526.8000;0.4762;0.1659;
527.1000;0.4762;0.1709;
527.4000;0.4762;0.1709;
527.7000;0.4762;0.1709;
528.0000;0.4770;0.1783;
528.3000;0.4786;0.1808;
528.6000;0.4754;0.1709;
528.9000;0.4778;0.1758;
529.2000;0.4778;0.1733;
529.5000;0.4762;0.1733;
529.8000;0.4746;0.1783;
530.1000;0.4721;0.1684;
530.4000;0.4754;0.1758;
530.7000;0.4737;0.1684;
531.0000;0.4778;0.1709;
531.3000;0.4754;0.1535;
531.6000;0.4746;0.1535;
531.9000;0.4762;0.1634;
532.2000;0.4754;0.1585;
532.5000;0.4778;0.1610;
532.8000;0.4762;0.1560;
533.1000;0.4770;0.1511;
533.4000;0.4770;0.1486;
533.7000;0.4762;0.1486;
534.0000;0.4746;0.1511;
534.3000;0.4754;0.1511;
534.6000;0.4762;0.1461;
534.9000;0.4778;0.1436;
535.2000;0.4770;0.1411;
535.5000;0.4794;0.1461;
535.8000;0.4811;0.1486;
536.1000;0.4754;0.1362;
536.4000;0.4786;0.1486;
536.7000;0.4762;0.1411;
537.0000;0.4737;0.1337;
537.3000;0.4737;0.1312;
537.6000;0.4754;0.1362;
537.9000;0.4778;0.1411;
538.2000;0.4754;0.1362;
538.5000;0.4762;0.1411;
538.8000;0.4762;0.1436;
539.1000;0.4721;0.1263;
539.4000;0.4754;0.1436;
539.7000;0.4746;0.1486;
540.0000;0.4746;0.1535;
540.3000;0.4762;0.1560;
540.6000;0.4786;0.1610;
540.9000;0.4770;0.1560;
541.2000;0.4778;0.1560;
541.5000;0.4754;0.1511;
541.8000;0.4746;0.1511;
542.1000;0.4754;0.1560;
542.4000;0.4762;0.1610;
542.7000;0.4737;0.1486;
543.0000;0.4746;0.1535;
543.3000;0.4762;0.1634;
543.6000;0.4754;0.1560;
543.9000;0.4762;0.1560;
544.2000;0.4754;0.1486;
544.5000;0.4754;0.1486;
544.8000;0.4762;0.1610;
545.1000;0.4754;0.1634;
545.4000;0.4737;0.1486;
545.7000;0.4770;0.1511;
546.0000;0.4754;0.1411;
546.3000;0.4754;0.1387;
546.6000;0.4762;0.1288;
546.9000;0.4770;0.1387;
547.2000;0.4762;0.1337;
547.5000;0.4762;0.1362;
547.8000;0.4737;0.1387;
548.1000;0.4754;0.1387;
548.4000;0.4729;0.1337;
548.7000;0.4754;0.1436;
549.0000;0.4746;0.1461;
549.3000;0.4746;0.1486;
549.6000;0.4754;0.1461;
549.9000;0.4762;0.1387;
550.2000;0.4786;0.1511;
550.5000;0.4754;0.1387;
550.8000;0.4681;0.1238;
551.1000;0.4754;0.1411;
551.4000;0.4697;0.1238;
551.7000;0.4746;0.1362;
552.0000;0.4746;0.1387;
552.3000;0.4778;0.1461;
552.6000;0.4778;0.1461;
552.9000;0.4762;0.1486;
553.2000;0.4762;0.1535;
553.5000;0.4746;0.1486;
553.8000;0.4778;0.1535;
554.1000;0.4746;0.1461;
554.4000;0.4754;0.1411;
554.7000;0.4762;0.1436;
555.0000;0.4729;0.1362;
555.3000;0.4746;0.1387;
555.6000;0.4754;0.1387;
555.9000;0.4762;0.1362;
556.2000;0.4770;0.1436;
556.5000;0.4786;0.1535;
556.8000;0.4721;0.1362;
557.1000;0.4754;0.1486;
557.4000;0.4729;0.1387;
557.7000;0.4770;0.1511;
558.0000;0.4754;0.1486;
558.3000;0.4770;0.1486;
558.6000;0.4746;0.1461;
558.9000;0.4770;0.1535;
559.2000;0.4778;0.1411;
559.5000;0.4746;0.1238;
559.8000;0.4754;0.1263;
560.1000;0.4762;0.1362;
560.4000;0.4729;0.1288;
560.7000;0.4721;0.1288;
561.0000;0.4721;0.1288;
561.3000;0.4737;0.1288;
561.6000;0.4754;0.1337;
561.9000;0.4786;0.1486;
562.2000;0.4754;0.1411;
562.5000;0.4681;0.1288;
562.8000;0.4746;0.1486;
563.1000;0.4770;0.1461;
563.4000;0.4721;0.1337;
563.7000;0.4754;0.1436;
564.0000;0.4762;0.1461;
564.3000;0.4762;0.1511;
564.6000;0.4746;0.1486;
564.9000;0.4754;0.1486;
565.2000;0.4803;0.1560;
565.5000;0.4762;0.1486;
565.8000;0.4770;0.1486;
566.1000;0.4754;0.1461;
566.4000;0.4737;0.1411;
566.7000;0.4729;0.1511;
567.0000;0.4803;0.1634;
567.3000;0.4778;0.1560;
567.6000;0.4762;0.1486;
567.9000;0.4770;0.1486;
568.2000;0.4746;0.1362;
568.5000;0.4754;0.1387;
568.8000;0.4762;0.1362;
569.1000;0.4746;0.1362;
569.4000;0.4762;0.1411;
569.7000;0.4778;0.1387;
570.0000;0.4803;0.1436;
570.3000;0.4770;0.1362;
570.6000;0.4770;0.1486;
570.9000;0.4762;0.1511;
571.2000;0.4786;0.1560;
571.5000;0.4770;0.1486;
571.8000;0.4697;0.1362;
572.1000;0.4770;0.1610;
572.4000;0.4762;0.1560;
572.7000;0.4746;0.1486;
573.0000;0.4754;0.1461;
573.3000;0.4762;0.1585;
573.6000;0.4746;0.1560;
573.9000;0.4721;0.1535;
574.2000;0.4754;0.1585;
574.5000;0.4754;0.1634;
574.8000;0.4754;0.1634;
575.1000;0.4762;0.1783;
575.4000;0.4754;0.1808;
575.7000;0.4762;0.1808;
576.0000;0.4770;0.1684;
576.3000;0.4786;0.1610;
576.6000;0.4762;0.1486;
576.9000;0.4754;0.1511;
577.2000;0.4770;0.1486;
577.5000;0.4762;0.1436;
577.8000;0.4786;0.1585;
578.1000;0.4762;0.1411;
578.4000;0.4770;0.1387;
578.7000;0.4762;0.1362;
579.0000;0.4746;0.1387;
579.3000;0.4762;0.1337;
579.6000;0.4754;0.1312;
579.9000;0.4770;0.1288;
580.2000;0.4762;0.1362;
580.5000;0.4746;0.1288;
580.8000;0.4770;0.1411;
581.1000;0.4746;0.1436;
581.4000;0.4754;0.1511;
581.7000;0.4762;0.1535;
582.0000;0.4762;0.1535;
582.3000;0.4754;0.1610;
582.6000;0.4762;0.1535;
582.9000;0.4713;0.1288;
583.2000;0.4746;0.1411;
583.5000;0.4762;0.1387;
583.8000;0.4737;0.1436;
584.1000;0.4697;0.1288;
584.4000;0.4746;0.1387;
584.7000;0.4754;0.1511;
585.0000;0.4754;0.1560;
585.3000;0.4762;0.1560;
585.6000;0.4811;0.1758;
585.9000;0.4729;0.1560;
586.2000;0.4778;0.1560;
586.5000;0.4803;0.1709;
586.8000;0.4729;0.1436;
587.1000;0.4737;0.1411;
587.4000;0.4746;0.1387;
587.7000;0.4754;0.1436;
588.0000;0.4786;0.1511;
588.3000;0.4746;0.1387;
588.6000;0.4786;0.1486;
588.9000;0.4762;0.1535;
589.2000;0.4762;0.1511;
589.5000;0.4770;0.1610;
589.8000;0.4770;0.1659;
590.1000;0.4737;0.1585;
590.4000;0.4762;0.1610;
590.7000;0.4754;0.1585;
591.0000;0.4819;0.1634;
591.3000;0.4721;0.1337;
591.6000;0.4762;0.1486;
591.9000;0.4762;0.1560;
592.2000;0.4762;0.1535;
592.5000;0.4754;0.1560;
592.8000;0.4762;0.1511;
593.1000;0.4729;0.1486;
593.4000;0.4737;0.1511;
593.7000;0.4754;0.1535;
594.0000;0.4762;0.1486;
594.3000;0.4762;0.1511;
594.6000;0.4754;0.1461;
594.9000;0.4729;0.1436;
595.2000;0.4762;0.1436;
595.5000;0.4746;0.1288;
595.8000;0.4737;0.1312;
596.1000;0.4762;0.1461;
596.4000;0.4754;0.1436;
596.7000;0.4737;0.1535;
597.0000;0.4737;0.1585;
597.3000;0.4737;0.1511;
597.6000;0.4746;0.1560;
597.9000;0.4737;0.1511;
598.2000;0.4737;0.1511;
598.5000;0.4762;0.1560;
598.8000;0.4754;0.1511;
599.1000;0.4762;0.1535;
599.4000;0.4794;0.1634;
599.7000;0.4737;0.1535;
600.0000;0.4746;0.1585;
600.3000;0.4762;0.1486;
600.6000;0.4737;0.1411;
600.9000;0.4754;0.1387;
601.2000;0.4729;0.1164;
601.5000;0.4721;0.1164;
601.8000;0.4697;0.1040;
602.1000;0.4672;0.0941;
602.4000;0.4624;0.0693;
602.7000;0.4615;0.0644;
603.0000;0.4607;0.0619;
603.3000;0.4558;0.0495;
603.6000;0.4567;0.0570;
603.9000;0.4510;0.0470;
604.2000;0.4493;0.0520;
604.5000;0.4485;0.0594;
604.8000;0.4412;0.0470;
605.1000;0.4404;0.0495;
605.4000;0.4420;0.0495;
605.7000;0.4387;0.0446;
606.0000;0.4404;0.0470;
606.3000;0.4347;0.0347;
606.6000;0.4347;0.0322;
606.9000;0.4379;0.0446;
607.2000;0.4330;0.0297;
607.5000;0.4306;0.0198;
607.8000;0.4306;0.0223;
608.1000;0.4217;0.0050;
608.4000;0.4257;0.0198;
608.7000;0.4249;0.0173;
609.0000;0.4274;0.0248;
609.3000;0.4249;0.0248;
609.6000;0.4274;0.0297;
609.9000;0.4225;0.0074;
610.2000;0.4192;-0.0050;
610.5000;0.4192;0.0050;
610.8000;0.4208;0.0149;
611.1000;0.4168;0.0223;
611.4000;0.4168;0.0173;
611.7000;0.4151;0.0124;
612.0000;0.4151;0.0149;
612.3000;0.4143;0.0149;
612.6000;0.4046;-0.0025;
612.9000;0.4111;0.0025;
613.2000;0.4103;-0.0074;
613.5000;0.4111;-0.0025;
613.8000;0.4078;-0.0124;
614.1000;0.4086;-0.0074;
614.4000;0.4086;-0.0074;
614.7000;0.4111;-0.0099;
615.0000;0.4078;-0.0198;
615.3000;0.4094;-0.0223;
615.6000;0.4054;-0.0297;
615.9000;0.4046;-0.0297;
616.2000;0.4046;-0.0297;
616.5000;0.4021;-0.0322;
616.8000;0.4029;-0.0322;
617.1000;0.3956;-0.0470;
617.4000;0.4005;-0.0347;
617.7000;0.3989;-0.0371;
618.0000;0.4021;-0.0198;
618.3000;0.3972;-0.0347;
618.6000;0.3972;-0.0248;
618.9000;0.3956;-0.0272;
619.2000;0.3948;-0.0248;
619.5000;0.3956;-0.0272;
619.8000;0.3964;-0.0322;
620.1000;0.3940;-0.0272;
620.4000;0.3940;-0.0297;
620.7000;0.3923;-0.0371;
621.0000;0.3923;-0.0322;
621.3000;0.3907;-0.0371;
621.6000;0.3899;-0.0322;
621.9000;0.3891;-0.0223;
622.2000;0.3883;-0.0297;
622.5000;0.3875;-0.0248;
622.8000;0.3883;-0.0173;
623.1000;0.3875;-0.0198;
623.4000;0.3858;-0.0248;
623.7000;0.3858;-0.0322;
624.0000;0.3858;-0.0322;
624.3000;0.3850;-0.0322;
624.6000;0.3850;-0.0347;
624.9000;0.3850;-0.0396;
625.2000;0.3850;-0.0371;
625.5000;0.3801;-0.0495;
625.8000;0.3834;-0.0272;
626.1000;0.3834;-0.0297;
626.4000;0.3810;-0.0347;
626.7000;0.3834;-0.0322;
627.0000;0.3810;-0.0322;
627.3000;0.3785;-0.0347;
627.6000;0.3801;-0.0248;
627.9000;0.3850;-0.0149;
628.2000;0.3793;-0.0248;
628.5000;0.3777;-0.0297;
628.8000;0.3785;-0.0272;
629.1000;0.3761;-0.0396;
629.4000;0.3761;-0.0396;
629.7000;0.3753;-0.0322;
630.0000;0.3769;-0.0198;
630.3000;0.3753;-0.0173;
630.6000;0.3744;-0.0223;
630.9000;0.3785;-0.0074;
631.2000;0.3671;-0.0421;
631.5000;0.3744;-0.0248;
631.8000;0.3736;-0.0248;
632.1000;0.3728;-0.0223;
632.4000;0.3679;-0.0322;
632.7000;0.3704;-0.0223;
633.0000;0.3761;-0.0149;
633.3000;0.3704;-0.0272;
633.6000;0.3704;-0.0272;
633.9000;0.3630;-0.0421;
634.2000;0.3679;-0.0347;
634.5000;0.3679;-0.0322;
634.8000;0.3679;-0.0322;
635.1000;0.3679;-0.0396;
635.4000;0.3671;-0.0371;
635.7000;0.3728;-0.0272;
636.0000;0.3671;-0.0421;
636.3000;0.3687;-0.0421;
636.6000;0.3663;-0.0396;
636.9000;0.3663;-0.0371;
637.2000;0.3679;-0.0248;
637.5000;0.3655;-0.0322;
637.8000;0.3655;-0.0347;
638.1000;0.3639;-0.0297;
638.4000;0.3622;-0.0421;
638.7000;0.3606;-0.0446;
639.0000;0.3647;-0.0495;
639.3000;0.3630;-0.0470;
639.6000;0.3614;-0.0446;
639.9000;0.3614;-0.0470;
640.2000;0.3598;-0.0520;
640.5000;0.3614;-0.0446;
640.8000;0.3606;-0.0446;
641.1000;0.3614;-0.0371;
641.4000;0.3598;-0.0421;
641.7000;0.3590;-0.0347;
642.0000;0.3598;-0.0371;
642.3000;0.3663;-0.0198;
642.6000;0.3582;-0.0322;
642.9000;0.3549;-0.0470;
643.2000;0.3582;-0.0421;
643.5000;0.3573;-0.0421;
643.8000;0.3557;-0.0421;
644.1000;0.3565;-0.0322;
644.4000;0.3565;-0.0396;
644.7000;0.3557;-0.0470;
645.0000;0.3549;-0.0470;
645.3000;0.3565;-0.0470;
645.6000;0.3557;-0.0446;
645.9000;0.3541;-0.0495;
646.2000;0.3533;-0.0470;
646.5000;0.3525;-0.0495;
646.8000;0.3549;-0.0446;
647.1000;0.3541;-0.0347;
647.4000;0.3525;-0.0396;
647.7000;0.3525;-0.0421;
648.0000;0.3549;-0.0421;
648.3000;0.3565;-0.0272;
648.6000;0.3525;-0.0396;
648.9000;0.3533;-0.0347;
649.2000;0.3541;-0.0297;
649.5000;0.3500;-0.0470;
649.8000;0.3525;-0.0446;
650.1000;0.3516;-0.0446;
650.4000;0.3500;-0.0495;
650.7000;0.3516;-0.0495;
651.0000;0.3516;-0.0446;
651.3000;0.3525;-0.0371;
651.6000;0.3484;-0.0446;
651.9000;0.3427;-0.0545;
652.2000;0.3484;-0.0371;
652.5000;0.3460;-0.0470;
652.8000;0.3468;-0.0347;
653.1000;0.3484;-0.0272;
653.4000;0.3492;-0.0248;
653.7000;0.3484;-0.0347;
654.0000;0.3460;-0.0371;
654.3000;0.3492;-0.0322;
654.6000;0.3460;-0.0347;
654.9000;0.3443;-0.0495;
655.2000;0.3443;-0.0495;
655.5000;0.3468;-0.0322;
655.8000;0.3435;-0.0396;
656.1000;0.3394;-0.0520;
656.4000;0.3468;-0.0297;
656.7000;0.3427;-0.0347;
657.0000;0.3500;-0.0149;
657.3000;0.3476;-0.0272;
657.6000;0.3451;-0.0297;
657.9000;0.3443;-0.0248;
658.2000;0.3411;-0.0272;
658.5000;0.3443;-0.0248;
658.8000;0.3460;-0.0223;
659.1000;0.3435;-0.0371;
659.4000;0.3468;-0.0322;
659.7000;0.3451;-0.0347;
660.0000;0.3435;-0.0421;
660.3000;0.3443;-0.0396;
660.6000;0.3427;-0.0371;
660.9000;0.3419;-0.0347;
661.2000;0.3378;-0.0545;
661.5000;0.3411;-0.0347;
661.8000;0.3419;-0.0248;
662.1000;0.3419;-0.0223;
662.4000;0.3403;-0.0223;
662.7000;0.3411;-0.0198;
663.0000;0.3411;-0.0173;
663.3000;0.3370;-0.0223;
663.6000;0.3394;-0.0149;
663.9000;0.3427;-0.0074;
664.2000;0.3403;-0.0124;
664.5000;0.3394;-0.0198;
664.8000;0.3411;-0.0198;
665.1000;0.3411;-0.0272;
665.4000;0.3403;-0.0198;
665.7000;0.3394;-0.0223;
666.0000;0.3386;-0.0347;
666.3000;0.3370;-0.0371;
666.6000;0.3337;-0.0470;
666.9000;0.3394;-0.0272;
667.2000;0.3386;-0.0297;
667.5000;0.3378;-0.0272;
667.8000;0.3378;-0.0248;
668.1000;0.3370;-0.0347;
668.4000;0.3403;-0.0347;
668.7000;0.3370;-0.0470;
669.0000;0.3378;-0.0347;
669.3000;0.3386;-0.0347;
669.6000;0.3362;-0.0347;
669.9000;0.3362;-0.0446;
670.2000;0.3346;-0.0520;
670.5000;0.3354;-0.0520;
670.8000;0.3362;-0.0520;
671.1000;0.3362;-0.0470;
671.4000;0.3354;-0.0371;
671.7000;0.3354;-0.0446;
672.0000;0.3346;-0.0446;
672.3000;0.3305;-0.0594;
672.6000;0.3354;-0.0421;
672.9000;0.3337;-0.0495;
673.2000;0.3354;-0.0470;
673.5000;0.3346;-0.0570;
673.8000;0.3337;-0.0545;
674.1000;0.3354;-0.0421;
674.4000;0.3337;-0.0421;
674.7000;0.3337;-0.0446;
675.0000;0.3337;-0.0446;
675.3000;0.3370;-0.0272;
675.6000;0.3354;-0.0248;
675.9000;0.3280;-0.0421;
676.2000;0.3354;-0.0272;
676.5000;0.3329;-0.0322;
676.8000;0.3346;-0.0297;
677.1000;0.3305;-0.0371;
677.4000;0.3321;-0.0396;
677.7000;0.3321;-0.0421;
678.0000;0.3321;-0.0446;
678.3000;0.3305;-0.0470;
678.6000;0.3305;-0.0470;
678.9000;0.3313;-0.0396;
679.2000;0.3305;-0.0371;
679.5000;0.3321;-0.0297;
679.8000;0.3321;-0.0272;
680.1000;0.3248;-0.0446;
680.4000;0.3313;-0.0198;
680.7000;0.3329;-0.0124;
681.0000;0.3313;-0.0124;
681.3000;0.3313;-0.0124;
681.6000;0.3305;-0.0223;
681.9000;0.3313;-0.0124;
682.2000;0.3240;-0.0322;
682.5000;0.3305;-0.0124;
682.8000;0.3305;-0.0173;
683.1000;0.3280;-0.0173;
683.4000;0.3289;-0.0124;
683.7000;0.3297;-0.0149;
684.0000;0.3264;-0.0198;
684.3000;0.3297;-0.0124;
684.6000;0.3289;-0.0124;
684.9000;0.3272;-0.0074;
685.2000;0.3354;0.0025;
685.5000;0.3297;-0.0124;
685.8000;0.3289;-0.0173;
686.1000;0.3313;-0.0149;
686.4000;0.3297;-0.0173;
686.7000;0.3280;-0.0198;
687.0000;0.3215;-0.0396;
687.3000;0.3199;-0.0495;
687.6000;0.3280;-0.0371;
687.9000;0.3280;-0.0322;
688.2000;0.3419;-0.0025;
688.5000;0.3272;-0.0297;
688.8000;0.3264;-0.0297;
689.1000;0.3272;-0.0347;
689.4000;0.3272;-0.0446;
689.7000;0.3272;-0.0347;
690.0000;0.3223;-0.0446;
690.3000;0.3321;-0.0297;
690.6000;0.3264;-0.0446;
690.9000;0.3264;-0.0272;
691.2000;0.3248;-0.0396;
691.5000;0.3248;-0.0421;
691.8000;0.3264;-0.0371;
692.1000;0.3272;-0.0322;
692.4000;0.3264;-0.0322;
692.7000;0.3272;-0.0371;
693.0000;0.3272;-0.0223;
693.3000;0.3264;-0.0248;
693.6000;0.3264;-0.0272;
693.9000;0.3272;-0.0297;
694.2000;0.3256;-0.0322;
694.5000;0.3240;-0.0297;
694.8000;0.3264;-0.0272;
695.1000;0.3248;-0.0297;
695.4000;0.3207;-0.0446;
695.7000;0.3248;-0.0297;
696.0000;0.3240;-0.0347;
696.3000;0.3223;-0.0371;
696.6000;0.3256;-0.0297;
696.9000;0.3240;-0.0297;
697.2000;0.3240;-0.0272;
697.5000;0.3240;-0.0347;
697.8000;0.3232;-0.0322;
698.1000;0.3223;-0.0223;
698.4000;0.3248;-0.0149;
698.7000;0.3240;-0.0074;
699.0000;0.3248;-0.0149;
699.3000;0.3223;-0.0272;
699.6000;0.3232;-0.0272;
699.9000;0.3232;-0.0272;
700.2000;0.3215;-0.0322;
700.5000;0.3223;-0.0297;
700.8000;0.3191;-0.0347;
701.1000;0.3232;-0.0198;
701.4000;0.3248;-0.0248;
701.7000;0.3232;-0.0272;
702.0000;0.3199;-0.0248;
702.3000;0.3215;-0.0198;
702.6000;0.3232;-0.0272;
702.9000;0.3223;-0.0322;
703.2000;0.3248;-0.0198;
703.5000;0.3166;-0.0470;
703.8000;0.3232;-0.0223;
704.1000;0.3289;-0.0124;
704.4000;0.3223;-0.0248;
704.7000;0.3223;-0.0248;
705.0000;0.3215;-0.0272;
705.3000;0.3215;-0.0223;
705.6000;0.3215;-0.0223;
705.9000;0.3207;-0.0272;
706.2000;0.3207;-0.0396;
706.5000;0.3232;-0.0347;
706.8000;0.3215;-0.0347;
707.1000;0.3199;-0.0396;
707.4000;0.3199;-0.0446;
707.7000;0.3232;-0.0322;
708.0000;0.3183;-0.0347;
708.3000;0.3158;-0.0396;
708.6000;0.3207;-0.0173;
708.9000;0.3207;-0.0124;
709.2000;0.3215;-0.0198;
709.5000;0.3199;-0.0198;
709.8000;0.3215;-0.0223;
710.1000;0.3183;-0.0248;
710.4000;0.3215;-0.0198;
710.7000;0.3199;-0.0322;
711.0000;0.3175;-0.0470;
711.3000;0.3183;-0.0421;
711.6000;0.3207;-0.0396;
711.9000;0.3199;-0.0347;
712.2000;0.3191;-0.0371;
712.5000;0.3191;-0.0248;
712.8000;0.3199;-0.0223;
713.1000;0.3191;-0.0198;
713.4000;0.3191;-0.0248;
713.7000;0.3199;-0.0223;
714.0000;0.3183;-0.0347;
714.3000;0.3150;-0.0347;
714.6000;0.3199;-0.0223;
714.9000;0.3191;-0.0248;
715.2000;0.3183;-0.0223;
715.5000;0.3191;-0.0198;
715.8000;0.3183;-0.0099;
716.1000;0.3191;-0.0124;
716.4000;0.3199;-0.0074;
716.7000;0.3183;-0.0149;
717.0000;0.3199;-0.0124;
717.3000;0.3191;-0.0124;
717.6000;0.3175;-0.0198;
717.9000;0.3191;-0.0223;
718.2000;0.3191;-0.0198;
718.5000;0.3142;-0.0446;
718.8000;0.3191;-0.0421;
719.1000;0.3207;-0.0297;
719.4000;0.3207;-0.0248;
719.7000;0.3223;-0.0198;
720.0000;0.3215;-0.0198;
720.3000;0.3199;-0.0322;
720.6000;0.3166;-0.0272;
720.9000;0.3199;-0.0198;
721.2000;0.3166;-0.0297;
721.5000;0.3158;-0.0272;
721.8000;0.3207;-0.0248;
722.1000;0.3175;-0.0396;
722.4000;0.3158;-0.0470;
722.7000;0.3166;-0.0446;
723.0000;0.3158;-0.0470;
723.3000;0.3191;-0.0446;
723.6000;0.3150;-0.0545;
723.9000;0.3207;-0.0297;
724.2000;0.3183;-0.0272;
724.5000;0.3215;-0.0149;
724.8000;0.3085;-0.0446;
725.1000;0.3199;-0.0124;
725.4000;0.3158;-0.0272;
725.7000;0.3158;-0.0272;
726.0000;0.3158;-0.0322;
726.3000;0.3101;-0.0396;
726.6000;0.3199;-0.0297;
726.9000;0.3175;-0.0446;
727.2000;0.3150;-0.0520;
727.5000;0.3150;-0.0545;
727.8000;0.3150;-0.0470;
728.1000;0.3191;-0.0272;
728.4000;0.3158;-0.0248;
728.7000;0.3158;-0.0198;
729.0000;0.3166;-0.0173;
729.3000;0.3166;-0.0124;
729.6000;0.3166;-0.0124;
729.9000;0.3175;-0.0198;
730.2000;0.3223;0.0000;
730.5000;0.3166;-0.0124;
730.8000;0.3175;-0.0124;
731.1000;0.3158;-0.0149;
731.4000;0.3158;-0.0124;
731.7000;0.3166;-0.0124;
732.0000;0.3158;-0.0124;
732.3000;0.3166;-0.0173;
732.6000;0.3142;-0.0248;
732.9000;0.3183;-0.0322;
733.2000;0.3158;-0.0322;
733.5000;0.3150;-0.0272;
733.8000;0.3134;-0.0322;
734.1000;0.3150;-0.0248;
734.4000;0.3150;-0.0223;
734.7000;0.3158;-0.0248;
735.0000;0.3158;-0.0223;
735.3000;0.3158;-0.0173;
735.6000;0.3158;-0.0248;
735.9000;0.3158;-0.0347;
736.2000;0.3142;-0.0371;
736.5000;0.3134;-0.0396;
736.8000;0.3134;-0.0347;
737.1000;0.3134;-0.0396;
737.4000;0.3158;-0.0347;
737.7000;0.3126;-0.0446;
738.0000;0.3126;-0.0396;
738.3000;0.3044;-0.0495;
738.6000;0.3142;-0.0272;
738.9000;0.3126;-0.0297;
739.2000;0.3134;-0.0272;
739.5000;0.3118;-0.0272;
739.8000;0.3150;-0.0223;
740.1000;0.3142;-0.0223;
740.4000;0.3175;-0.0223;
740.7000;0.3142;-0.0198;
741.0000;0.3142;-0.0248;
741.3000;0.3150;-0.0223;
741.6000;0.3134;-0.0272;
741.9000;0.3134;-0.0322;
742.2000;0.3134;-0.0322;
742.5000;0.3175;-0.0272;
742.8000;0.3134;-0.0297;
743.1000;0.3134;-0.0371;
743.4000;0.3142;-0.0371;
743.7000;0.3134;-0.0347;
744.0000;0.3166;-0.0248;
744.3000;0.3142;-0.0347;
744.6000;0.3142;-0.0272;
744.9000;0.3142;-0.0347;
745.2000;0.3118;-0.0446;
745.5000;0.3134;-0.0347;
745.8000;0.3118;-0.0371;
746.1000;0.3109;-0.0396;
746.4000;0.3077;-0.0520;
746.7000;0.3134;-0.0446;
747.0000;0.3093;-0.0520;
747.3000;0.3109;-0.0520;
747.6000;0.3118;-0.0495;
747.9000;0.3077;-0.0619;
748.2000;0.3150;-0.0396;
748.5000;0.3093;-0.0421;
748.8000;0.3093;-0.0446;
749.1000;0.3158;-0.0297;
749.4000;0.3134;-0.0347;
749.7000;0.3101;-0.0371;
750.0000;0.3109;-0.0396;
750.3000;0.3118;-0.0396;
750.6000;0.3118;-0.0470;
750.9000;0.3118;-0.0347;
751.2000;0.3109;-0.0322;
751.5000;0.3109;-0.0272;
751.8000;0.3118;-0.0248;
752.1000;0.3085;-0.0322;
752.4000;0.3109;-0.0297;
752.7000;0.3109;-0.0322;
753.0000;0.3126;-0.0347;
753.3000;0.3109;-0.0347;
753.6000;0.3118;-0.0272;
753.9000;0.3118;-0.0248;
754.2000;0.3118;-0.0322;
754.5000;0.3118;-0.0297;
754.8000;0.3101;-0.0248;
755.1000;0.3109;-0.0248;
755.4000;0.3134;-0.0173;
755.7000;0.3101;-0.0248;
756.0000;0.3077;-0.0322;
756.3000;0.3109;-0.0322;
756.6000;0.3126;-0.0272;
756.9000;0.3069;-0.0396;
757.2000;0.3109;-0.0347;
757.5000;0.3085;-0.0396;
757.8000;0.3109;-0.0297;
758.1000;0.3118;-0.0248;
758.4000;0.3109;-0.0322;
758.7000;0.3109;-0.0223;
759.0000;0.3093;-0.0198;
759.3000;0.3085;-0.0173;
759.6000;0.3093;-0.0025;
759.9000;0.3134;0.0050;
760.2000;0.3101;0.0000;
760.5000;0.3069;-0.0099;
760.8000;0.3118;-0.0099;
761.1000;0.3085;-0.0173;
761.4000;0.3109;-0.0173;
761.7000;0.3118;-0.0173;
762.0000;0.3118;-0.0223;
762.3000;0.3118;-0.0198;
762.6000;0.3093;-0.0322;
762.9000;0.3093;-0.0396;
763.2000;0.3101;-0.0347;
763.5000;0.3077;-0.0272;
763.8000;0.3109;-0.0223;
764.1000;0.3101;-0.0322;
764.4000;0.3126;-0.0223;
764.7000;0.3101;-0.0223;
765.0000;0.3085;-0.0248;
765.3000;0.3020;-0.0470;
765.6000;0.3093;-0.0223;
765.9000;0.3101;-0.0173;
766.2000;0.3101;-0.0272;
766.5000;0.3101;-0.0297;
766.8000;0.3093;-0.0248;
767.1000;0.3093;-0.0223;
767.4000;0.3150;-0.0223;
767.7000;0.3101;-0.0347;
768.0000;0.3101;-0.0347;
768.3000;0.3085;-0.0297;
768.6000;0.3093;-0.0272;
768.9000;0.3126;-0.0272;
769.2000;0.3077;-0.0347;
769.5000;0.3077;-0.0322;
769.8000;0.3069;-0.0347;
770.1000;0.3093;-0.0223;
770.4000;0.3093;-0.0248;
770.7000;0.3085;-0.0223;
771.0000;0.3158;0.0000;
771.3000;0.3109;-0.0173;
771.6000;0.3109;-0.0198;
771.9000;0.3118;-0.0248;
772.2000;0.3085;-0.0297;
772.5000;0.3101;-0.0248;
772.8000;0.3085;-0.0248;
773.1000;0.3077;-0.0297;
773.4000;0.3109;-0.0248;
773.7000;0.3093;-0.0223;
774.0000;0.3085;-0.0173;
774.3000;0.3053;-0.0248;
774.6000;0.3036;-0.0322;
774.9000;0.3150;-0.0099;
775.2000;0.3085;-0.0297;
775.5000;0.3085;-0.0347;
775.8000;0.3077;-0.0248;
776.1000;0.3085;-0.0198;
776.4000;0.3093;-0.0173;
776.7000;0.3069;-0.0198;
777.0000;0.3077;-0.0124;
777.3000;0.3093;-0.0149;
777.6000;0.3085;-0.0198;
777.9000;0.3061;-0.0272;
778.2000;0.3069;-0.0223;
778.5000;0.3085;-0.0223;
778.8000;0.3093;-0.0347;
779.1000;0.3077;-0.0322;
779.4000;0.3093;-0.0272;
779.7000;0.3077;-0.0223;
780.0000;0.3093;-0.0248;
780.3000;0.3077;-0.0347;
780.6000;0.3069;-0.0322;
780.9000;0.3077;-0.0322;
781.2000;0.3077;-0.0297;
781.5000;0.3069;-0.0297;
781.8000;0.3069;-0.0248;
782.1000;0.3077;-0.0223;
782.4000;0.3077;-0.0223;
782.7000;0.3077;-0.0173;
783.0000;0.3077;-0.0149;
783.3000;0.3142;0.0000;
783.6000;0.3077;-0.0248;
783.9000;0.3044;-0.0347;
784.2000;0.3077;-0.0248;
784.5000;0.3085;-0.0322;
784.8000;0.3077;-0.0446;
785.1000;0.3101;-0.0347;
785.4000;0.3093;-0.0297;
785.7000;0.3069;-0.0347;
786.0000;0.3061;-0.0322;
786.3000;0.3077;-0.0198;
786.6000;0.3061;-0.0124;
786.9000;0.3061;-0.0173;
787.2000;0.3077;-0.0149;
787.5000;0.3069;-0.0198;
787.8000;0.3166;0.0025;
788.1000;0.3077;-0.0173;
788.4000;0.3085;-0.0198;
788.7000;0.3077;-0.0223;
789.0000;0.3069;-0.0223;
789.3000;0.3044;-0.0272;
789.6000;0.3069;-0.0322;
789.9000;0.3085;-0.0297;
790.2000;0.3085;-0.0272;
790.5000;0.3126;-0.0223;
790.8000;0.3069;-0.0297;
791.1000;0.3069;-0.0248;
791.4000;0.3077;-0.0149;
791.7000;0.3069;-0.0223;
792.0000;0.3053;-0.0198;
792.3000;0.3044;-0.0198;
792.6000;0.3053;-0.0223;
792.9000;0.3085;-0.0149;
793.2000;0.3069;-0.0173;
793.5000;0.3053;-0.0272;
793.8000;0.3053;-0.0322;
794.1000;0.3077;-0.0223;
794.4000;0.3053;-0.0272;
794.7000;0.3077;-0.0198;
795.0000;0.3134;0.0000;
795.3000;0.3053;-0.0223;
795.6000;0.3077;-0.0173;
795.9000;0.3077;-0.0223;
796.2000;0.3069;-0.0248;
796.5000;0.3069;-0.0248;
796.8000;0.3069;-0.0248;
797.1000;0.3069;-0.0272;
797.4000;0.3085;-0.0223;
797.7000;0.3061;-0.0297;
798.0000;0.3061;-0.0272;
798.3000;0.3061;-0.0272;
798.6000;0.2979;-0.0371;
798.9000;0.3069;-0.0198;
799.2000;0.3061;-0.0124;
799.5000;0.3069;-0.0198;
799.8000;0.3085;-0.0248;
800.1000;0.3061;-0.0272;
800.4000;0.3053;-0.0272;
800.7000;0.3061;-0.0322;
801.0000;0.3044;-0.0470;
801.3000;0.3069;-0.0446;
801.6000;0.3053;-0.0470;
801.9000;0.3069;-0.0446;
802.2000;0.3077;-0.0347;
802.5000;0.3061;-0.0198;
802.8000;0.3069;-0.0248;
803.1000;0.3061;-0.0347;
803.4000;0.3028;-0.0495;
803.7000;0.3053;-0.0371;
804.0000;0.3053;-0.0421;
804.3000;0.3020;-0.0421;
804.6000;0.3044;-0.0347;
804.9000;0.3053;-0.0248;
805.2000;0.3053;-0.0198;
805.5000;0.3044;-0.0248;
805.8000;0.3044;-0.0322;
806.1000;0.3061;-0.0198;
806.4000;0.2987;-0.0322;
806.7000;0.3069;-0.0198;
807.0000;0.3061;-0.0248;
807.3000;0.3069;-0.0248;
807.6000;0.3061;-0.0272;
807.9000;0.3069;-0.0223;
808.2000;0.3101;-0.0050;
808.5000;0.3069;-0.0074;
808.8000;0.3053;-0.0074;
809.1000;0.3044;-0.0149;
809.4000;0.3077;-0.0124;
809.7000;0.3061;-0.0198;
810.0000;0.3044;-0.0272;
810.3000;0.3028;-0.0248;
810.6000;0.3044;-0.0248;
810.9000;0.3044;-0.0223;
811.2000;0.3061;-0.0173;
811.5000;0.3036;-0.0223;
811.8000;0.3028;-0.0223;
812.1000;0.3028;-0.0347;
812.4000;0.3061;-0.0223;
812.7000;0.3061;-0.0322;
813.0000;0.3101;-0.0248;
813.3000;0.3053;-0.0297;
813.6000;0.3061;-0.0248;
813.9000;0.3061;-0.0223;
814.2000;0.2987;-0.0347;
814.5000;0.3069;-0.0173;
814.8000;0.3036;-0.0124;
815.1000;0.3061;-0.0124;
815.4000;0.3020;-0.0371;
815.7000;0.3036;-0.0347;
816.0000;0.3044;-0.0322;
816.3000;0.3044;-0.0297;
816.6000;0.3036;-0.0396;
816.9000;0.3020;-0.0396;
817.2000;0.3044;-0.0272;
817.5000;0.3053;-0.0297;
817.8000;0.3061;-0.0297;
818.1000;0.3053;-0.0248;
818.4000;0.3053;-0.0248;
818.7000;0.3036;-0.0272;
819.0000;0.2947;-0.0421;
819.3000;0.3044;-0.0223;
819.6000;0.3028;-0.0371;
819.9000;0.3061;-0.0198;
820.2000;0.3061;-0.0124;
820.5000;0.3053;-0.0149;
820.8000;0.3061;-0.0173;
821.1000;0.3053;-0.0149;
821.4000;0.3044;-0.0149;
821.7000;0.3061;-0.0124;
822.0000;0.3044;-0.0198;
822.3000;0.3044;-0.0223;
822.6000;0.3053;-0.0173;
822.9000;0.3044;-0.0223;
823.2000;0.3044;-0.0223;
823.5000;0.3036;-0.0248;
823.8000;0.3044;-0.0297;
824.1000;0.3044;-0.0297;
824.4000;0.3020;-0.0371;
824.7000;0.3020;-0.0297;
825.0000;0.3028;-0.0248;
825.3000;0.3044;-0.0173;
825.6000;0.3036;-0.0223;
825.9000;0.3044;-0.0248;
826.2000;0.3028;-0.0297;
826.5000;0.3028;-0.0248;
826.8000;0.3044;-0.0173;
827.1000;0.3044;-0.0050;
827.4000;0.3044;-0.0074;
827.7000;0.3085;-0.0050;
828.0000;0.3053;-0.0173;
828.3000;0.3069;-0.0198;
828.6000;0.3028;-0.0248;
828.9000;0.3044;-0.0223;
829.2000;0.3036;-0.0272;
829.5000;0.3044;-0.0173;
829.8000;0.3004;-0.0248;
830.1000;0.3036;-0.0173;
830.4000;0.3053;-0.0198;
830.7000;0.3036;-0.0297;
831.0000;0.3036;-0.0223;
831.3000;0.3028;-0.0272;
831.6000;0.3028;-0.0223;
831.9000;0.3036;-0.0198;
832.2000;0.3053;-0.0149;
832.5000;0.3069;-0.0173;
832.8000;0.3044;-0.0272;
833.1000;0.3053;-0.0248;
833.4000;0.3044;-0.0272;
833.7000;0.3028;-0.0297;
834.0000;0.3020;-0.0248;
834.3000;0.3044;-0.0223;
834.6000;0.3036;-0.0223;
834.9000;0.3028;-0.0198;
835.2000;0.3093;0.0025;
835.5000;0.3028;-0.0074;
835.8000;0.3028;-0.0149;
836.1000;0.3020;-0.0149;
836.4000;0.3012;-0.0297;
836.7000;0.3028;-0.0223;
837.0000;0.3004;-0.0248;
837.3000;0.2971;-0.0396;
837.6000;0.3028;-0.0223;
837.9000;0.3044;-0.0173;
838.2000;0.3028;-0.0149;
838.5000;0.3012;-0.0124;
838.8000;0.3028;-0.0149;
839.1000;0.3036;-0.0074;
839.4000;0.3020;-0.0149;
839.7000;0.3036;-0.0124;
840.0000;0.3012;-0.0223;
840.3000;0.3004;-0.0248;
840.6000;0.3020;-0.0297;
840.9000;0.3020;-0.0297;
841.2000;0.3020;-0.0248;
841.5000;0.3036;-0.0272;
841.8000;0.3036;-0.0347;
842.1000;0.3020;-0.0371;
842.4000;0.3036;-0.0272;
842.7000;0.3028;-0.0248;
843.0000;0.3028;-0.0248;
843.3000;0.3036;-0.0223;
843.6000;0.3036;-0.0198;
843.9000;0.3020;-0.0347;
844.2000;0.3126;-0.0099;
844.5000;0.3036;-0.0297;
844.8000;0.3061;-0.0223;
845.1000;0.3036;-0.0223;
845.4000;0.3028;-0.0124;
845.7000;0.3036;-0.0074;
846.0000;0.2996;-0.0124;
846.3000;0.3036;-0.0124;
846.6000;0.3028;-0.0074;
846.9000;0.3077;0.0050;
847.2000;0.3012;-0.0050;
847.5000;0.3012;-0.0173;
847.8000;0.3004;-0.0173;
848.1000;0.3020;-0.0099;
848.4000;0.3028;0.0000;
848.7000;0.3036;0.0000;
849.0000;0.3028;0.0000;
849.3000;0.3028;-0.0050;
849.6000;0.3020;0.0000;
849.9000;0.3036;0.0000;
850.2000;0.3020;-0.0099;
850.5000;0.3061;-0.0173;
850.8000;0.3020;-0.0173;
851.1000;0.3020;-0.0149;
851.4000;0.3020;-0.0149;
851.7000;0.3020;-0.0124;
852.0000;0.3020;-0.0099;
852.3000;0.3020;-0.0099;
852.6000;0.3036;0.0000;
852.9000;0.3044;0.0074;
853.2000;0.3020;0.0050;
853.5000;0.3028;0.0050;
853.8000;0.3085;0.0223;
854.1000;0.3020;0.0000;
854.4000;0.3020;0.0000;
854.7000;0.3012;-0.0050;
855.0000;0.3020;-0.0074;
855.3000;0.3028;-0.0050;
855.6000;0.3020;-0.0050;
855.9000;0.3012;-0.0074;
856.2000;0.3020;-0.0149;
856.5000;0.3036;-0.0124;
856.8000;0.3028;-0.0124;
857.1000;0.3036;-0.0124;
857.4000;0.3020;-0.0149;
857.7000;0.3020;-0.0025;
858.0000;0.3053;-0.0025;
858.3000;0.3028;-0.0124;
858.6000;0.3012;-0.0099;
858.9000;0.3020;-0.0025;
859.2000;0.3004;-0.0050;
859.5000;0.3012;-0.0099;
859.8000;0.3020;-0.0025;
860.1000;0.3012;-0.0074;
860.4000;0.3044;0.0025;
860.7000;0.2987;-0.0025;
861.0000;0.3028;0.0025;
861.3000;0.3020;0.0000;
861.6000;0.3020;0.0000;
861.9000;0.3004;-0.0074;
862.2000;0.2987;-0.0099;
862.5000;0.2963;-0.0149;
862.8000;0.3028;0.0050;
863.1000;0.3028;0.0050;
863.4000;0.3004;0.0000;
863.7000;0.3020;0.0000;
864.0000;0.3012;-0.0074;
864.3000;0.3012;-0.0050;
864.6000;0.3004;0.0000;
864.9000;0.3028;0.0025;
865.2000;0.3036;-0.0025;
865.5000;0.3028;-0.0050;
865.8000;0.3020;-0.0050;
866.1000;0.3020;0.0000;
866.4000;0.3012;-0.0149;
866.7000;0.3028;-0.0173;
867.0000;0.2971;-0.0396;
867.3000;0.2963;-0.0396;
867.6000;0.3036;-0.0272;
867.9000;0.3012;-0.0347;
868.2000;0.3036;-0.0248;
868.5000;0.3012;-0.0248;
868.8000;0.3020;-0.0272;
869.1000;0.3028;-0.0322;
869.4000;0.3028;-0.0272;
869.7000;0.2987;-0.0272;
870.0000;0.3004;-0.0173;
870.3000;0.3012;-0.0124;
870.6000;0.3012;-0.0248;
870.9000;0.3012;-0.0272;
871.2000;0.2987;-0.0371;
871.5000;0.3012;-0.0322;
871.8000;0.3012;-0.0297;
872.1000;0.3036;-0.0322;
872.4000;0.3020;-0.0446;
872.7000;0.3036;-0.0495;
873.0000;0.3012;-0.0446;
873.3000;0.3069;-0.0198;
873.6000;0.2979;-0.0446;
873.9000;0.2996;-0.0371;
874.2000;0.3004;-0.0371;
874.5000;0.3004;-0.0396;
874.8000;0.3004;-0.0446;
875.1000;0.2987;-0.0470;
875.4000;0.3036;-0.0223;
875.7000;0.3004;-0.0297;
876.0000;0.3028;-0.0322;
876.3000;0.3020;-0.0347;
876.6000;0.3028;-0.0322;
876.9000;0.3012;-0.0396;
877.2000;0.3093;-0.0248;
877.5000;0.3036;-0.0520;
877.8000;0.3012;-0.0545;
878.1000;0.3020;-0.0495;
878.4000;0.3044;-0.0371;
878.7000;0.3004;-0.0347;
879.0000;0.3028;-0.0297;
879.3000;0.2996;-0.0272;
879.6000;0.3020;-0.0198;
879.9000;0.3020;-0.0223;
880.2000;0.3028;-0.0149;
880.5000;0.3044;-0.0124;
880.8000;0.3012;-0.0124;
881.1000;0.3012;-0.0074;
881.4000;0.3004;-0.0173;
881.7000;0.3020;-0.0173;
882.0000;0.3004;-0.0173;
882.3000;0.3020;-0.0124;
882.6000;0.3004;-0.0173;
882.9000;0.3020;-0.0124;
883.2000;0.3004;-0.0149;
883.5000;0.3012;-0.0198;
883.8000;0.2996;-0.0149;
884.1000;0.2987;-0.0223;
884.4000;0.3004;-0.0074;
884.7000;0.3004;-0.0173;
885.0000;0.3012;-0.0149;
885.3000;0.3012;-0.0149;
885.6000;0.2996;-0.0124;
885.9000;0.3020;-0.0050;
886.2000;0.2996;-0.0149;
886.5000;0.3004;-0.0297;
886.8000;0.2979;-0.0396;
887.1000;0.2939;-0.0495;
887.4000;0.3012;-0.0347;
887.7000;0.3028;-0.0371;
888.0000;0.3101;-0.0149;
888.3000;0.3004;-0.0371;
888.6000;0.2996;-0.0272;
888.9000;0.3028;-0.0173;
889.2000;0.3012;-0.0124;
889.5000;0.3004;-0.0124;
889.8000;0.3012;-0.0099;
890.1000;0.3012;-0.0099;
890.4000;0.3012;-0.0050;
890.7000;0.3012;-0.0099;
891.0000;0.2987;-0.0149;
891.3000;0.2987;-0.0149;
891.6000;0.3028;-0.0074;
891.9000;0.3004;-0.0124;
892.2000;0.3004;-0.0149;
892.5000;0.2996;-0.0124;
892.8000;0.3012;0.0000;
893.1000;0.3028;0.0025;
893.4000;0.3004;0.0025;
893.7000;0.2987;-0.0050;
894.0000;0.3004;-0.0074;
894.3000;0.3012;-0.0099;
894.6000;0.3012;-0.0074;
894.9000;0.3028;-0.0074;
895.2000;0.3020;-0.0124;
895.5000;0.3028;-0.0124;
895.8000;0.3020;-0.0099;
896.1000;0.3004;-0.0173;
896.4000;0.2979;-0.0248;
896.7000;0.3012;-0.0149;
897.0000;0.3020;-0.0099;
897.3000;0.3012;-0.0074;
897.6000;0.3020;-0.0050;
897.9000;0.3012;-0.0050;
898.2000;0.3004;-0.0099;
898.5000;0.3012;-0.0099;
898.8000;0.3020;0.0000;
899.1000;0.3012;-0.0099;
899.4000;0.2914;-0.0322;
899.7000;0.3012;-0.0099;
900.0000;0.3004;-0.0149;
900.3000;0.3012;-0.0198;
900.6000;0.3004;-0.0198;
900.9000;0.3004;-0.0223;
901.2000;0.2996;-0.0223;
901.5000;0.3012;-0.0248;
901.8000;0.3004;-0.0272;
902.1000;0.2996;-0.0297;
902.4000;0.3053;0.0000;
902.7000;0.2996;0.0000;
903.0000;0.2987;-0.0025;
903.3000;0.2979;-0.0025;
903.6000;0.2996;-0.0074;
903.9000;0.2996;-0.0173;
904.2000;0.3004;-0.0198;
904.5000;0.3012;-0.0149;
904.8000;0.3004;-0.0099;
905.1000;0.2939;-0.0223;
905.4000;0.3028;-0.0050;
905.7000;0.3012;-0.0074;
906.0000;0.3004;-0.0149;
906.3000;0.3004;-0.0074;
906.6000;0.3004;-0.0025;
906.9000;0.2996;-0.0025;
907.2000;0.2955;-0.0124;
907.5000;0.2987;-0.0050;
907.8000;0.2987;-0.0050;
908.1000;0.2996;-0.0050;
908.4000;0.2987;0.0050;
908.7000;0.2996;0.0074;
909.0000;0.2987;-0.0025;
909.3000;0.3020;-0.0025;
909.6000;0.2996;-0.0050;
909.9000;0.3004;0.0025;
910.2000;0.2996;0.0050;
910.5000;0.3004;0.0099;
910.8000;0.3004;-0.0025;
911.1000;0.3020;0.0025;
911.4000;0.2987;-0.0074;
911.7000;0.2996;-0.0074;
912.0000;0.3028;-0.0050;
912.3000;0.3012;-0.0099;
912.6000;0.2996;-0.0099;
912.9000;0.3053;0.0050;
913.2000;0.2996;-0.0099;
913.5000;0.3004;-0.0149;
913.8000;0.3004;-0.0124;
914.1000;0.2963;-0.0223;
914.4000;0.2963;-0.0223;
914.7000;0.3004;-0.0074;
915.0000;0.2987;-0.0099;
915.3000;0.3020;0.0000;
915.6000;0.3004;-0.0074;
915.9000;0.3020;-0.0074;
916.2000;0.3028;-0.0074;
916.5000;0.2987;-0.0173;
916.8000;0.2996;-0.0124;
917.1000;0.3020;-0.0025;
917.4000;0.2996;-0.0074;
917.7000;0.3004;-0.0025;
918.0000;0.2939;-0.0173;
918.3000;0.3004;-0.0099;
918.6000;0.2996;-0.0074;
918.9000;0.3093;0.0149;
919.2000;0.3004;-0.0050;
919.5000;0.3012;-0.0050;
919.8000;0.2987;-0.0099;
920.1000;0.3012;0.0025;
920.4000;0.3004;-0.0074;
920.7000;0.2987;-0.0124;
921.0000;0.2996;-0.0124;
921.3000;0.3028;-0.0050;
921.6000;0.2971;-0.0223;
921.9000;0.2987;-0.0025;
922.2000;0.2987;0.0000;
922.5000;0.3004;0.0025;
922.8000;0.2996;-0.0099;
923.1000;0.2996;-0.0074;
923.4000;0.2996;-0.0124;
923.7000;0.3012;-0.0025;
924.0000;0.3012;0.0074;
924.3000;0.2979;0.0074;
924.6000;0.2996;0.0099;
924.9000;0.2996;0.0050;
925.2000;0.3004;0.0074;
925.5000;0.2987;0.0074;
925.8000;0.3004;0.0074;
926.1000;0.3012;0.0050;
926.4000;0.2979;-0.0074;
926.7000;0.3012;0.0025;
927.0000;0.2979;-0.0074;
927.3000;0.2996;-0.0124;
927.6000;0.3012;-0.0050;
927.9000;0.2996;-0.0099;
928.2000;0.2996;-0.0099;
928.5000;0.2987;-0.0149;
928.8000;0.3004;-0.0074;
929.1000;0.2963;-0.0198;
929.4000;0.2979;-0.0025;
929.7000;0.2979;-0.0124;
930.0000;0.2996;-0.0074;
930.3000;0.2963;-0.0124;
930.6000;0.2914;-0.0272;
930.9000;0.2979;-0.0099;
931.2000;0.2971;-0.0050;
931.5000;0.3004;0.0074;
931.8000;0.2979;0.0124;
932.1000;0.2996;0.0149;
932.4000;0.3020;0.0198;
932.7000;0.2996;0.0050;
933.0000;0.3004;0.0050;
933.3000;0.2987;0.0074;
933.6000;0.2987;0.0074;
933.9000;0.2996;0.0050;
934.2000;0.2979;-0.0074;
934.5000;0.3004;-0.0074;
934.8000;0.2963;-0.0099;
935.1000;0.2955;-0.0050;
935.4000;0.2996;-0.0025;
935.7000;0.2963;-0.0050;
936.0000;0.3004;0.0025;
936.3000;0.2971;-0.0025;
936.6000;0.2979;-0.0074;
936.9000;0.2987;-0.0025;
937.2000;0.2996;-0.0124;
937.5000;0.2987;-0.0173;
937.8000;0.3004;-0.0149;
938.1000;0.3004;-0.0074;
938.4000;0.2996;-0.0025;
938.7000;0.2987;-0.0074;
939.0000;0.3020;0.0025;
939.3000;0.3004;0.0025;
939.6000;0.2987;-0.0099;
939.9000;0.3061;0.0223;
940.2000;0.2996;0.0198;
940.5000;0.2996;0.0223;
940.8000;0.3004;0.0099;
941.1000;0.2987;0.0050;
941.4000;0.2987;0.0099;
941.7000;0.2996;0.0198;
942.0000;0.3044;0.0297;
942.3000;0.2996;0.0074;
942.6000;0.2987;0.0074;
942.9000;0.2996;0.0050;
943.2000;0.3004;-0.0050;
943.5000;0.3004;-0.0099;
943.8000;0.3036;-0.0149;
944.1000;0.3004;-0.0124;
944.4000;0.2979;-0.0173;
944.7000;0.2979;-0.0149;
945.0000;0.3012;0.0000;
945.3000;0.2987;-0.0050;
945.6000;0.2996;0.0000;
945.9000;0.2996;0.0025;
946.2000;0.2996;0.0025;
946.5000;0.2947;-0.0149;
946.8000;0.2987;-0.0025;
947.1000;0.2987;-0.0050;
947.4000;0.3044;0.0099;
947.7000;0.2979;-0.0074;
948.0000;0.2979;-0.0050;
948.3000;0.2987;-0.0025;
948.6000;0.2987;-0.0050;
948.9000;0.2987;-0.0025;
949.2000;0.3004;0.0050;
949.5000;0.2979;0.0074;
949.8000;0.2987;0.0025;
950.1000;0.3020;0.0099;
950.4000;0.3004;0.0025;
950.7000;0.2996;-0.0050;
951.0000;0.2996;-0.0074;
951.3000;0.2987;-0.0099;
951.6000;0.2987;-0.0149;
951.9000;0.2979;-0.0149;
952.2000;0.3012;-0.0025;
952.5000;0.2947;-0.0074;
952.8000;0.2979;0.0074;
953.1000;0.2987;-0.0025;
953.4000;0.2996;-0.0074;
953.7000;0.2996;0.0000;
954.0000;0.3036;0.0149;
954.3000;0.2987;0.0050;
954.6000;0.2987;0.0074;
954.9000;0.2987;0.0050;
955.2000;0.2987;0.0050;
955.5000;0.2979;0.0050;
955.8000;0.2987;0.0149;
956.1000;0.2996;0.0074;
956.4000;0.3004;0.0124;
956.7000;0.2979;0.0000;
957.0000;0.3004;0.0025;
957.3000;0.3012;0.0074;
957.6000;0.2987;0.0000;
957.9000;0.3012;0.0050;
958.2000;0.2979;0.0000;
958.5000;0.2963;-0.0025;
958.8000;0.2987;0.0000;
959.1000;0.2996;-0.0050;
959.4000;0.2971;-0.0099;
959.7000;0.2979;-0.0124;
960.0000;0.2987;-0.0124;
960.3000;0.2996;0.0000;
960.6000;0.2979;-0.0025;
960.9000;0.2996;0.0025;
961.2000;0.3004;0.0099;
961.5000;0.3012;0.0173;
961.8000;0.2979;0.0050;
962.1000;0.2987;0.0050;
962.4000;0.2979;0.0050;
962.7000;0.2979;0.0149;
963.0000;0.3020;0.0223;
963.3000;0.2987;0.0149;
963.6000;0.2914;-0.0074;
963.9000;0.2979;0.0074;
964.2000;0.2979;0.0074;
964.5000;0.2955;0.0025;
964.8000;0.2987;0.0074;
965.1000;0.2996;0.0074;
965.4000;0.3020;0.0198;
965.7000;0.3004;0.0074;
966.0000;0.2979;0.0099;
966.3000;0.2979;0.0074;
966.6000;0.2996;0.0074;
966.9000;0.2987;0.0099;
967.2000;0.3020;0.0248;
967.5000;0.2930;-0.0025;
967.8000;0.2979;0.0173;
968.1000;0.2987;0.0173;
968.4000;0.2971;0.0099;
968.7000;0.2996;0.0149;
969.0000;0.2955;-0.0025;
969.3000;0.2955;-0.0050;
969.6000;0.2963;-0.0099;
969.9000;0.2987;0.0074;
970.2000;0.2979;0.0124;
970.5000;0.2987;0.0124;
970.8000;0.2987;0.0074;
971.1000;0.3004;0.0050;
971.4000;0.2996;0.0099;
971.7000;0.2922;-0.0149;
972.0000;0.2979;-0.0050;
972.3000;0.2971;0.0099;
972.6000;0.2987;0.0198;
972.9000;0.2979;0.0173;
973.2000;0.2963;0.0149;
973.5000;0.2987;0.0099;
973.8000;0.3012;0.0099;
974.1000;0.2947;-0.0124;
974.4000;0.2971;0.0000;
974.7000;0.2971;-0.0074;
975.0000;0.2939;-0.0124;
975.3000;0.2996;0.0074;
975.6000;0.2922;-0.0173;
975.9000;0.2996;-0.0050;
976.2000;0.2987;-0.0025;
976.5000;0.3004;-0.0025;
976.8000;0.2987;-0.0124;
977.1000;0.2939;-0.0272;
977.4000;0.2930;-0.0223;
977.7000;0.2979;-0.0149;
978.0000;0.3028;0.0025;
978.3000;0.2987;-0.0099;
978.6000;0.2987;-0.0124;
978.9000;0.2955;-0.0099;
979.2000;0.3004;-0.0025;
979.5000;0.2979;-0.0074;
979.8000;0.2979;-0.0124;
980.1000;0.2971;-0.0099;
980.4000;0.2979;0.0000;
980.7000;0.2987;0.0074;
981.0000;0.2963;0.0099;
981.3000;0.2987;0.0099;
981.6000;0.3012;0.0074;
981.9000;0.2996;0.0025;
982.2000;0.2979;0.0050;
982.5000;0.2963;-0.0050;
982.8000;0.2996;-0.0025;
983.1000;0.2987;0.0025;
983.4000;0.2987;0.0050;
983.7000;0.2979;0.0124;
984.0000;0.2979;0.0074;
984.3000;0.2939;0.0025;
984.6000;0.2996;0.0173;
984.9000;0.2987;0.0099;
985.2000;0.2987;0.0025;
985.5000;0.2987;0.0000;
985.8000;0.2987;-0.0025;
986.1000;0.2987;-0.0025;
986.4000;0.3004;0.0000;
986.7000;0.2971;0.0000;
987.0000;0.2979;0.0074;
987.3000;0.2979;0.0074;
987.6000;0.2996;0.0099;
987.9000;0.2987;0.0050;
988.2000;0.3004;0.0124;
988.5000;0.3004;0.0074;
988.8000;0.2979;0.0099;
989.1000;0.2963;0.0099;
989.4000;0.2987;0.0099;
989.7000;0.2971;0.0025;
990.0000;0.2979;0.0050;
990.3000;0.2996;0.0149;
990.6000;0.2979;0.0074;
990.9000;0.2955;0.0050;
991.2000;0.2979;0.0099;
991.5000;0.2996;0.0124;
991.8000;0.2979;-0.0025;
992.1000;0.3004;0.0025;
992.4000;0.3028;0.0149;
992.7000;0.2971;-0.0074;
993.0000;0.2979;-0.0074;
993.3000;0.3004;-0.0050;
993.6000;0.2996;-0.0074;
993.9000;0.2996;-0.0099;
994.2000;0.2996;-0.0173;
994.5000;0.3012;-0.0173;
994.8000;0.2947;-0.0371;
995.1000;0.2971;-0.0322;
995.4000;0.2963;-0.0248;
995.7000;0.2971;-0.0223;
996.0000;0.2996;-0.0149;
996.3000;0.2971;-0.0050;
996.6000;0.2987;-0.0124;
996.9000;0.2979;-0.0149;
997.2000;0.2963;-0.0272;
997.5000;0.2947;-0.0272;
997.8000;0.2979;-0.0124;
998.1000;0.2971;-0.0099;
998.4000;0.2979;-0.0074;
998.7000;0.3004;0.0050;
999.0000;0.3012;0.0025;
999.3000;0.2971;-0.0149;
999.6000;0.2987;0.0000;
999.9000;0.2987;-0.0050;
1000.2000;0.2971;-0.0074;
1000.5000;0.2963;-0.0074;
1000.8000;0.2996;-0.0050;
1001.1000;0.2979;-0.0124;
1001.4000;0.2979;-0.0099;
1001.7000;0.2979;-0.0074;
1002.0000;0.2939;-0.0124;
1002.3000;0.2971;-0.0025;
1002.6000;0.2987;0.0025;
1002.9000;0.2963;0.0025;
1003.2000;0.2996;0.0124;
1003.5000;0.2979;0.0124;
1003.8000;0.2987;0.0074;
1004.1000;0.2987;0.0099;
1004.4000;0.3004;0.0000;
1004.7000;0.2987;-0.0050;
1005.0000;0.2971;0.0050;
1005.3000;0.2939;0.0000;
1005.6000;0.2955;0.0050;
1005.9000;0.2979;0.0050;
1006.2000;0.2979;-0.0025;
1006.5000;0.2987;-0.0025;
1006.8000;0.2955;-0.0074;
1007.1000;0.2971;-0.0099;
1007.4000;0.2996;0.0025;
1007.7000;0.2987;0.0074;
1008.0000;0.2979;0.0099;
1008.3000;0.2979;0.0074;
1008.6000;0.2971;-0.0025;
1008.9000;0.2979;0.0025;
1009.2000;0.2987;0.0149;
1009.5000;0.2906;-0.0074;
1009.8000;0.2979;-0.0025;
1010.1000;0.3004;0.0000;
1010.4000;0.3004;0.0025;
1010.7000;0.2979;-0.0025;
1011.0000;0.2987;0.0025;
1011.3000;0.2987;0.0099;
1011.6000;0.2987;0.0099;
1011.9000;0.2979;0.0099;
1012.2000;0.2971;0.0099;
1012.5000;0.2971;0.0099;
1012.8000;0.2979;0.0099;
1013.1000;0.2955;0.0025;
1013.4000;0.2955;-0.0074;
1013.7000;0.2979;-0.0050;
1014.0000;0.2987;-0.0124;
1014.3000;0.2996;-0.0124;
1014.6000;0.2987;-0.0149;
1014.9000;0.2987;-0.0149;
1015.2000;0.2996;-0.0124;
1015.5000;0.3020;-0.0050;
1015.8000;0.2996;-0.0124;
1016.1000;0.2987;-0.0124;
1016.4000;0.2906;-0.0322;
1016.7000;0.3004;-0.0074;
1017.0000;0.2979;-0.0124;
1017.3000;0.2963;-0.0223;
1017.6000;0.2979;-0.0248;
1017.9000;0.2979;-0.0223;
1018.2000;0.3004;-0.0198;
1018.5000;0.2971;-0.0223;
1018.8000;0.3036;-0.0149;
1019.1000;0.2979;-0.0198;
1019.4000;0.2987;-0.0173;
1019.7000;0.2979;-0.0198;
1020.0000;0.2963;-0.0173;
1020.3000;0.2987;-0.0198;
1020.6000;0.3053;0.0025;
1020.9000;0.2971;-0.0173;
1021.2000;0.3061;0.0099;
1021.5000;0.2979;-0.0124;
1021.8000;0.2979;0.0000;
1022.1000;0.2963;-0.0025;
1022.4000;0.2979;-0.0099;
1022.7000;0.2996;-0.0149;
1023.0000;0.2996;-0.0099;
1023.3000;0.2996;-0.0198;
1023.6000;0.2971;-0.0272;
1023.9000;0.2979;-0.0223;
1024.2000;0.2930;-0.0322;
1024.5000;0.2987;-0.0124;
1024.8000;0.2996;-0.0173;
1025.1000;0.2996;-0.0099;
1025.4000;0.2963;-0.0124;
1025.7000;0.3004;-0.0050;
1026.0000;0.2963;-0.0099;
1026.3000;0.2979;-0.0050;
1026.6000;0.2963;-0.0099;
1026.9000;0.2971;-0.0099;
1027.2000;0.2955;-0.0223;
1027.5000;0.2947;-0.0198;
1027.8000;0.2963;-0.0297;
1028.1000;0.2955;-0.0272;
1028.4000;0.2987;-0.0272;
1028.7000;0.2963;-0.0322;
1029.0000;0.2947;-0.0396;
1029.3000;0.2955;-0.0272;
1029.6000;0.2955;-0.0248;
1029.9000;0.2955;-0.0297;
1030.2000;0.2996;-0.0272;
1030.5000;0.2971;-0.0272;
1030.8000;0.2979;-0.0198;
1031.1000;0.2955;-0.0272;
1031.4000;0.2979;-0.0223;
1031.7000;0.2987;-0.0248;
1032.0000;0.2898;-0.0421;
1032.3000;0.2987;-0.0198;
1032.6000;0.3004;-0.0099;
1032.9000;0.3077;0.0074;
1033.2000;0.2987;-0.0149;
1033.5000;0.3012;-0.0124;
1033.8000;0.2987;-0.0198;
1034.1000;0.2971;-0.0173;
1034.4000;0.2996;-0.0173;
1034.7000;0.2963;-0.0297;
1035.0000;0.2971;-0.0272;
1035.3000;0.2971;-0.0297;
1035.6000;0.2971;-0.0322;
1035.9000;0.2955;-0.0198;
1036.2000;0.2987;-0.0198;
1036.5000;0.2971;-0.0223;
1036.8000;0.2971;-0.0223;
1037.1000;0.2979;-0.0322;
1037.4000;0.2979;-0.0322;
1037.7000;0.2979;-0.0371;
1038.0000;0.2979;-0.0322;
1038.3000;0.2955;-0.0371;
1038.6000;0.2963;-0.0347;
1038.9000;0.2979;-0.0248;
1039.2000;0.2971;-0.0347;
1039.5000;0.2987;-0.0297;
1039.8000;0.2971;-0.0347;
1040.1000;0.2979;-0.0297;
1040.4000;0.2963;-0.0223;
1040.7000;0.2996;-0.0248;
1041.0000;0.2979;-0.0223;
1041.3000;0.3004;-0.0149;
1041.6000;0.2963;-0.0173;
1041.9000;0.2971;-0.0173;
1042.2000;0.2971;-0.0198;
1042.5000;0.2996;-0.0149;
1042.8000;0.2996;-0.0198;
1043.1000;0.2987;-0.0173;
1043.4000;0.3004;-0.0248;
1043.7000;0.2971;-0.0347;
1044.0000;0.2971;-0.0347;
1044.3000;0.2963;-0.0322;
1044.6000;0.2955;-0.0297;
1044.9000;0.2979;-0.0198;
1045.2000;0.2987;-0.0173;
1045.5000;0.2971;-0.0198;
1045.8000;0.3020;-0.0099;
1046.1000;0.2971;-0.0198;
1046.4000;0.2971;-0.0173;
1046.7000;0.2971;-0.0099;
1047.0000;0.2979;-0.0099;
1047.3000;0.2987;-0.0149;
1047.6000;0.2987;-0.0173;
1047.9000;0.2979;-0.0099;
1048.2000;0.2971;-0.0099;
1048.5000;0.2906;-0.0272;
1048.8000;0.2963;-0.0149;
1049.1000;0.2963;-0.0173;
1049.4000;0.2987;-0.0149;
1049.7000;0.2955;-0.0124;
1050.0000;0.2979;-0.0074;
1050.3000;0.2996;-0.0050;
1050.6000;0.2963;-0.0124;
1050.9000;0.2971;-0.0050;
1051.2000;0.2987;0.0025;
1051.5000;0.2963;-0.0124;
1051.8000;0.2971;-0.0173;
1052.1000;0.2987;-0.0198;
1052.4000;0.2955;-0.0322;
1052.7000;0.2979;-0.0173;
1053.0000;0.2963;-0.0074;
1053.3000;0.2963;-0.0099;
1053.6000;0.2987;-0.0099;
1053.9000;0.2971;-0.0074;
1054.2000;0.2996;-0.0074;
1054.5000;0.2963;-0.0149;
1054.8000;0.2963;-0.0198;
1055.1000;0.2996;-0.0025;
1055.4000;0.2947;-0.0099;
1055.7000;0.2979;-0.0025;
1056.0000;0.2930;-0.0272;
1056.3000;0.2955;-0.0099;
1056.6000;0.2996;-0.0074;
1056.9000;0.3053;0.0050;
1057.2000;0.2996;-0.0124;
1057.5000;0.2955;-0.0198;
1057.8000;0.2996;-0.0074;
1058.1000;0.2971;-0.0124;
1058.4000;0.2987;-0.0099;
1058.7000;0.2987;-0.0099;
1059.0000;0.2979;-0.0124;
1059.3000;0.3004;-0.0050;
1059.6000;0.2996;-0.0124;
1059.9000;0.2979;-0.0099;
1060.2000;0.2979;-0.0099;
1060.5000;0.2979;-0.0025;
1060.8000;0.2963;-0.0025;
1061.1000;0.2979;0.0050;
1061.4000;0.2971;0.0074;
1061.7000;0.2939;0.0000;
1062.0000;0.2971;0.0050;
1062.3000;0.2955;0.0000;
1062.6000;0.2971;0.0000;
1062.9000;0.2947;0.0000;
1063.2000;0.3004;-0.0050;
1063.5000;0.2971;-0.0050;
1063.8000;0.2971;-0.0025;
1064.1000;0.2987;0.0050;
1064.4000;0.2979;0.0074;
1064.7000;0.2963;-0.0025;
1065.0000;0.2987;-0.0050;
1065.3000;0.2971;-0.0074;
1065.6000;0.3020;0.0074;
1065.9000;0.2979;-0.0025;
1066.2000;0.2963;-0.0025;
1066.5000;0.2979;-0.0025;
1066.8000;0.2987;0.0000;
1067.1000;0.2987;-0.0025;
1067.4000;0.2996;0.0050;
1067.7000;0.2979;-0.0025;
1068.0000;0.2955;-0.0198;
1068.3000;0.2971;-0.0248;
1068.6000;0.2979;-0.0272;
1068.9000;0.2979;-0.0272;
1069.2000;0.2971;-0.0272;
1069.5000;0.3004;-0.0248;
1069.8000;0.2996;-0.0297;
1070.1000;0.2987;-0.0297;
1070.4000;0.2955;-0.0322;
1070.7000;0.2979;-0.0371;
1071.0000;0.2996;-0.0421;
1071.3000;0.3028;-0.0173;
1071.6000;0.2979;-0.0248;
1071.9000;0.2987;-0.0297;
1072.2000;0.2947;-0.0421;
1072.5000;0.2979;-0.0446;
1072.8000;0.2947;-0.0520;
1073.1000;0.2996;-0.0322;
1073.4000;0.2971;-0.0371;
1073.7000;0.2987;-0.0322;
1074.0000;0.2955;-0.0347;
1074.3000;0.2979;-0.0223;
1074.6000;0.2987;-0.0198;
1074.9000;0.2971;-0.0272;
1075.2000;0.2987;-0.0198;
1075.5000;0.2987;-0.0149;
1075.8000;0.2947;-0.0272;
1076.1000;0.3069;-0.0074;
1076.4000;0.2963;-0.0322;
1076.7000;0.2987;-0.0347;
1077.0000;0.2947;-0.0347;
1077.3000;0.2963;-0.0371;
1077.6000;0.2971;-0.0297;
1077.9000;0.2979;-0.0198;
1078.2000;0.2979;-0.0198;
1078.5000;0.2979;-0.0149;
1078.8000;0.2971;-0.0149;
1079.1000;0.2979;-0.0124;
1079.4000;0.2955;-0.0198;
1079.7000;0.2971;-0.0173;
1080.0000;0.2987;-0.0074;
1080.3000;0.2987;-0.0099;
1080.6000;0.2963;-0.0198;
1080.9000;0.2971;-0.0248;
1081.2000;0.2987;-0.0223;
1081.5000;0.2979;-0.0297;
1081.8000;0.2955;-0.0297;
1082.1000;0.2971;-0.0272;
1082.4000;0.2955;-0.0297;
1082.7000;0.2955;-0.0396;
1083.0000;0.2979;-0.0446;
1083.3000;0.2996;-0.0570;
1083.6000;0.2963;-0.0520;
1083.9000;0.2955;-0.0470;
1084.2000;0.3004;-0.0322;
1084.5000;0.2955;-0.0347;
1084.8000;0.2996;-0.0248;
1085.1000;0.2996;-0.0297;
1085.4000;0.3028;-0.0124;
1085.7000;0.3053;-0.0074;
1086.0000;0.2979;-0.0272;
1086.3000;0.3004;-0.0297;
1086.6000;0.2979;-0.0248;
1086.9000;0.2955;-0.0223;
1087.2000;0.2987;-0.0124;
1087.5000;0.2979;-0.0149;
1087.8000;0.2939;-0.0297;
1088.1000;0.2963;-0.0347;
1088.4000;0.2963;-0.0421;
1088.7000;0.2979;-0.0446;
1089.0000;0.2947;-0.0396;
1089.3000;0.2971;-0.0248;
1089.6000;0.2939;-0.0297;
1089.9000;0.2922;-0.0248;
1090.2000;0.2930;-0.0223;
1090.5000;0.2979;-0.0099;
1090.8000;0.2971;-0.0050;
1091.1000;0.2963;-0.0025;
1091.4000;0.2987;-0.0025;
1091.7000;0.2979;-0.0124;
1092.0000;0.2979;-0.0124;
1092.3000;0.3020;-0.0025;
1092.6000;0.2963;-0.0198;
1092.9000;0.2979;-0.0223;
1093.2000;0.2996;-0.0248;
1093.5000;0.2996;-0.0297;
1093.8000;0.2963;-0.0396;
1094.1000;0.2963;-0.0322;
1094.4000;0.2963;-0.0297;
1094.7000;0.2955;-0.0297;
1095.0000;0.2955;-0.0371;
1095.3000;0.2922;-0.0371;
1095.6000;0.2955;-0.0198;
1095.9000;0.2971;-0.0074;
1096.2000;0.2963;-0.0099;
1096.5000;0.2971;-0.0124;
1096.8000;0.2971;-0.0198;
1097.1000;0.2987;-0.0124;
1097.4000;0.2979;-0.0173;
1097.7000;0.2963;-0.0198;
1098.0000;0.2906;-0.0371;
1098.3000;0.2987;-0.0173;
1098.6000;0.2987;-0.0149;
1098.9000;0.2979;-0.0198;
1099.2000;0.3004;-0.0223;
1099.5000;0.2979;-0.0198;
1099.8000;0.2971;-0.0297;
1100.1000;0.2987;-0.0272;
1100.4000;0.2963;-0.0297;
1100.7000;0.2971;-0.0272;
1101.0000;0.2979;-0.0248;
1101.3000;0.2971;-0.0223;
1101.6000;0.2987;-0.0173;
1101.9000;0.2971;-0.0074;
1102.2000;0.2963;-0.0099;
1102.5000;0.2963;-0.0099;
1102.8000;0.2955;-0.0248;
1103.1000;0.2971;-0.0248;
1103.4000;0.2996;-0.0099;
1103.7000;0.2955;-0.0223;
1104.0000;0.2955;-0.0223;
1104.3000;0.2963;-0.0149;
1104.6000;0.2963;-0.0124;
1104.9000;0.2971;-0.0149;
1105.2000;0.2979;-0.0149;
1105.5000;0.2963;-0.0272;
1105.8000;0.2963;-0.0248;
1106.1000;0.3012;-0.0025;
1106.4000;0.2963;-0.0248;
1106.7000;0.2979;-0.0173;
1107.0000;0.2979;-0.0272;
1107.3000;0.2971;-0.0322;
1107.6000;0.2987;-0.0272;
1107.9000;0.2996;-0.0248;
1108.2000;0.2979;-0.0198;
1108.5000;0.2955;-0.0248;
1108.8000;0.2947;-0.0272;
1109.1000;0.2963;-0.0297;
1109.4000;0.2987;-0.0149;
1109.7000;0.2963;-0.0074;
1110.0000;0.2963;-0.0124;
1110.3000;0.2971;-0.0099;
1110.6000;0.2963;-0.0074;
1110.9000;0.2971;-0.0050;
1111.2000;0.2979;-0.0050;
1111.5000;0.3044;0.0099;
1111.8000;0.2979;-0.0149;
1112.1000;0.2963;-0.0149;
1112.4000;0.2971;-0.0198;
1112.7000;0.2947;-0.0272;
1113.0000;0.2979;-0.0248;
1113.3000;0.2947;-0.0297;
1113.6000;0.2963;-0.0272;
1113.9000;0.2979;-0.0173;
1114.2000;0.2979;-0.0149;
1114.5000;0.2987;-0.0149;
1114.8000;0.2955;-0.0099;
1115.1000;0.2979;-0.0074;
1115.4000;0.2955;-0.0173;
1115.7000;0.2955;-0.0198;
1116.0000;0.2971;-0.0173;
1116.3000;0.2971;-0.0124;
1116.6000;0.2987;-0.0099;
1116.9000;0.2971;-0.0124;
1117.2000;0.2963;-0.0074;
1117.5000;0.2987;-0.0050;
1117.8000;0.2963;-0.0124;
1118.1000;0.2947;-0.0173;
1118.4000;0.2971;-0.0149;
1118.7000;0.2979;-0.0124;
1119.0000;0.2971;-0.0173;
1119.3000;0.2971;-0.0173;
1119.6000;0.2979;-0.0198;
1119.9000;0.2963;-0.0223;
1120.2000;0.2971;-0.0223;
1120.5000;0.2979;-0.0223;
1120.8000;0.2939;-0.0396;
1121.1000;0.2971;-0.0223;
1121.4000;0.2963;-0.0272;
1121.7000;0.2971;-0.0173;
1122.0000;0.2890;-0.0322;
1122.3000;0.2971;-0.0198;
1122.6000;0.3036;-0.0025;
1122.9000;0.2987;-0.0050;
1123.2000;0.2955;-0.0099;
1123.5000;0.2963;-0.0124;
1123.8000;0.2987;-0.0074;
1124.1000;0.2979;-0.0025;
1124.4000;0.3004;0.0074;
1124.7000;0.2971;0.0050;
1125.0000;0.2955;0.0025;
1125.3000;0.2979;0.0000;
1125.6000;0.2971;-0.0074;
1125.9000;0.2963;-0.0074;
1126.2000;0.2963;-0.0124;
1126.5000;0.2963;-0.0173;
1126.8000;0.2971;-0.0198;
1127.1000;0.3004;-0.0099;
1127.4000;0.2971;-0.0223;
1127.7000;0.2971;-0.0223;
1128.0000;0.2987;-0.0223;
1128.3000;0.2914;-0.0446;
1128.6000;0.2971;-0.0272;
1128.9000;0.2963;-0.0198;
1129.2000;0.2987;-0.0099;
1129.5000;0.3036;0.0050;
1129.8000;0.2963;-0.0149;
1130.1000;0.2979;-0.0149;
1130.4000;0.2922;-0.0297;
1130.7000;0.2963;-0.0272;
1131.0000;0.2955;-0.0322;
1131.3000;0.2963;-0.0446;
1131.6000;0.2963;-0.0322;
1131.9000;0.2971;-0.0371;
1132.2000;0.2996;-0.0322;
1132.5000;0.2987;-0.0272;
1132.8000;0.2963;-0.0322;
1133.1000;0.2963;-0.0297;
1133.4000;0.2963;-0.0223;
1133.7000;0.2971;-0.0149;
1134.0000;0.2971;-0.0149;
1134.3000;0.2963;-0.0074;
1134.6000;0.2987;-0.0074;
1134.9000;0.2971;-0.0149;
1135.2000;0.2987;-0.0124;
1135.5000;0.2939;-0.0272;
1135.8000;0.2963;-0.0198;
1136.1000;0.2963;-0.0223;
1136.4000;0.2987;-0.0223;
1136.7000;0.2971;-0.0248;
1137.0000;0.2987;-0.0223;
1137.3000;0.2963;-0.0297;
1137.6000;0.2971;-0.0248;
1137.9000;0.2979;-0.0248;
1138.2000;0.2971;-0.0272;
1138.5000;0.2947;-0.0272;
1138.8000;0.2963;-0.0322;
1139.1000;0.2987;-0.0223;
1139.4000;0.2963;-0.0272;
1139.7000;0.2979;-0.0074;
1140.0000;0.2955;-0.0074;
1140.3000;0.2979;0.0074;
1140.6000;0.2987;-0.0099;
1140.9000;0.2987;-0.0198;
1141.2000;0.2955;-0.0248;
1141.5000;0.2987;-0.0198;
1141.8000;0.2971;-0.0223;
1142.1000;0.2979;-0.0149;
1142.4000;0.2979;-0.0198;
1142.7000;0.2971;-0.0248;
1143.0000;0.3004;-0.0050;
1143.3000;0.2971;-0.0099;
1143.6000;0.2979;-0.0124;
1143.9000;0.2963;-0.0124;
1144.2000;0.2930;-0.0173;
1144.5000;0.2955;-0.0074;
1144.8000;0.2922;-0.0297;
1145.1000;0.2955;-0.0272;
1145.4000;0.2963;-0.0371;
1145.7000;0.2955;-0.0347;
1146.0000;0.3036;-0.0074;
1146.3000;0.2963;-0.0173;
1146.6000;0.2971;-0.0050;
1146.9000;0.2906;-0.0248;
1147.2000;0.2963;-0.0099;
1147.5000;0.2963;-0.0173;
1147.8000;0.2987;-0.0050;
1148.1000;0.2947;-0.0149;
1148.4000;0.2963;-0.0074;
1148.7000;0.2971;0.0025;
1149.0000;0.2955;0.0025;
1149.3000;0.2955;0.0050;
1149.6000;0.2963;0.0074;
1149.9000;0.2971;0.0149;
1150.2000;0.2979;0.0124;
1150.5000;0.2939;0.0025;
1150.8000;0.2963;0.0099;
1151.1000;0.2996;0.0173;
1151.4000;0.2971;0.0050;
1151.7000;0.2955;-0.0025;
1152.0000;0.2947;-0.0074;
1152.3000;0.2979;-0.0025;
1152.6000;0.2979;-0.0050;
1152.9000;0.2979;-0.0124;
1153.2000;0.2971;-0.0223;
1153.5000;0.2979;-0.0223;
1153.8000;0.2996;-0.0149;
1154.1000;0.2971;-0.0173;
1154.4000;0.2955;-0.0223;
1154.7000;0.2963;-0.0223;
1155.0000;0.2987;-0.0198;
1155.3000;0.2963;-0.0272;
1155.6000;0.2955;-0.0272;
1155.9000;0.2971;-0.0223;
1156.2000;0.2947;-0.0248;
1156.5000;0.2963;-0.0173;
1156.8000;0.2955;-0.0149;
1157.1000;0.2955;-0.0198;
1157.4000;0.2963;-0.0198;
1157.7000;0.2963;-0.0223;
1158.0000;0.2979;-0.0173;
1158.3000;0.2963;-0.0223;
1158.6000;0.2971;-0.0223;
1158.9000;0.2955;-0.0248;
1159.2000;0.2963;-0.0173;
1159.5000;0.2955;-0.0198;
1159.8000;0.2987;-0.0124;
1160.1000;0.2996;-0.0173;
1160.4000;0.3004;-0.0149;
1160.7000;0.2963;-0.0223;
1161.0000;0.2963;-0.0198;
1161.3000;0.2971;-0.0149;
1161.6000;0.2971;-0.0099;
1161.9000;0.2963;-0.0099;
1162.2000;0.2979;-0.0149;
1162.5000;0.2996;-0.0173;
1162.8000;0.2987;-0.0173;
1163.1000;0.2963;-0.0223;
1163.4000;0.2963;-0.0248;
1163.7000;0.2963;-0.0223;
1164.0000;0.2996;-0.0149;
1164.3000;0.2955;-0.0149;
1164.6000;0.2979;-0.0099;
1164.9000;0.2963;-0.0173;
1165.2000;0.2979;-0.0173;
1165.5000;0.2971;-0.0198;
1165.8000;0.2971;-0.0248;
1166.1000;0.2947;-0.0272;
1166.4000;0.2939;-0.0198;
1166.7000;0.2947;-0.0248;
1167.0000;0.3053;0.0000;
1167.3000;0.2979;-0.0248;
1167.6000;0.2971;-0.0248;
1167.9000;0.2963;-0.0223;
1168.2000;0.2971;-0.0173;
1168.5000;0.2971;-0.0099;
1168.8000;0.2963;-0.0099;
1169.1000;0.2947;-0.0173;
1169.4000;0.2979;-0.0099;
1169.7000;0.2971;-0.0099;
1170.0000;0.3044;0.0074;
1170.3000;0.2963;-0.0173;
1170.6000;0.2979;-0.0149;
1170.9000;0.2963;-0.0198;
1171.2000;0.2955;-0.0173;
1171.5000;0.2963;-0.0173;
1171.8000;0.2971;-0.0149;
1172.1000;0.2979;-0.0198;
1172.4000;0.3012;-0.0099;
1172.7000;0.2963;-0.0297;
1173.0000;0.2979;-0.0223;
1173.3000;0.2971;-0.0223;
1173.6000;0.2996;-0.0149;
1173.9000;0.2971;-0.0198;
1174.2000;0.2979;-0.0173;
1174.5000;0.2979;-0.0173;
1174.8000;0.2963;-0.0173;
1175.1000;0.2971;-0.0248;
1175.4000;0.2979;-0.0248;
1175.7000;0.2979;-0.0149;
1176.0000;0.2971;-0.0198;
1176.3000;0.2971;-0.0272;
1176.6000;0.2955;-0.0322;
1176.9000;0.2971;-0.0322;
1177.2000;0.2971;-0.0322;
1177.5000;0.2971;-0.0396;
1177.8000;0.2979;-0.0322;
1178.1000;0.2971;-0.0272;
1178.4000;0.2963;-0.0223;
1178.7000;0.2971;-0.0248;
1179.0000;0.2971;-0.0297;
1179.3000;0.2930;-0.0421;
1179.6000;0.2979;-0.0297;
1179.9000;0.2971;-0.0297;
1180.2000;0.2947;-0.0396;
1180.5000;0.2963;-0.0322;
1180.8000;0.3053;-0.0124;
1181.1000;0.2971;-0.0248;
1181.4000;0.2987;-0.0198;
1181.7000;0.2947;-0.0198;
1182.0000;0.2971;-0.0248;
1182.3000;0.2955;-0.0248;
1182.6000;0.2979;-0.0198;
1182.9000;0.3012;-0.0050;
1183.2000;0.2971;-0.0198;
1183.5000;0.2947;-0.0248;
1183.8000;0.2906;-0.0421;
1184.1000;0.2971;-0.0149;
1184.4000;0.2947;-0.0223;
1184.7000;0.2963;-0.0223;
1185.0000;0.2963;-0.0248;
1185.3000;0.2971;-0.0297;
1185.6000;0.2955;-0.0347;
1185.9000;0.2963;-0.0371;
1186.2000;0.2979;-0.0272;
1186.5000;0.2979;-0.0248;
1186.8000;0.2971;-0.0074;
1187.1000;0.2963;0.0050;
1187.4000;0.2971;0.0074;
1187.7000;0.2996;0.0149;
1188.0000;0.2947;0.0074;
1188.3000;0.2955;0.0124;
1188.6000;0.2987;0.0149;
1188.9000;0.2963;0.0000;
1189.2000;0.2971;0.0000;
1189.5000;0.2971;-0.0099;
1189.8000;0.2979;-0.0124;
1190.1000;0.2979;-0.0099;
1190.4000;0.2979;-0.0074;
1190.7000;0.2947;-0.0099;
1191.0000;0.2971;-0.0025;
1191.3000;0.2979;-0.0050;
1191.6000;0.2963;-0.0173;
1191.9000;0.2955;-0.0149;
1192.2000;0.2979;-0.0074;
1192.5000;0.2955;-0.0198;
1192.8000;0.2947;-0.0297;
1193.1000;0.2987;-0.0173;
1193.4000;0.2979;-0.0149;
1193.7000;0.2979;-0.0124;
1194.0000;0.2987;-0.0050;
1194.3000;0.2955;-0.0124;
1194.6000;0.2979;-0.0099;
1194.9000;0.2939;-0.0297;
1195.2000;0.2979;-0.0149;
1195.5000;0.2971;-0.0173;
1195.8000;0.2971;-0.0149;
1196.1000;0.2971;-0.0099;
1196.4000;0.2979;-0.0025;
1196.7000;0.2939;-0.0173;
1197.0000;0.2963;-0.0099;
1197.3000;0.2955;-0.0050;
1197.6000;0.2979;-0.0074;
1197.9000;0.2963;-0.0149;
1198.2000;0.2971;-0.0124;
1198.5000;0.2971;-0.0124;
1198.8000;0.2963;-0.0149;
1199.1000;0.2963;-0.0149;
1199.4000;0.2979;-0.0124;
1199.7000;0.2939;-0.0173;
1200.0000;0.2987;-0.0198;
1200.3000;0.2987;-0.0198;
1200.6000;0.2996;-0.0173;
1200.9000;0.2955;-0.0248;
1201.2000;0.2963;-0.0173;
1201.5000;0.2963;-0.0223;
1201.8000;0.2971;-0.0198;
1202.1000;0.2955;-0.0198;
1202.4000;0.2939;-0.0198;
1202.7000;0.2955;-0.0223;
1203.0000;0.2963;-0.0248;
1203.3000;0.2971;-0.0248;
1203.6000;0.2963;-0.0248;
1203.9000;0.2971;-0.0173;
1204.2000;0.2955;-0.0223;
1204.5000;0.2963;-0.0173;
1204.8000;0.2939;-0.0248;
1205.1000;0.2947;-0.0223;
1205.4000;0.2963;-0.0149;
1205.7000;0.2971;-0.0099;
1206.0000;0.2979;-0.0099;
1206.3000;0.2906;-0.0371;
1206.6000;0.2963;-0.0149;
1206.9000;0.2898;-0.0272;
1207.2000;0.2963;-0.0099;
1207.5000;0.2963;-0.0149;
1207.8000;0.2971;-0.0149;
1208.1000;0.2971;-0.0149;
1208.4000;0.2996;-0.0050;
1208.7000;0.2963;-0.0124;
1209.0000;0.3004;-0.0074;
1209.3000;0.2979;-0.0198;
1209.6000;0.2971;-0.0223;
1209.9000;0.2971;-0.0223;
1210.2000;0.2955;-0.0272;
1210.5000;0.2947;-0.0272;
1210.8000;0.2971;-0.0198;
1211.1000;0.2947;-0.0223;
1211.4000;0.2963;-0.0198;
1211.7000;0.2979;-0.0198;
1212.0000;0.2979;-0.0248;
1212.3000;0.2971;-0.0173;
1212.6000;0.2963;-0.0124;
1212.9000;0.2963;-0.0099;
1213.2000;0.2987;-0.0074;
1213.5000;0.2971;-0.0124;
1213.8000;0.2963;-0.0248;
1214.1000;0.2971;-0.0322;
1214.4000;0.2971;-0.0371;
1214.7000;0.2963;-0.0322;
1215.0000;0.2955;-0.0322;
1215.3000;0.2955;-0.0371;
1215.6000;0.2979;-0.0272;
1215.9000;0.2955;-0.0322;
1216.2000;0.2947;-0.0347;
1216.5000;0.2971;-0.0272;
1216.8000;0.2955;-0.0248;
1217.1000;0.2971;-0.0149;
1217.4000;0.2971;0.0000;
1217.7000;0.2947;-0.0074;
1218.0000;0.2963;-0.0124;
1218.3000;0.2979;-0.0074;
1218.6000;0.2971;-0.0124;
1218.9000;0.2955;-0.0173;
1219.2000;0.2955;-0.0297;
1219.5000;0.2963;-0.0297;
1219.8000;0.2955;-0.0223;
1220.1000;0.2963;-0.0272;
1220.4000;0.2979;-0.0272;
1220.7000;0.2955;-0.0347;
1221.0000;0.2963;-0.0272;
1221.3000;0.2963;-0.0223;
1221.6000;0.2963;-0.0223;
1221.9000;0.2979;-0.0198;
1222.2000;0.2971;-0.0248;
1222.5000;0.2971;-0.0297;
1222.8000;0.2947;-0.0371;
1223.1000;0.2971;-0.0272;
1223.4000;0.2971;-0.0198;
1223.7000;0.2963;-0.0173;
1224.0000;0.2955;-0.0198;
1224.3000;0.2939;-0.0223;
1224.6000;0.2971;-0.0099;
1224.9000;0.2963;-0.0099;
1225.2000;0.2996;-0.0050;
1225.5000;0.2955;-0.0223;
1225.8000;0.2963;-0.0223;
1226.1000;0.2963;-0.0248;
1226.4000;0.3028;-0.0099;
1226.7000;0.3020;-0.0074;
1227.0000;0.2963;-0.0173;
1227.3000;0.3012;-0.0124;
1227.6000;0.2971;-0.0223;
1227.9000;0.2947;-0.0396;
1228.2000;0.2963;-0.0272;
1228.5000;0.3020;-0.0173;
1228.8000;0.2955;-0.0297;
1229.1000;0.2955;-0.0198;
1229.4000;0.2939;-0.0149;
1229.7000;0.2979;-0.0173;
1230.0000;0.2987;-0.0198;
1230.3000;0.2955;-0.0322;
1230.6000;0.2955;-0.0248;
1230.9000;0.2971;-0.0198;
1231.2000;0.2963;-0.0223;
1231.5000;0.2947;-0.0198;
1231.8000;0.2963;-0.0223;
1232.1000;0.2955;-0.0272;
1232.4000;0.2987;-0.0272;
1232.7000;0.2979;-0.0173;
1233.0000;0.2987;-0.0173;
1233.3000;0.2979;-0.0074;
1233.6000;0.2963;-0.0074;
1233.9000;0.3004;-0.0074;
1234.2000;0.2963;-0.0099;
1234.5000;0.2971;-0.0124;
1234.8000;0.2971;-0.0149;
1235.1000;0.2987;-0.0124;
1235.4000;0.3020;-0.0025;
1235.7000;0.2971;-0.0149;
1236.0000;0.2971;-0.0099;
1236.3000;0.2939;-0.0248;
1236.6000;0.2955;-0.0173;
1236.9000;0.2955;-0.0272;
1237.2000;0.2955;-0.0297;
1237.5000;0.2955;-0.0272;
1237.8000;0.2963;-0.0371;
1238.1000;0.2930;-0.0396;
1238.4000;0.2955;-0.0248;
1238.7000;0.2947;-0.0173;
1239.0000;0.2955;-0.0074;
1239.3000;0.2963;-0.0099;
1239.6000;0.2971;-0.0149;
1239.9000;0.2963;-0.0198;
1240.2000;0.2930;-0.0347;
1240.5000;0.2971;-0.0173;
1240.8000;0.2890;-0.0371;
1241.1000;0.2971;-0.0173;
1241.4000;0.2979;-0.0050;
1241.7000;0.2939;-0.0173;
1242.0000;0.2955;-0.0099;
1242.3000;0.2963;-0.0173;
1242.6000;0.3020;-0.0099;
1242.9000;0.2963;-0.0248;
1243.2000;0.2971;-0.0248;
1243.5000;0.2955;-0.0297;
1243.8000;0.2971;-0.0322;
1244.1000;0.2947;-0.0272;
1244.4000;0.2963;-0.0223;
1244.7000;0.2963;-0.0198;
1245.0000;0.2963;-0.0198;
1245.3000;0.2987;-0.0248;
1245.6000;0.2979;-0.0223;
1245.9000;0.2963;-0.0297;
1246.2000;0.2963;-0.0272;
1246.5000;0.2922;-0.0371;
1246.8000;0.2971;-0.0272;
1247.1000;0.2963;-0.0297;
1247.4000;0.2987;-0.0322;
1247.7000;0.2979;-0.0371;
1248.0000;0.2955;-0.0421;
1248.3000;0.2963;-0.0371;
1248.6000;0.2963;-0.0421;
1248.9000;0.2955;-0.0371;
1249.2000;0.2996;-0.0198;
1249.5000;0.2979;-0.0223;
1249.8000;0.2963;-0.0198;
1250.1000;0.2971;-0.0173;
1250.4000;0.2996;-0.0074;
1250.7000;0.2979;-0.0099;
1251.0000;0.2979;-0.0149;
1251.3000;0.2939;-0.0272;
1251.6000;0.2955;-0.0198;
1251.9000;0.2939;-0.0223;
1252.2000;0.3012;-0.0074;
1252.5000;0.2971;-0.0149;
1252.8000;0.2963;-0.0149;
1253.1000;0.2963;-0.0124;
1253.4000;0.2963;-0.0099;
1253.7000;0.2971;-0.0124;
1254.0000;0.2963;-0.0149;
1254.3000;0.2955;-0.0248;
1254.6000;0.2963;-0.0248;
1254.9000;0.2979;-0.0223;
1255.2000;0.2979;-0.0223;
1255.5000;0.2947;-0.0347;
1255.8000;0.2963;-0.0371;
1256.1000;0.2939;-0.0421;
1256.4000;0.2979;-0.0272;
1256.7000;0.2955;-0.0248;
1257.0000;0.2963;-0.0198;
1257.3000;0.2963;-0.0347;
1257.6000;0.2971;-0.0371;
1257.9000;0.2987;-0.0396;
1258.2000;0.2955;-0.0371;
1258.5000;0.2906;-0.0619;
1258.8000;0.2963;-0.0297;
1259.1000;0.3020;-0.0173;
1259.4000;0.2979;-0.0322;
1259.7000;0.2971;-0.0396;
1260.0000;0.3061;-0.0149;
1260.3000;0.2947;-0.0396;
1260.6000;0.2955;-0.0347;
1260.9000;0.2939;-0.0446;
1261.2000;0.2971;-0.0470;
1261.5000;0.2955;-0.0545;
1261.8000;0.2890;-0.0644;
1262.1000;0.2947;-0.0495;
1262.4000;0.2996;-0.0421;
1262.7000;0.2971;-0.0520;
1263.0000;0.2955;-0.0619;
1263.3000;0.2963;-0.0545;
1263.6000;0.2971;-0.0520;
1263.9000;0.2963;-0.0520;
1264.2000;0.2922;-0.0570;
1264.5000;0.2955;-0.0446;
1264.8000;0.2947;-0.0470;
1265.1000;0.3020;-0.0347;
1265.4000;0.2996;-0.0396;
1265.7000;0.2979;-0.0396;
1266.0000;0.2971;-0.0446;
1266.3000;0.2987;-0.0396;
1266.6000;0.2979;-0.0520;
1266.9000;0.2979;-0.0520;
1267.2000;0.2987;-0.0470;
1267.5000;0.2971;-0.0421;
1267.8000;0.2963;-0.0371;
1268.1000;0.3028;-0.0198;
1268.4000;0.2947;-0.0396;
1268.7000;0.2987;-0.0347;
1269.0000;0.2971;-0.0396;
1269.3000;0.2955;-0.0371;
1269.6000;0.2963;-0.0421;
1269.9000;0.2971;-0.0322;
1270.2000;0.2963;-0.0322;
1270.5000;0.3012;-0.0272;
1270.8000;0.2955;-0.0495;
1271.1000;0.2963;-0.0470;
1271.4000;0.2987;-0.0421;
1271.7000;0.2971;-0.0396;
1272.0000;0.2971;-0.0347;
1272.3000;0.2979;-0.0322;
1272.6000;0.2996;-0.0272;
1272.9000;0.2947;-0.0322;
1273.2000;0.2987;-0.0272;
1273.5000;0.2947;-0.0272;
1273.8000;0.2987;-0.0198;
1274.1000;0.2947;-0.0347;
1274.4000;0.2979;-0.0297;
1274.7000;0.2906;-0.0495;
1275.0000;0.2963;-0.0322;
1275.3000;0.2971;-0.0396;
1275.6000;0.2971;-0.0421;
1275.9000;0.2963;-0.0371;
1276.2000;0.2947;-0.0347;
1276.5000;0.2987;-0.0149;
1276.8000;0.2979;-0.0149;
1277.1000;0.2971;-0.0248;
1277.4000;0.2963;-0.0223;
1277.7000;0.2979;-0.0223;
1278.0000;0.2979;-0.0173;
1278.3000;0.2963;-0.0297;
1278.6000;0.2914;-0.0421;
1278.9000;0.2939;-0.0421;
1279.2000;0.2963;-0.0371;
1279.5000;0.2963;-0.0396;
1279.8000;0.2971;-0.0322;
1280.1000;0.2979;-0.0421;
1280.4000;0.2963;-0.0446;
1280.7000;0.2971;-0.0470;
1281.0000;0.2971;-0.0545;
1281.3000;0.2963;-0.0594;
1281.6000;0.2963;-0.0545;
1281.9000;0.3036;-0.0347;
1282.2000;0.3012;-0.0322;
1282.5000;0.2979;-0.0371;
1282.8000;0.2971;-0.0322;
1283.1000;0.2979;-0.0322;
1283.4000;0.2963;-0.0371;
1283.7000;0.2979;-0.0371;
1284.0000;0.2947;-0.0446;
1284.3000;0.2971;-0.0446;
1284.6000;0.2979;-0.0470;
1284.9000;0.2987;-0.0396;
1285.2000;0.2971;-0.0446;
1285.5000;0.2955;-0.0495;
1285.8000;0.2971;-0.0470;
1286.1000;0.2939;-0.0495;
1286.4000;0.2947;-0.0495;
1286.7000;0.2979;-0.0421;
1287.0000;0.2955;-0.0470;
1287.3000;0.2971;-0.0470;
1287.6000;0.2955;-0.0545;
1287.9000;0.2955;-0.0470;
1288.2000;0.2963;-0.0446;
1288.5000;0.2963;-0.0446;
1288.8000;0.3012;-0.0248;
1289.1000;0.2955;-0.0347;
1289.4000;0.2979;-0.0223;
1289.7000;0.2971;-0.0173;
1290.0000;0.2971;-0.0198;
1290.3000;0.2971;-0.0297;
1290.6000;0.2987;-0.0173;
1290.9000;0.2963;-0.0223;
1291.2000;0.2955;-0.0248;
1291.5000;0.2955;-0.0248;
1291.8000;0.2971;-0.0297;
1292.1000;0.3004;-0.0223;
1292.4000;0.2987;-0.0173;
1292.7000;0.2963;-0.0223;
1293.0000;0.2955;-0.0173;
1293.3000;0.2971;-0.0099;
1293.6000;0.2963;-0.0149;
1293.9000;0.2971;-0.0124;
1294.2000;0.2963;-0.0223;
1294.5000;0.2979;-0.0297;
1294.8000;0.2971;-0.0297;
1295.1000;0.2979;-0.0272;
1295.4000;0.2996;-0.0248;
1295.7000;0.2971;-0.0347;
1296.0000;0.2979;-0.0322;
1296.3000;0.2979;-0.0297;
1296.6000;0.2971;-0.0347;
1296.9000;0.2971;-0.0297;
1297.2000;0.2987;-0.0248;
1297.5000;0.2963;-0.0297;
1297.8000;0.2963;-0.0272;
1298.1000;0.2971;-0.0297;
1298.4000;0.2939;-0.0396;
1298.7000;0.2996;-0.0371;
1299.0000;0.2963;-0.0446;
1299.3000;0.2955;-0.0446;
1299.6000;0.2971;-0.0446;
1299.9000;0.2939;-0.0545;
1300.2000;0.2979;-0.0347;
1300.5000;0.2930;-0.0446;
1300.8000;0.2963;-0.0248;
1301.1000;0.2971;-0.0223;
1301.4000;0.2971;-0.0297;
1301.7000;0.2955;-0.0322;
1302.0000;0.2963;-0.0446;
1302.3000;0.2890;-0.0570;
1302.6000;0.2955;-0.0297;
1302.9000;0.2955;-0.0272;
1303.2000;0.2939;-0.0297;
1303.5000;0.2963;-0.0272;
1303.8000;0.2963;-0.0248;
1304.1000;0.3004;-0.0223;
1304.4000;0.2971;-0.0297;
1304.7000;0.2971;-0.0248;
1305.0000;0.2947;-0.0198;
1305.3000;0.2955;-0.0223;
1305.6000;0.2971;-0.0198;
1305.9000;0.2963;-0.0173;
1306.2000;0.2947;-0.0149;
1306.5000;0.2955;-0.0124;
1306.8000;0.2955;-0.0198;
1307.1000;0.2955;-0.0248;
1307.4000;0.2971;-0.0248;
1307.7000;0.2979;-0.0248;
1308.0000;0.2955;-0.0371;
1308.3000;0.2955;-0.0371;
1308.6000;0.2947;-0.0347;
1308.9000;0.2947;-0.0347;
1309.2000;0.2971;-0.0297;
1309.5000;0.2955;-0.0297;
1309.8000;0.2963;-0.0371;
1310.1000;0.2971;-0.0347;
1310.4000;0.2987;-0.0396;
1310.7000;0.2914;-0.0594;
1311.0000;0.2963;-0.0446;
1311.3000;0.2971;-0.0347;
1311.6000;0.2963;-0.0347;
1311.9000;0.2971;-0.0347;
1312.2000;0.2971;-0.0322;
1312.5000;0.3004;-0.0322;
1312.8000;0.2979;-0.0396;
1313.1000;0.2996;-0.0347;
1313.4000;0.2963;-0.0396;
1313.7000;0.2963;-0.0470;
1314.0000;0.2979;-0.0396;
1314.3000;0.2963;-0.0470;
1314.6000;0.2963;-0.0396;
1314.9000;0.2987;-0.0248;
1315.2000;0.2987;-0.0248;
1315.5000;0.2987;-0.0198;
1315.8000;0.2987;-0.0223;
1316.1000;0.2987;-0.0272;
1316.4000;0.3044;-0.0025;
1316.7000;0.2971;-0.0173;
1317.0000;0.2987;-0.0198;
1317.3000;0.2963;-0.0248;
1317.6000;0.2939;-0.0272;
1317.9000;0.2971;-0.0248;
1318.2000;0.2971;-0.0173;
1318.5000;0.2947;-0.0297;
1318.8000;0.2979;-0.0248;
1319.1000;0.2955;-0.0198;
1319.4000;0.2906;-0.0371;
1319.7000;0.3012;-0.0198;
1320.0000;0.2955;-0.0371;
1320.3000;0.3004;-0.0322;
1320.6000;0.2987;-0.0272;
1320.9000;0.2922;-0.0470;
1321.2000;0.2865;-0.0495;
1321.5000;0.2963;-0.0248;
1321.8000;0.2963;-0.0173;
1322.1000;0.2979;-0.0173;
1322.4000;0.2963;-0.0124;
1322.7000;0.2947;-0.0149;
1323.0000;0.2947;-0.0124;
1323.3000;0.3028;0.0050;
1323.6000;0.2939;-0.0223;
1323.9000;0.2930;-0.0297;
1324.2000;0.2955;-0.0248;
1324.5000;0.2955;-0.0149;
1324.8000;0.2930;-0.0272;
1325.1000;0.2979;-0.0173;
1325.4000;0.2947;-0.0248;
1325.7000;0.2971;-0.0223;
1326.0000;0.3020;-0.0124;
1326.3000;0.3012;-0.0099;
1326.6000;0.2955;-0.0198;
1326.9000;0.2963;-0.0248;
1327.2000;0.2955;-0.0198;
1327.5000;0.2939;-0.0248;
1327.8000;0.2963;-0.0198;
1328.1000;0.2963;-0.0173;
1328.4000;0.2971;-0.0198;
1328.7000;0.2963;-0.0198;
1329.0000;0.3004;-0.0099;
1329.3000;0.2963;-0.0198;
1329.6000;0.2947;-0.0223;
1329.9000;0.2947;-0.0198;
1330.2000;0.2963;-0.0124;
1330.5000;0.2955;-0.0050;
1330.8000;0.2955;-0.0074;
1331.1000;0.2971;-0.0099;
1331.4000;0.2971;-0.0074;
1331.7000;0.2971;-0.0074;
1332.0000;0.2971;0.0000;
1332.3000;0.2955;-0.0050;
1332.6000;0.3012;0.0074;
1332.9000;0.2955;-0.0050;
1333.2000;0.2955;-0.0074;
1333.5000;0.2955;-0.0099;
1333.8000;0.3044;0.0099;
1334.1000;0.2955;-0.0149;
1334.4000;0.2963;-0.0099;
1334.7000;0.2963;-0.0124;
1335.0000;0.2963;-0.0074;
1335.3000;0.2963;-0.0074;
1335.6000;0.2955;-0.0074;
1335.9000;0.2963;-0.0124;
1336.2000;0.2996;0.0000;
1336.5000;0.2963;-0.0074;
1336.8000;0.2971;-0.0025;
1337.1000;0.2996;-0.0050;
1337.4000;0.2955;-0.0173;
1337.7000;0.2963;-0.0149;
1338.0000;0.2963;-0.0149;
1338.3000;0.2971;-0.0074;
1338.6000;0.2987;-0.0050;
1338.9000;0.2971;-0.0124;
1339.2000;0.2939;-0.0198;
1339.5000;0.2939;-0.0173;
1339.8000;0.2947;-0.0173;
1340.1000;0.2955;-0.0124;
1340.4000;0.2955;-0.0050;
1340.7000;0.2963;-0.0050;
1341.0000;0.2987;-0.0050;
1341.3000;0.2987;-0.0050;
1341.6000;0.2963;-0.0124;
1341.9000;0.2963;-0.0099;
1342.2000;0.2971;-0.0149;
1342.5000;0.2955;-0.0223;
1342.8000;0.2955;-0.0124;
1343.1000;0.2963;-0.0198;
1343.4000;0.3004;-0.0099;
1343.7000;0.2955;-0.0248;
1344.0000;0.2979;-0.0223;
1344.3000;0.2955;-0.0297;
1344.6000;0.2947;-0.0347;
1344.9000;0.2963;-0.0347;
1345.2000;0.2963;-0.0347;
1345.5000;0.2939;-0.0347;
1345.8000;0.2914;-0.0396;
1346.1000;0.2930;-0.0371;
1346.4000;0.2971;-0.0272;
1346.7000;0.2939;-0.0297;
1347.0000;0.2963;-0.0322;
1347.3000;0.2963;-0.0248;
1347.6000;0.2979;-0.0124;
1347.9000;0.2971;-0.0074;
1348.2000;0.2939;-0.0173;
1348.5000;0.2947;-0.0050;
1348.8000;0.2914;-0.0099;
1349.1000;0.2971;0.0025;
1349.4000;0.2955;-0.0099;
1349.7000;0.2955;-0.0173;
1350.0000;0.2963;-0.0173;
1350.3000;0.2955;-0.0223;
1350.6000;0.2955;-0.0248;
1350.9000;0.2963;-0.0173;
1351.2000;0.2955;-0.0223;
1351.5000;0.2971;-0.0173;
1351.8000;0.2979;-0.0149;
1352.1000;0.2963;-0.0223;
1352.4000;0.2898;-0.0347;
1352.7000;0.2963;-0.0297;
1353.0000;0.2955;-0.0371;
1353.3000;0.2930;-0.0347;
1353.6000;0.2963;-0.0248;
1353.9000;0.2996;-0.0074;
1354.2000;0.2987;0.0025;
1354.5000;0.2979;0.0000;
1354.8000;0.2987;-0.0074;
1355.1000;0.3028;-0.0025;
1355.4000;0.2939;-0.0198;
1355.7000;0.2963;-0.0099;
1356.0000;0.2906;-0.0223;
1356.3000;0.2963;-0.0099;
1356.6000;0.2955;-0.0050;
1356.9000;0.2947;-0.0124;
1357.2000;0.2939;-0.0173;
1357.5000;0.2947;-0.0149;
1357.8000;0.2996;-0.0099;
1358.1000;0.3061;0.0173;
1358.4000;0.2955;-0.0124;
1358.7000;0.2963;-0.0198;
1359.0000;0.3044;0.0050;
1359.3000;0.2963;-0.0050;
1359.6000;0.2987;-0.0074;
1359.9000;0.2971;-0.0025;
1360.2000;0.2939;-0.0099;
1360.5000;0.2963;-0.0074;
1360.8000;0.2979;-0.0025;
1361.1000;0.2963;-0.0074;
1361.4000;0.2955;-0.0074;
1361.7000;0.2971;-0.0025;
1362.0000;0.2963;0.0025;
1362.3000;0.2955;0.0025;
1362.6000;0.2947;0.0025;
1362.9000;0.2955;0.0124;
1363.2000;0.3036;0.0223;
1363.5000;0.2979;0.0025;
1363.8000;0.2971;-0.0025;
1364.1000;0.2971;-0.0050;
1364.4000;0.2979;0.0025;
1364.7000;0.2963;0.0124;
1365.0000;0.2971;0.0198;
1365.3000;0.2971;0.0124;
1365.6000;0.3028;0.0322;
1365.9000;0.2971;0.0173;
1366.2000;0.2971;0.0248;
1366.5000;0.2955;0.0198;
1366.8000;0.2996;0.0297;
1367.1000;0.2971;0.0272;
1367.4000;0.2971;0.0272;
1367.7000;0.2955;0.0198;
1368.0000;0.2930;0.0099;
1368.3000;0.2955;0.0173;
1368.6000;0.2979;0.0223;
1368.9000;0.2963;0.0149;
1369.2000;0.2955;0.0149;
1369.5000;0.2979;0.0149;
1369.8000;0.2963;0.0050;
1370.1000;0.2979;0.0124;
1370.4000;0.2987;0.0099;
1370.7000;0.2979;0.0025;
1371.0000;0.2971;-0.0050;
1371.3000;0.2947;-0.0050;
1371.6000;0.2979;0.0000;
1371.9000;0.2963;0.0025;
1372.2000;0.2955;0.0025;
1372.5000;0.2979;0.0074;
1372.8000;0.3028;0.0248;
1373.1000;0.2971;0.0099;
1373.4000;0.2955;0.0050;
1373.7000;0.2971;-0.0025;
1374.0000;0.2979;0.0025;
1374.3000;0.2979;-0.0099;
1374.6000;0.2963;-0.0099;
1374.9000;0.2979;-0.0025;
1375.2000;0.2939;-0.0149;
1375.5000;0.2971;-0.0099;
1375.8000;0.2955;-0.0173;
1376.1000;0.2979;-0.0074;
1376.4000;0.2971;-0.0149;
1376.7000;0.2955;-0.0124;
1377.0000;0.2939;-0.0198;
1377.3000;0.2987;0.0050;
1377.6000;0.2963;0.0025;
1377.9000;0.2955;0.0050;
1378.2000;0.2987;0.0198;
1378.5000;0.2971;0.0223;
1378.8000;0.2939;0.0198;
1379.1000;0.2955;0.0149;
1379.4000;0.2963;0.0272;
1379.7000;0.2906;0.0149;
1380.0000;0.3053;0.0446;
1380.3000;0.3012;0.0396;
1380.6000;0.2947;0.0371;
1380.9000;0.2963;0.0297;
1381.2000;0.2963;0.0272;
1381.5000;0.2963;0.0198;
1381.8000;0.2955;0.0248;
1382.1000;0.2955;0.0297;
1382.4000;0.2930;0.0198;
1382.7000;0.2955;0.0223;
1383.0000;0.2963;0.0223;
1383.3000;0.2955;0.0223;
1383.6000;0.2963;0.0149;
1383.9000;0.2963;0.0149;
1384.2000;0.2963;0.0149;
1384.5000;0.2971;0.0248;
1384.8000;0.2914;0.0025;
1385.1000;0.2979;0.0173;
1385.4000;0.2955;0.0074;
1385.7000;0.2987;0.0050;
1386.0000;0.2971;0.0000;
1386.3000;0.2971;0.0124;
1386.6000;0.2979;0.0248;
1386.9000;0.2963;0.0223;
1387.2000;0.2971;0.0248;
1387.5000;0.2963;0.0173;
1387.8000;0.2939;0.0050;
1388.1000;0.2939;0.0025;
1388.4000;0.2930;0.0050;
1388.7000;0.2963;0.0099;
1389.0000;0.2955;0.0074;
1389.3000;0.2979;0.0173;
1389.6000;0.2955;0.0124;
1389.9000;0.2955;0.0198;
1390.2000;0.2963;0.0223;
1390.5000;0.2987;0.0149;
1390.8000;0.2947;0.0050;
1391.1000;0.2963;0.0025;
1391.4000;0.2955;0.0000;
1391.7000;0.2979;0.0099;
1392.0000;0.2987;0.0173;
1392.3000;0.3012;0.0322;
1392.6000;0.2971;0.0198;
1392.9000;0.2971;0.0074;
1393.2000;0.2987;0.0099;
1393.5000;0.3004;0.0198;
1393.8000;0.2939;0.0000;
1394.1000;0.2979;0.0074;
1394.4000;0.2987;0.0074;
1394.7000;0.2963;0.0025;
1395.0000;0.2979;0.0000;
1395.3000;0.2979;-0.0025;
1395.6000;0.2963;-0.0074;
1395.9000;0.2947;-0.0124;
1396.2000;0.2963;-0.0099;
1396.5000;0.2947;-0.0099;
1396.8000;0.2955;-0.0074;
1397.1000;0.2955;-0.0074;
1397.4000;0.2963;-0.0099;
1397.7000;0.2963;-0.0124;
1398.0000;0.2979;-0.0050;
1398.3000;0.2955;-0.0050;
1398.6000;0.2955;-0.0050;
1398.9000;0.2971;-0.0074;
1399.2000;0.2971;-0.0050;
1399.5000;0.2955;0.0000;
1399.8000;0.2971;0.0025;
