time/ms;Fluo/V;P700 deltaI/I x10³;
-199.8000;0.3280;0.0000;
-199.5000;0.3289;0.0074;
-199.2000;0.3280;0.0074;
-198.9000;0.3289;-0.0050;
-198.6000;0.3297;0.0000;
-198.3000;0.3378;0.0297;
-198.0000;0.3329;0.0272;
-197.7000;0.3297;0.0248;
-197.4000;0.3297;0.0297;
-197.1000;0.3256;0.0149;
-196.8000;0.3305;0.0248;
-196.5000;0.3289;0.0297;
-196.2000;0.3297;0.0272;
-195.9000;0.3297;0.0223;
-195.6000;0.3313;0.0272;
-195.3000;0.3289;0.0223;
-195.0000;0.3346;0.0347;
-194.7000;0.3321;0.0223;
-194.4000;0.3297;0.0248;
-194.1000;0.3256;0.0149;
-193.8000;0.3297;0.0223;
-193.5000;0.3256;0.0149;
-193.2000;0.3313;0.0371;
-192.9000;0.3297;0.0248;
-192.6000;0.3289;0.0347;
-192.3000;0.3297;0.0347;
-192.0000;0.3321;0.0347;
-191.7000;0.3297;0.0297;
-191.4000;0.3305;0.0371;
-191.1000;0.3297;0.0322;
-190.8000;0.3305;0.0396;
-190.5000;0.3321;0.0421;
-190.2000;0.3280;0.0371;
-189.9000;0.3280;0.0322;
-189.6000;0.3248;0.0198;
-189.3000;0.3297;0.0495;
-189.0000;0.3289;0.0520;
-188.7000;0.3289;0.0495;
-188.4000;0.3305;0.0470;
-188.1000;0.3305;0.0446;
-187.8000;0.3305;0.0347;
-187.5000;0.3313;0.0396;
-187.2000;0.3305;0.0446;
-186.9000;0.3313;0.0421;
-186.6000;0.3305;0.0371;
-186.3000;0.3297;0.0347;
-186.0000;0.3313;0.0421;
-185.7000;0.3321;0.0421;
-185.4000;0.3313;0.0495;
-185.1000;0.3297;0.0446;
-184.8000;0.3297;0.0470;
-184.5000;0.3297;0.0421;
-184.2000;0.3378;0.0644;
-183.9000;0.3297;0.0371;
-183.6000;0.3305;0.0520;
-183.3000;0.3313;0.0520;
-183.0000;0.3305;0.0446;
-182.7000;0.3305;0.0396;
-182.4000;0.3354;0.0520;
-182.1000;0.3280;0.0396;
-181.8000;0.3313;0.0446;
-181.5000;0.3313;0.0396;
-181.2000;0.3297;0.0297;
-180.9000;0.3289;0.0297;
-180.6000;0.3297;0.0297;
-180.3000;0.3305;0.0396;
-180.0000;0.3297;0.0371;
-179.7000;0.3305;0.0396;
-179.4000;0.3272;0.0347;
-179.1000;0.3289;0.0421;
-178.8000;0.3297;0.0396;
-178.5000;0.3289;0.0272;
-178.2000;0.3256;0.0223;
-177.9000;0.3305;0.0396;
-177.6000;0.3297;0.0322;
-177.3000;0.3313;0.0371;
-177.0000;0.3297;0.0446;
-176.7000;0.3305;0.0396;
-176.4000;0.3321;0.0396;
-176.1000;0.3256;0.0198;
-175.8000;0.3297;0.0322;
-175.5000;0.3272;0.0272;
-175.2000;0.3305;0.0371;
-174.9000;0.3297;0.0297;
-174.6000;0.3272;0.0297;
-174.3000;0.3297;0.0347;
-174.0000;0.3289;0.0322;
-173.7000;0.3305;0.0272;
-173.4000;0.3313;0.0272;
-173.1000;0.3305;0.0297;
-172.8000;0.3289;0.0272;
-172.5000;0.3313;0.0322;
-172.2000;0.3305;0.0297;
-171.9000;0.3321;0.0198;
-171.6000;0.3289;0.0198;
-171.3000;0.3280;0.0149;
-171.0000;0.3305;0.0149;
-170.7000;0.3289;0.0074;
-170.4000;0.3305;0.0198;
-170.1000;0.3313;0.0272;
-169.8000;0.3264;0.0223;
-169.5000;0.3289;0.0396;
-169.2000;0.3280;0.0272;
-168.9000;0.3289;0.0297;
-168.6000;0.3305;0.0297;
-168.3000;0.3289;0.0322;
-168.0000;0.3297;0.0371;
-167.7000;0.3240;0.0347;
-167.4000;0.3305;0.0495;
-167.1000;0.3289;0.0495;
-166.8000;0.3280;0.0347;
-166.5000;0.3305;0.0396;
-166.2000;0.3297;0.0347;
-165.9000;0.3329;0.0347;
-165.6000;0.3305;0.0347;
-165.3000;0.3305;0.0272;
-165.0000;0.3297;0.0223;
-164.7000;0.3337;0.0297;
-164.4000;0.3321;0.0223;
-164.1000;0.3305;0.0149;
-163.8000;0.3289;0.0173;
-163.5000;0.3313;0.0297;
-163.2000;0.3272;0.0272;
-162.9000;0.3248;0.0223;
-162.6000;0.3297;0.0421;
-162.3000;0.3297;0.0371;
-162.0000;0.3305;0.0421;
-161.7000;0.3297;0.0446;
-161.4000;0.3305;0.0446;
-161.1000;0.3313;0.0470;
-160.8000;0.3321;0.0421;
-160.5000;0.3297;0.0297;
-160.2000;0.3297;0.0396;
-159.9000;0.3313;0.0495;
-159.6000;0.3321;0.0570;
-159.3000;0.3305;0.0545;
-159.0000;0.3313;0.0495;
-158.7000;0.3289;0.0495;
-158.4000;0.3297;0.0520;
-158.1000;0.3297;0.0421;
-157.8000;0.3297;0.0421;
-157.5000;0.3289;0.0371;
-157.2000;0.3297;0.0421;
-156.9000;0.3305;0.0371;
-156.6000;0.3305;0.0347;
-156.3000;0.3289;0.0421;
-156.0000;0.3321;0.0446;
-155.7000;0.3297;0.0347;
-155.4000;0.3337;0.0520;
-155.1000;0.3297;0.0495;
-154.8000;0.3297;0.0520;
-154.5000;0.3305;0.0644;
-154.2000;0.3280;0.0446;
-153.9000;0.3280;0.0495;
-153.6000;0.3289;0.0396;
-153.3000;0.3321;0.0396;
-153.0000;0.3321;0.0421;
-152.7000;0.3280;0.0371;
-152.4000;0.3297;0.0322;
-152.1000;0.3297;0.0347;
-151.8000;0.3305;0.0446;
-151.5000;0.3321;0.0421;
-151.2000;0.3297;0.0347;
-150.9000;0.3305;0.0396;
-150.6000;0.3305;0.0371;
-150.3000;0.3313;0.0446;
-150.0000;0.3305;0.0371;
-149.7000;0.3297;0.0297;
-149.4000;0.3329;0.0446;
-149.1000;0.3313;0.0347;
-148.8000;0.3289;0.0322;
-148.5000;0.3297;0.0347;
-148.2000;0.3297;0.0322;
-147.9000;0.3297;0.0322;
-147.6000;0.3305;0.0272;
-147.3000;0.3289;0.0248;
-147.0000;0.3289;0.0198;
-146.7000;0.3313;0.0396;
-146.4000;0.3305;0.0396;
-146.1000;0.3305;0.0446;
-145.8000;0.3289;0.0421;
-145.5000;0.3264;0.0446;
-145.2000;0.3289;0.0545;
-144.9000;0.3280;0.0421;
-144.6000;0.3329;0.0446;
-144.3000;0.3289;0.0347;
-144.0000;0.3329;0.0371;
-143.7000;0.3297;0.0248;
-143.4000;0.3305;0.0248;
-143.1000;0.3305;0.0297;
-142.8000;0.3313;0.0347;
-142.5000;0.3297;0.0297;
-142.2000;0.3321;0.0248;
-141.9000;0.3305;0.0347;
-141.6000;0.3305;0.0446;
-141.3000;0.3329;0.0470;
-141.0000;0.3297;0.0396;
-140.7000;0.3289;0.0396;
-140.4000;0.3321;0.0421;
-140.1000;0.3223;0.0198;
-139.8000;0.3297;0.0421;
-139.5000;0.3289;0.0495;
-139.2000;0.3313;0.0421;
-138.9000;0.3297;0.0421;
-138.6000;0.3305;0.0371;
-138.3000;0.3321;0.0371;
-138.0000;0.3280;0.0322;
-137.7000;0.3264;0.0248;
-137.4000;0.3313;0.0322;
-137.1000;0.3289;0.0371;
-136.8000;0.3305;0.0470;
-136.5000;0.3289;0.0495;
-136.2000;0.3297;0.0347;
-135.9000;0.3313;0.0322;
-135.6000;0.3313;0.0421;
-135.3000;0.3289;0.0322;
-135.0000;0.3305;0.0396;
-134.7000;0.3297;0.0371;
-134.4000;0.3297;0.0297;
-134.1000;0.3305;0.0371;
-133.8000;0.3289;0.0421;
-133.5000;0.3305;0.0446;
-133.2000;0.3305;0.0421;
-132.9000;0.3305;0.0446;
-132.6000;0.3313;0.0495;
-132.3000;0.3313;0.0495;
-132.0000;0.3232;0.0297;
-131.7000;0.3280;0.0396;
-131.4000;0.3289;0.0421;
-131.1000;0.3297;0.0470;
-130.8000;0.3289;0.0446;
-130.5000;0.3297;0.0446;
-130.2000;0.3297;0.0446;
-129.9000;0.3297;0.0446;
-129.6000;0.3297;0.0396;
-129.3000;0.3305;0.0421;
-129.0000;0.3305;0.0470;
-128.7000;0.3289;0.0446;
-128.4000;0.3313;0.0520;
-128.1000;0.3321;0.0470;
-127.8000;0.3305;0.0396;
-127.5000;0.3313;0.0421;
-127.2000;0.3305;0.0421;
-126.9000;0.3337;0.0495;
-126.6000;0.3280;0.0396;
-126.3000;0.3289;0.0446;
-126.0000;0.3305;0.0495;
-125.7000;0.3289;0.0322;
-125.4000;0.3329;0.0322;
-125.1000;0.3305;0.0347;
-124.8000;0.3305;0.0371;
-124.5000;0.3289;0.0371;
-124.2000;0.3305;0.0470;
-123.9000;0.3289;0.0570;
-123.6000;0.3289;0.0545;
-123.3000;0.3297;0.0520;
-123.0000;0.3305;0.0570;
-122.7000;0.3232;0.0347;
-122.4000;0.3305;0.0495;
-122.1000;0.3305;0.0446;
-121.8000;0.3305;0.0470;
-121.5000;0.3313;0.0421;
-121.2000;0.3305;0.0421;
-120.9000;0.3297;0.0421;
-120.6000;0.3305;0.0495;
-120.3000;0.3297;0.0495;
-120.0000;0.3289;0.0421;
-119.7000;0.3297;0.0446;
-119.4000;0.3289;0.0371;
-119.1000;0.3289;0.0322;
-118.8000;0.3289;0.0223;
-118.5000;0.3305;0.0223;
-118.2000;0.3321;0.0347;
-117.9000;0.3321;0.0297;
-117.6000;0.3305;0.0347;
-117.3000;0.3289;0.0297;
-117.0000;0.3215;0.0149;
-116.7000;0.3313;0.0371;
-116.4000;0.3289;0.0421;
-116.1000;0.3289;0.0495;
-115.8000;0.3313;0.0520;
-115.5000;0.3272;0.0520;
-115.2000;0.3313;0.0545;
-114.9000;0.3289;0.0495;
-114.6000;0.3305;0.0446;
-114.3000;0.3297;0.0470;
-114.0000;0.3297;0.0396;
-113.7000;0.3313;0.0470;
-113.4000;0.3313;0.0495;
-113.1000;0.3264;0.0446;
-112.8000;0.3321;0.0570;
-112.5000;0.3305;0.0545;
-112.2000;0.3297;0.0570;
-111.9000;0.3305;0.0545;
-111.6000;0.3313;0.0644;
-111.3000;0.3264;0.0520;
-111.0000;0.3297;0.0545;
-110.7000;0.3289;0.0545;
-110.4000;0.3321;0.0570;
-110.1000;0.3289;0.0470;
-109.8000;0.3305;0.0495;
-109.5000;0.3313;0.0495;
-109.2000;0.3305;0.0495;
-108.9000;0.3321;0.0495;
-108.6000;0.3264;0.0446;
-108.3000;0.3280;0.0520;
-108.0000;0.3305;0.0644;
-107.7000;0.3305;0.0594;
-107.4000;0.3346;0.0669;
-107.1000;0.3313;0.0520;
-106.8000;0.3329;0.0644;
-106.5000;0.3329;0.0693;
-106.2000;0.3321;0.0718;
-105.9000;0.3329;0.0718;
-105.6000;0.3289;0.0594;
-105.3000;0.3313;0.0644;
-105.0000;0.3297;0.0644;
-104.7000;0.3297;0.0570;
-104.4000;0.3289;0.0520;
-104.1000;0.3272;0.0495;
-103.8000;0.3248;0.0371;
-103.5000;0.3305;0.0545;
-103.2000;0.3321;0.0495;
-102.9000;0.3297;0.0520;
-102.6000;0.3370;0.0669;
-102.3000;0.3280;0.0470;
-102.0000;0.3305;0.0446;
-101.7000;0.3280;0.0421;
-101.4000;0.3313;0.0520;
-101.1000;0.3289;0.0396;
-100.8000;0.3264;0.0297;
-100.5000;0.3297;0.0421;
-100.2000;0.3305;0.0446;
-99.9000;0.3297;0.0470;
-99.6000;0.3354;0.0520;
-99.3000;0.3305;0.0470;
-99.0000;0.3289;0.0396;
-98.7000;0.3280;0.0272;
-98.4000;0.3289;0.0347;
-98.1000;0.3280;0.0322;
-97.8000;0.3256;0.0371;
-97.5000;0.3313;0.0446;
-97.2000;0.3280;0.0470;
-96.9000;0.3280;0.0495;
-96.6000;0.3289;0.0446;
-96.3000;0.3305;0.0396;
-96.0000;0.3297;0.0446;
-95.7000;0.3313;0.0470;
-95.4000;0.3297;0.0470;
-95.1000;0.3289;0.0371;
-94.8000;0.3305;0.0446;
-94.5000;0.3297;0.0421;
-94.2000;0.3305;0.0421;
-93.9000;0.3313;0.0421;
-93.6000;0.3305;0.0470;
-93.3000;0.3297;0.0421;
-93.0000;0.3370;0.0570;
-92.7000;0.3289;0.0396;
-92.4000;0.3297;0.0371;
-92.1000;0.3313;0.0347;
-91.8000;0.3313;0.0297;
-91.5000;0.3280;0.0198;
-91.2000;0.3362;0.0470;
-90.9000;0.3313;0.0347;
-90.6000;0.3321;0.0371;
-90.3000;0.3272;0.0322;
-90.0000;0.3297;0.0396;
-89.7000;0.3337;0.0495;
-89.4000;0.3313;0.0421;
-89.1000;0.3256;0.0248;
-88.8000;0.3297;0.0347;
-88.5000;0.3297;0.0322;
-88.2000;0.3248;0.0248;
-87.9000;0.3256;0.0322;
-87.6000;0.3297;0.0421;
-87.3000;0.3289;0.0421;
-87.0000;0.3305;0.0421;
-86.7000;0.3280;0.0470;
-86.4000;0.3289;0.0470;
-86.1000;0.3289;0.0446;
-85.8000;0.3297;0.0396;
-85.5000;0.3280;0.0347;
-85.2000;0.3297;0.0347;
-84.9000;0.3321;0.0371;
-84.6000;0.3280;0.0371;
-84.3000;0.3313;0.0470;
-84.0000;0.3289;0.0371;
-83.7000;0.3289;0.0520;
-83.4000;0.3313;0.0594;
-83.1000;0.3313;0.0545;
-82.8000;0.3313;0.0470;
-82.5000;0.3297;0.0495;
-82.2000;0.3313;0.0619;
-81.9000;0.3305;0.0545;
-81.6000;0.3297;0.0570;
-81.3000;0.3289;0.0495;
-81.0000;0.3297;0.0495;
-80.7000;0.3289;0.0446;
-80.4000;0.3313;0.0446;
-80.1000;0.3313;0.0421;
-79.8000;0.3289;0.0396;
-79.5000;0.3297;0.0446;
-79.2000;0.3297;0.0495;
-78.9000;0.3280;0.0421;
-78.6000;0.3354;0.0594;
-78.3000;0.3313;0.0545;
-78.0000;0.3297;0.0520;
-77.7000;0.3305;0.0545;
-77.4000;0.3305;0.0520;
-77.1000;0.3297;0.0495;
-76.8000;0.3280;0.0520;
-76.5000;0.3313;0.0570;
-76.2000;0.3280;0.0570;
-75.9000;0.3289;0.0644;
-75.6000;0.3289;0.0570;
-75.3000;0.3297;0.0644;
-75.0000;0.3240;0.0470;
-74.7000;0.3289;0.0545;
-74.4000;0.3289;0.0570;
-74.1000;0.3289;0.0594;
-73.8000;0.3297;0.0545;
-73.5000;0.3321;0.0470;
-73.2000;0.3289;0.0520;
-72.9000;0.3346;0.0545;
-72.6000;0.3305;0.0495;
-72.3000;0.3313;0.0470;
-72.0000;0.3297;0.0495;
-71.7000;0.3329;0.0495;
-71.4000;0.3313;0.0470;
-71.1000;0.3305;0.0495;
-70.8000;0.3297;0.0396;
-70.5000;0.3297;0.0396;
-70.2000;0.3321;0.0495;
-69.9000;0.3297;0.0470;
-69.6000;0.3297;0.0495;
-69.3000;0.3329;0.0545;
-69.0000;0.3305;0.0446;
-68.7000;0.3297;0.0446;
-68.4000;0.3346;0.0693;
-68.1000;0.3313;0.0594;
-67.8000;0.3297;0.0644;
-67.5000;0.3264;0.0570;
-67.2000;0.3305;0.0693;
-66.9000;0.3305;0.0594;
-66.6000;0.3297;0.0570;
-66.3000;0.3272;0.0495;
-66.0000;0.3280;0.0545;
-65.7000;0.3313;0.0570;
-65.4000;0.3297;0.0545;
-65.1000;0.3305;0.0520;
-64.8000;0.3264;0.0421;
-64.5000;0.3313;0.0421;
-64.2000;0.3280;0.0371;
-63.9000;0.3289;0.0371;
-63.6000;0.3321;0.0421;
-63.3000;0.3264;0.0371;
-63.0000;0.3297;0.0520;
-62.7000;0.3313;0.0495;
-62.4000;0.3264;0.0322;
-62.1000;0.3289;0.0396;
-61.8000;0.3232;0.0173;
-61.5000;0.3297;0.0446;
-61.2000;0.3289;0.0470;
-60.9000;0.3280;0.0347;
-60.6000;0.3280;0.0347;
-60.3000;0.3321;0.0520;
-60.0000;0.3297;0.0421;
-59.7000;0.3297;0.0371;
-59.4000;0.3280;0.0347;
-59.1000;0.3272;0.0371;
-58.8000;0.3297;0.0396;
-58.5000;0.3297;0.0421;
-58.2000;0.3280;0.0371;
-57.9000;0.3297;0.0470;
-57.6000;0.3305;0.0570;
-57.3000;0.3321;0.0545;
-57.0000;0.3321;0.0520;
-56.7000;0.3313;0.0520;
-56.4000;0.3305;0.0520;
-56.1000;0.3313;0.0570;
-55.8000;0.3313;0.0545;
-55.5000;0.3289;0.0421;
-55.2000;0.3289;0.0396;
-54.9000;0.3289;0.0347;
-54.6000;0.3321;0.0470;
-54.3000;0.3305;0.0446;
-54.0000;0.3297;0.0495;
-53.7000;0.3313;0.0470;
-53.4000;0.3305;0.0446;
-53.1000;0.3313;0.0396;
-52.8000;0.3289;0.0371;
-52.5000;0.3297;0.0421;
-52.2000;0.3305;0.0446;
-51.9000;0.3289;0.0371;
-51.6000;0.3297;0.0421;
-51.3000;0.3280;0.0322;
-51.0000;0.3313;0.0272;
-50.7000;0.3297;0.0198;
-50.4000;0.3289;0.0223;
-50.1000;0.3289;0.0198;
-49.8000;0.3297;0.0272;
-49.5000;0.3305;0.0248;
-49.2000;0.3305;0.0297;
-48.9000;0.3289;0.0248;
-48.6000;0.3305;0.0297;
-48.3000;0.3305;0.0371;
-48.0000;0.3321;0.0396;
-47.7000;0.3272;0.0297;
-47.4000;0.3313;0.0347;
-47.1000;0.3321;0.0347;
-46.8000;0.3313;0.0421;
-46.5000;0.3305;0.0470;
-46.2000;0.3313;0.0421;
-45.9000;0.3297;0.0272;
-45.6000;0.3297;0.0272;
-45.3000;0.3329;0.0322;
-45.0000;0.3337;0.0347;
-44.7000;0.3272;0.0198;
-44.4000;0.3321;0.0248;
-44.1000;0.3297;0.0149;
-43.8000;0.3297;0.0149;
-43.5000;0.3346;0.0173;
-43.2000;0.3280;0.0173;
-42.9000;0.3289;0.0297;
-42.6000;0.3313;0.0297;
-42.3000;0.3329;0.0347;
-42.0000;0.3289;0.0272;
-41.7000;0.3264;0.0223;
-41.4000;0.3289;0.0396;
-41.1000;0.3289;0.0470;
-40.8000;0.3297;0.0446;
-40.5000;0.3280;0.0421;
-40.2000;0.3305;0.0619;
-39.9000;0.3297;0.0619;
-39.6000;0.3297;0.0545;
-39.3000;0.3289;0.0570;
-39.0000;0.3305;0.0594;
-38.7000;0.3280;0.0594;
-38.4000;0.3289;0.0520;
-38.1000;0.3272;0.0446;
-37.8000;0.3297;0.0545;
-37.5000;0.3272;0.0520;
-37.2000;0.3232;0.0396;
-36.9000;0.3305;0.0570;
-36.6000;0.3337;0.0669;
-36.3000;0.3305;0.0570;
-36.0000;0.3297;0.0495;
-35.7000;0.3305;0.0495;
-35.4000;0.3313;0.0470;
-35.1000;0.3305;0.0470;
-34.8000;0.3280;0.0396;
-34.5000;0.3297;0.0396;
-34.2000;0.3297;0.0371;
-33.9000;0.3264;0.0297;
-33.6000;0.3313;0.0396;
-33.3000;0.3305;0.0272;
-33.0000;0.3248;0.0198;
-32.7000;0.3297;0.0347;
-32.4000;0.3280;0.0322;
-32.1000;0.3280;0.0347;
-31.8000;0.3297;0.0396;
-31.5000;0.3305;0.0371;
-31.2000;0.3289;0.0297;
-30.9000;0.3329;0.0272;
-30.6000;0.3256;0.0099;
-30.3000;0.3313;0.0198;
-30.0000;0.3362;0.0396;
-29.7000;0.3223;0.0025;
-29.4000;0.3264;0.0099;
-29.1000;0.3305;0.0272;
-28.8000;0.3289;0.0371;
-28.5000;0.3305;0.0421;
-28.2000;0.3305;0.0495;
-27.9000;0.3305;0.0545;
-27.6000;0.3329;0.0644;
-27.3000;0.3289;0.0570;
-27.0000;0.3337;0.0669;
-26.7000;0.3289;0.0545;
-26.4000;0.3280;0.0570;
-26.1000;0.3305;0.0644;
-25.8000;0.3289;0.0545;
-25.5000;0.3313;0.0520;
-25.2000;0.3297;0.0446;
-24.9000;0.3321;0.0421;
-24.6000;0.3297;0.0322;
-24.3000;0.3346;0.0371;
-24.0000;0.3313;0.0396;
-23.7000;0.3305;0.0297;
-23.4000;0.3313;0.0322;
-23.1000;0.3313;0.0347;
-22.8000;0.3305;0.0371;
-22.5000;0.3313;0.0347;
-22.2000;0.3289;0.0124;
-21.9000;0.3321;0.0322;
-21.6000;0.3297;0.0396;
-21.3000;0.3313;0.0446;
-21.0000;0.3305;0.0396;
-20.7000;0.3313;0.0421;
-20.4000;0.3297;0.0421;
-20.1000;0.3305;0.0421;
-19.8000;0.3305;0.0470;
-19.5000;0.3305;0.0446;
-19.2000;0.3256;0.0272;
-18.9000;0.3297;0.0421;
-18.6000;0.3305;0.0347;
-18.3000;0.3272;0.0223;
-18.0000;0.3329;0.0371;
-17.7000;0.3313;0.0396;
-17.4000;0.3305;0.0421;
-17.1000;0.3313;0.0446;
-16.8000;0.3280;0.0347;
-16.5000;0.3256;0.0322;
-16.2000;0.3297;0.0347;
-15.9000;0.3289;0.0322;
-15.6000;0.3280;0.0297;
-15.3000;0.3305;0.0322;
-15.0000;0.3305;0.0272;
-14.7000;0.3378;0.0495;
-14.4000;0.3280;0.0223;
-14.1000;0.3305;0.0223;
-13.8000;0.3346;0.0347;
-13.5000;0.3280;0.0198;
-13.2000;0.3272;0.0248;
-12.9000;0.3280;0.0371;
-12.6000;0.3289;0.0347;
-12.3000;0.3289;0.0322;
-12.0000;0.3313;0.0421;
-11.7000;0.3272;0.0248;
-11.4000;0.3297;0.0322;
-11.1000;0.3280;0.0347;
-10.8000;0.3297;0.0297;
-10.5000;0.3297;0.0322;
-10.2000;0.3289;0.0347;
-9.9000;0.3280;0.0396;
-9.6000;0.3280;0.0396;
-9.3000;0.3297;0.0421;
-9.0000;0.3280;0.0371;
-8.7000;0.3346;0.0644;
-8.4000;0.3346;0.0669;
-8.1000;0.3329;0.0570;
-7.8000;0.3313;0.0520;
-7.5000;0.3289;0.0421;
-7.2000;0.3305;0.0446;
-6.9000;0.3329;0.0470;
-6.6000;0.3240;0.0223;
-6.3000;0.3297;0.0322;
-6.0000;0.3289;0.0272;
-5.7000;0.3329;0.0371;
-5.4000;0.3297;0.0347;
-5.1000;0.3280;0.0297;
-4.8000;0.3272;0.0322;
-4.5000;0.3370;0.0570;
-4.2000;0.3321;0.0446;
-3.9000;0.3297;0.0371;
-3.6000;0.3289;0.0371;
-3.3000;0.3297;0.0421;
-3.0000;0.3305;0.0371;
-2.7000;0.3289;0.0198;
-2.4000;0.3297;0.0272;
-2.1000;0.3280;0.0223;
-1.8000;0.3321;0.0347;
-1.5000;0.3280;0.0347;
-1.2000;0.3297;0.0322;
-0.9000;0.3297;0.0322;
-0.6000;0.3280;0.0297;
-0.3000;0.3272;0.0297;
0.0000;0.3272;0.0297;
0.3000;0.3419;0.0272;
0.6000;0.3614;0.0495;
0.9000;0.3744;0.0619;
1.2000;0.3891;0.0891;
1.5000;0.3997;0.1015;
1.8000;0.4103;0.1213;
2.1000;0.4217;0.1585;
2.4000;0.4208;0.1634;
2.7000;0.4241;0.1709;
3.0000;0.4257;0.1783;
3.3000;0.4282;0.1882;
3.6000;0.4314;0.1907;
3.9000;0.4314;0.1907;
4.2000;0.4314;0.1857;
4.5000;0.4339;0.1907;
4.8000;0.4355;0.1931;
5.1000;0.4347;0.1956;
5.4000;0.4363;0.2055;
5.7000;0.4363;0.2080;
6.0000;0.4371;0.2006;
6.3000;0.4363;0.2006;
6.6000;0.4396;0.2055;
6.9000;0.4396;0.2031;
7.2000;0.4453;0.2080;
7.5000;0.4396;0.1808;
7.8000;0.4469;0.1956;
8.1000;0.4420;0.1832;
8.4000;0.4428;0.1808;
8.7000;0.4485;0.1981;
9.0000;0.4444;0.1882;
9.3000;0.4404;0.1783;
9.6000;0.4461;0.1832;
9.9000;0.4453;0.1758;
10.2000;0.4518;0.1832;
10.5000;0.4485;0.1684;
10.8000;0.4469;0.1709;
11.1000;0.4461;0.1808;
11.4000;0.4501;0.1931;
11.7000;0.4501;0.1931;
12.0000;0.4493;0.1907;
12.3000;0.4510;0.1931;
12.6000;0.4518;0.1956;
12.9000;0.4518;0.1956;
13.2000;0.4526;0.1981;
13.5000;0.4510;0.1882;
13.8000;0.4558;0.1931;
14.1000;0.4542;0.1956;
14.4000;0.4526;0.1882;
14.7000;0.4567;0.1956;
15.0000;0.4583;0.2055;
15.3000;0.4575;0.1956;
15.6000;0.4575;0.2031;
15.9000;0.4526;0.1956;
16.2000;0.4607;0.2204;
16.5000;0.4607;0.2154;
16.8000;0.4607;0.2105;
17.1000;0.4607;0.2080;
17.4000;0.4599;0.1981;
17.7000;0.4624;0.2080;
18.0000;0.4632;0.2130;
18.3000;0.4640;0.2179;
18.6000;0.4648;0.2130;
18.9000;0.4640;0.2080;
19.2000;0.4624;0.1956;
19.5000;0.4640;0.2006;
19.8000;0.4632;0.2006;
20.1000;0.4664;0.2080;
20.4000;0.4648;0.2031;
20.7000;0.4648;0.2105;
21.0000;0.4648;0.2055;
21.3000;0.4656;0.2080;
21.6000;0.4664;0.2080;
21.9000;0.4664;0.2080;
22.2000;0.4681;0.2130;
22.5000;0.4697;0.2154;
22.8000;0.4689;0.2154;
23.1000;0.4713;0.2229;
23.4000;0.4721;0.2229;
23.7000;0.4705;0.2130;
24.0000;0.4705;0.2130;
24.3000;0.4721;0.2080;
24.6000;0.4721;0.2006;
24.9000;0.4737;0.1956;
25.2000;0.4729;0.1931;
25.5000;0.4746;0.1931;
25.8000;0.4770;0.1956;
26.1000;0.4770;0.1956;
26.4000;0.4762;0.1931;
26.7000;0.4762;0.1931;
27.0000;0.4762;0.2006;
27.3000;0.4762;0.1956;
27.6000;0.4746;0.1783;
27.9000;0.4794;0.1907;
28.2000;0.4786;0.1956;
28.5000;0.4778;0.1956;
28.8000;0.4778;0.1956;
29.1000;0.4786;0.2031;
29.4000;0.4770;0.2006;
29.7000;0.4754;0.1832;
30.0000;0.4803;0.1882;
30.3000;0.4770;0.1882;
30.6000;0.4746;0.1808;
30.9000;0.4803;0.1931;
31.2000;0.4803;0.1931;
31.5000;0.4819;0.1931;
31.8000;0.4876;0.2080;
32.1000;0.4892;0.2130;
32.4000;0.4811;0.1931;
32.7000;0.4811;0.1956;
33.0000;0.4835;0.2055;
33.3000;0.4819;0.2006;
33.6000;0.4925;0.2278;
33.9000;0.4827;0.1931;
34.2000;0.4819;0.1956;
34.5000;0.4851;0.1956;
34.8000;0.4892;0.2006;
35.1000;0.4851;0.1832;
35.4000;0.4843;0.1808;
35.7000;0.4868;0.1783;
36.0000;0.4860;0.1709;
36.3000;0.4974;0.2055;
36.6000;0.4851;0.1733;
36.9000;0.4876;0.1758;
37.2000;0.4884;0.1758;
37.5000;0.4851;0.1659;
37.8000;0.4819;0.1511;
38.1000;0.4892;0.1808;
38.4000;0.4900;0.1907;
38.7000;0.4900;0.1981;
39.0000;0.4900;0.2031;
39.3000;0.4908;0.1956;
39.6000;0.4908;0.1956;
39.9000;0.4900;0.2031;
40.2000;0.4908;0.2006;
40.5000;0.4925;0.2031;
40.8000;0.4957;0.2080;
41.1000;0.4908;0.1981;
41.4000;0.4925;0.1981;
41.7000;0.4917;0.1981;
42.0000;0.4925;0.2055;
42.3000;0.4925;0.2080;
42.6000;0.4925;0.2080;
42.9000;0.4933;0.2055;
43.2000;0.4957;0.2154;
43.5000;0.4933;0.2031;
43.8000;0.4925;0.1956;
44.1000;0.4965;0.1907;
44.4000;0.4965;0.1882;
44.7000;0.4949;0.1783;
45.0000;0.4957;0.1857;
45.3000;0.4957;0.1857;
45.6000;0.4933;0.1808;
45.9000;0.4949;0.1907;
46.2000;0.4949;0.1981;
46.5000;0.4900;0.1857;
46.8000;0.4957;0.1931;
47.1000;0.4957;0.1931;
47.4000;0.4949;0.1882;
47.7000;0.4949;0.1956;
48.0000;0.4957;0.1981;
48.3000;0.4965;0.1931;
48.6000;0.4974;0.2006;
48.9000;0.4965;0.1956;
49.2000;0.4957;0.1832;
49.5000;0.4990;0.1931;
49.8000;0.4974;0.1907;
50.1000;0.4990;0.2080;
50.4000;0.4974;0.2080;
50.7000;0.4974;0.1931;
51.0000;0.4982;0.1931;
51.3000;0.5014;0.2006;
51.6000;0.5006;0.2031;
51.9000;0.4990;0.2055;
52.2000;0.4982;0.2105;
52.5000;0.4990;0.2055;
52.8000;0.5006;0.2105;
53.1000;0.4982;0.2006;
53.4000;0.4998;0.2080;
53.7000;0.4965;0.1931;
54.0000;0.5014;0.2105;
54.3000;0.5006;0.2130;
54.6000;0.5047;0.2278;
54.9000;0.5006;0.2204;
55.2000;0.4990;0.2154;
55.5000;0.4990;0.2154;
55.8000;0.4982;0.2006;
56.1000;0.5006;0.1981;
56.4000;0.5006;0.2031;
56.7000;0.4998;0.1981;
57.0000;0.5014;0.2105;
57.3000;0.4990;0.2179;
57.6000;0.5014;0.2229;
57.9000;0.5006;0.2253;
58.2000;0.5006;0.2229;
58.5000;0.5014;0.2130;
58.8000;0.5006;0.2130;
59.1000;0.5014;0.2179;
59.4000;0.5022;0.2154;
59.7000;0.5022;0.2130;
60.0000;0.5022;0.2179;
60.3000;0.5022;0.2130;
60.6000;0.5014;0.2154;
60.9000;0.5022;0.2105;
61.2000;0.5022;0.2055;
61.5000;0.5031;0.2055;
61.8000;0.5039;0.2105;
62.1000;0.5031;0.2130;
62.4000;0.4998;0.2006;
62.7000;0.5014;0.2006;
63.0000;0.5022;0.2031;
63.3000;0.5047;0.2179;
63.6000;0.4998;0.2080;
63.9000;0.5047;0.2303;
64.2000;0.5055;0.2253;
64.5000;0.5031;0.2105;
64.8000;0.5039;0.2154;
65.1000;0.5039;0.2006;
65.4000;0.5022;0.1907;
65.7000;0.5055;0.1956;
66.0000;0.5047;0.1931;
66.3000;0.5055;0.1956;
66.6000;0.5039;0.1931;
66.9000;0.5104;0.2154;
67.2000;0.5047;0.2130;
67.5000;0.5047;0.2080;
67.8000;0.5047;0.2105;
68.1000;0.5063;0.2105;
68.4000;0.5088;0.2204;
68.7000;0.5071;0.2154;
69.0000;0.5047;0.2055;
69.3000;0.5063;0.2130;
69.6000;0.5022;0.1931;
69.9000;0.5055;0.2055;
70.2000;0.5063;0.1981;
70.5000;0.5071;0.1956;
70.8000;0.5079;0.1907;
71.1000;0.5088;0.1857;
71.4000;0.5063;0.1882;
71.7000;0.5112;0.2006;
72.0000;0.5055;0.1907;
72.3000;0.5063;0.1931;
72.6000;0.5071;0.1882;
72.9000;0.5055;0.1956;
73.2000;0.5079;0.1931;
73.5000;0.5088;0.2055;
73.8000;0.5079;0.1931;
74.1000;0.5039;0.1758;
74.4000;0.5096;0.1907;
74.7000;0.5096;0.1956;
75.0000;0.5104;0.1956;
75.3000;0.5088;0.1882;
75.6000;0.5096;0.1832;
75.9000;0.5088;0.1857;
76.2000;0.5104;0.1857;
76.5000;0.5088;0.1783;
76.8000;0.5088;0.1882;
77.1000;0.5104;0.1882;
77.4000;0.5120;0.1956;
77.7000;0.5071;0.1907;
78.0000;0.5096;0.1981;
78.3000;0.5055;0.1956;
78.6000;0.5079;0.1981;
78.9000;0.5079;0.2055;
79.2000;0.5079;0.2105;
79.5000;0.5006;0.1931;
79.8000;0.5096;0.2204;
80.1000;0.5096;0.2229;
80.4000;0.5088;0.2204;
80.7000;0.5104;0.2229;
81.0000;0.5112;0.2179;
81.3000;0.5096;0.2130;
81.6000;0.5096;0.2105;
81.9000;0.5079;0.2006;
82.2000;0.5112;0.2105;
82.5000;0.5088;0.2080;
82.8000;0.5096;0.2031;
83.1000;0.5079;0.2006;
83.4000;0.5096;0.2031;
83.7000;0.5096;0.1981;
84.0000;0.5088;0.1956;
84.3000;0.5120;0.1956;
84.6000;0.5104;0.1956;
84.9000;0.5104;0.1956;
85.2000;0.5112;0.1931;
85.5000;0.5088;0.1857;
85.8000;0.5079;0.1907;
86.1000;0.5104;0.1931;
86.4000;0.5120;0.2080;
86.7000;0.5088;0.2006;
87.0000;0.5104;0.2031;
87.3000;0.5096;0.2006;
87.6000;0.5104;0.2080;
87.9000;0.5104;0.2105;
88.2000;0.5088;0.2055;
88.5000;0.5096;0.2031;
88.8000;0.5112;0.2055;
89.1000;0.5104;0.2105;
89.4000;0.5210;0.2452;
89.7000;0.5096;0.2130;
90.0000;0.5104;0.2179;
90.3000;0.5136;0.2204;
90.6000;0.5104;0.2105;
90.9000;0.5104;0.2031;
91.2000;0.5112;0.2080;
91.5000;0.5136;0.2080;
91.8000;0.5104;0.1981;
92.1000;0.5063;0.1857;
92.4000;0.5039;0.1808;
92.7000;0.5096;0.2006;
93.0000;0.5112;0.2080;
93.3000;0.5104;0.2080;
93.6000;0.5112;0.2055;
93.9000;0.5144;0.2154;
94.2000;0.5112;0.2080;
94.5000;0.5128;0.2130;
94.8000;0.5144;0.2130;
95.1000;0.5104;0.2006;
95.4000;0.5104;0.2080;
95.7000;0.5128;0.2154;
96.0000;0.5112;0.2055;
96.3000;0.5104;0.1981;
96.6000;0.5112;0.2006;
96.9000;0.5120;0.2006;
97.2000;0.5112;0.1981;
97.5000;0.5096;0.1907;
97.8000;0.5120;0.2006;
98.1000;0.5128;0.2080;
98.4000;0.5120;0.2105;
98.7000;0.5096;0.2080;
99.0000;0.5120;0.2204;
99.3000;0.5120;0.2179;
99.6000;0.5153;0.2328;
99.9000;0.5104;0.2179;
100.2000;0.5112;0.2105;
100.5000;0.5104;0.2105;
100.8000;0.5104;0.2204;
101.1000;0.5112;0.2154;
101.4000;0.5088;0.2105;
101.7000;0.5120;0.2204;
102.0000;0.5120;0.2303;
102.3000;0.5088;0.2204;
102.6000;0.5096;0.2229;
102.9000;0.5104;0.2229;
103.2000;0.5120;0.2204;
103.5000;0.5177;0.2253;
103.8000;0.5055;0.1931;
104.1000;0.5104;0.2080;
104.4000;0.5120;0.2105;
104.7000;0.5088;0.2031;
105.0000;0.5096;0.2130;
105.3000;0.5071;0.2006;
105.6000;0.5120;0.1981;
105.9000;0.5112;0.1956;
106.2000;0.5112;0.1931;
106.5000;0.5144;0.2105;
106.8000;0.5112;0.2105;
107.1000;0.5128;0.2080;
107.4000;0.5120;0.2179;
107.7000;0.5120;0.2130;
108.0000;0.5120;0.2130;
108.3000;0.5201;0.2278;
108.6000;0.5088;0.1882;
108.9000;0.5210;0.2204;
109.2000;0.5088;0.1956;
109.5000;0.5234;0.2303;
109.8000;0.5136;0.2080;
110.1000;0.5120;0.2031;
110.4000;0.5169;0.2105;
110.7000;0.5120;0.2080;
111.0000;0.5112;0.2130;
111.3000;0.5096;0.2055;
111.6000;0.5104;0.2179;
111.9000;0.5128;0.2204;
112.2000;0.5144;0.2179;
112.5000;0.5120;0.2031;
112.8000;0.5136;0.2006;
113.1000;0.5136;0.2006;
113.4000;0.5144;0.2031;
113.7000;0.5104;0.1907;
114.0000;0.5096;0.1882;
114.3000;0.5112;0.1956;
114.6000;0.5136;0.2055;
114.9000;0.5136;0.2055;
115.2000;0.5128;0.2031;
115.5000;0.5120;0.1931;
115.8000;0.5136;0.2055;
116.1000;0.5120;0.2006;
116.4000;0.5185;0.2204;
116.7000;0.5120;0.2031;
117.0000;0.5136;0.2179;
117.3000;0.5136;0.2130;
117.6000;0.5128;0.2031;
117.9000;0.5120;0.2031;
118.2000;0.5136;0.2006;
118.5000;0.5071;0.1832;
118.8000;0.5128;0.2006;
119.1000;0.5128;0.2006;
119.4000;0.5112;0.2055;
119.7000;0.5120;0.2154;
120.0000;0.5153;0.2204;
120.3000;0.5128;0.2105;
120.6000;0.5136;0.2229;
120.9000;0.5144;0.2229;
121.2000;0.5144;0.2229;
121.5000;0.5120;0.2154;
121.8000;0.5104;0.2179;
122.1000;0.5104;0.2179;
122.4000;0.5104;0.2253;
122.7000;0.5120;0.2204;
123.0000;0.5096;0.2006;
123.3000;0.5112;0.2105;
123.6000;0.5128;0.2105;
123.9000;0.5144;0.2130;
124.2000;0.5112;0.2031;
124.5000;0.5144;0.2179;
124.8000;0.5128;0.2204;
125.1000;0.5128;0.2154;
125.4000;0.5161;0.2154;
125.7000;0.5153;0.2130;
126.0000;0.5112;0.2031;
126.3000;0.5185;0.2278;
126.6000;0.5153;0.2154;
126.9000;0.5112;0.1956;
127.2000;0.5088;0.1956;
127.5000;0.5144;0.2105;
127.8000;0.5112;0.2105;
128.1000;0.5128;0.2055;
128.4000;0.5136;0.2105;
128.7000;0.5088;0.1882;
129.0000;0.5128;0.2154;
129.3000;0.5144;0.2179;
129.6000;0.5120;0.2080;
129.9000;0.5136;0.2105;
130.2000;0.5136;0.2130;
130.5000;0.5120;0.2055;
130.8000;0.5128;0.2006;
131.1000;0.5136;0.2080;
131.4000;0.5153;0.2204;
131.7000;0.5144;0.2179;
132.0000;0.5120;0.2253;
132.3000;0.5136;0.2204;
132.6000;0.5136;0.2130;
132.9000;0.5120;0.2031;
133.2000;0.5120;0.2006;
133.5000;0.5161;0.2080;
133.8000;0.5153;0.2080;
134.1000;0.5128;0.1981;
134.4000;0.5136;0.1931;
134.7000;0.5136;0.1956;
135.0000;0.5161;0.1956;
135.3000;0.5144;0.1882;
135.6000;0.5144;0.1956;
135.9000;0.5161;0.2080;
136.2000;0.5128;0.2130;
136.5000;0.5104;0.1931;
136.8000;0.5144;0.2130;
137.1000;0.5144;0.2105;
137.4000;0.5128;0.2154;
137.7000;0.5128;0.2229;
138.0000;0.5128;0.2154;
138.3000;0.5120;0.2006;
138.6000;0.5112;0.1956;
138.9000;0.5144;0.2055;
139.2000;0.5136;0.2130;
139.5000;0.5136;0.2130;
139.8000;0.5112;0.2130;
140.1000;0.5120;0.2204;
140.4000;0.5120;0.2179;
140.7000;0.5136;0.2154;
141.0000;0.5112;0.2204;
141.3000;0.5120;0.2253;
141.6000;0.5096;0.2055;
141.9000;0.5144;0.2179;
142.2000;0.5136;0.2105;
142.5000;0.5112;0.2055;
142.8000;0.5136;0.2080;
143.1000;0.5136;0.2105;
143.4000;0.5144;0.2080;
143.7000;0.5136;0.2006;
144.0000;0.5242;0.2253;
144.3000;0.5144;0.2006;
144.6000;0.5128;0.1931;
144.9000;0.5144;0.2006;
145.2000;0.5128;0.1981;
145.5000;0.5144;0.2031;
145.8000;0.5144;0.2105;
146.1000;0.5177;0.2080;
146.4000;0.5112;0.1981;
146.7000;0.5136;0.2055;
147.0000;0.5079;0.1758;
147.3000;0.5112;0.1981;
147.6000;0.5136;0.1882;
147.9000;0.5128;0.1882;
148.2000;0.5144;0.1882;
148.5000;0.5128;0.1931;
148.8000;0.5144;0.1907;
149.1000;0.5177;0.1907;
149.4000;0.5136;0.1857;
149.7000;0.5177;0.2006;
150.0000;0.5128;0.1981;
150.3000;0.5153;0.2006;
150.6000;0.5153;0.2080;
150.9000;0.5144;0.2130;
151.2000;0.5112;0.2055;
151.5000;0.5144;0.2154;
151.8000;0.5128;0.2031;
152.1000;0.5136;0.1956;
152.4000;0.5144;0.1931;
152.7000;0.5144;0.1931;
153.0000;0.5136;0.1931;
153.3000;0.5128;0.1857;
153.6000;0.5144;0.1832;
153.9000;0.5144;0.1857;
154.2000;0.5144;0.1956;
154.5000;0.5153;0.1956;
154.8000;0.5128;0.1907;
155.1000;0.5136;0.1907;
155.4000;0.5136;0.2006;
155.7000;0.5120;0.2031;
156.0000;0.5144;0.2105;
156.3000;0.5144;0.2055;
156.6000;0.5144;0.2154;
156.9000;0.5144;0.2179;
157.2000;0.5144;0.2179;
157.5000;0.5153;0.2204;
157.8000;0.5144;0.2179;
158.1000;0.5136;0.2130;
158.4000;0.5136;0.2080;
158.7000;0.5144;0.2130;
159.0000;0.5161;0.2229;
159.3000;0.5136;0.2229;
159.6000;0.5136;0.2179;
159.9000;0.5153;0.2154;
160.2000;0.5128;0.2130;
160.5000;0.5177;0.2303;
160.8000;0.5136;0.2253;
161.1000;0.5136;0.2253;
161.4000;0.5144;0.2352;
161.7000;0.5112;0.2229;
162.0000;0.5136;0.2130;
162.3000;0.5153;0.2130;
162.6000;0.5128;0.2031;
162.9000;0.5153;0.2006;
163.2000;0.5144;0.1907;
163.5000;0.5144;0.1808;
163.8000;0.5136;0.1832;
164.1000;0.5153;0.1808;
164.4000;0.5128;0.1832;
164.7000;0.5144;0.1956;
165.0000;0.5136;0.2080;
165.3000;0.5193;0.2253;
165.6000;0.5120;0.2055;
165.9000;0.5120;0.2006;
166.2000;0.5120;0.1956;
166.5000;0.5112;0.1832;
166.8000;0.5136;0.1907;
167.1000;0.5136;0.1931;
167.4000;0.5153;0.1956;
167.7000;0.5136;0.1981;
168.0000;0.5104;0.1857;
168.3000;0.5136;0.1981;
168.6000;0.5120;0.1956;
168.9000;0.5177;0.2055;
169.2000;0.5193;0.2055;
169.5000;0.5120;0.1931;
169.8000;0.5144;0.1981;
170.1000;0.5161;0.2055;
170.4000;0.5177;0.2105;
170.7000;0.5128;0.1981;
171.0000;0.5136;0.1882;
171.3000;0.5120;0.1783;
171.6000;0.5153;0.1783;
171.9000;0.5136;0.1733;
172.2000;0.5136;0.1783;
172.5000;0.5136;0.1758;
172.8000;0.5120;0.1709;
173.1000;0.5153;0.1783;
173.4000;0.5144;0.1832;
173.7000;0.5144;0.1882;
174.0000;0.5144;0.1931;
174.3000;0.5177;0.2006;
174.6000;0.5144;0.2031;
174.9000;0.5144;0.1981;
175.2000;0.5144;0.1907;
175.5000;0.5128;0.2006;
175.8000;0.5144;0.2055;
176.1000;0.5128;0.1931;
176.4000;0.5136;0.2006;
176.7000;0.5153;0.1981;
177.0000;0.5144;0.1931;
177.3000;0.5112;0.1832;
177.6000;0.5128;0.1832;
177.9000;0.5144;0.1907;
178.2000;0.5136;0.1832;
178.5000;0.5161;0.1857;
178.8000;0.5153;0.1931;
179.1000;0.5144;0.1882;
179.4000;0.5120;0.1832;
179.7000;0.5136;0.1882;
180.0000;0.5136;0.1907;
180.3000;0.5136;0.1956;
180.6000;0.5153;0.1956;
180.9000;0.5153;0.1907;
181.2000;0.5144;0.1956;
181.5000;0.5161;0.2105;
181.8000;0.5144;0.2006;
182.1000;0.5144;0.2031;
182.4000;0.5136;0.2031;
182.7000;0.5136;0.1981;
183.0000;0.5153;0.1981;
183.3000;0.5144;0.1956;
183.6000;0.5144;0.1907;
183.9000;0.5144;0.1931;
184.2000;0.5153;0.1931;
184.5000;0.5210;0.2080;
184.8000;0.5144;0.2031;
185.1000;0.5128;0.1981;
185.4000;0.5136;0.2006;
185.7000;0.5112;0.1882;
186.0000;0.5153;0.1907;
186.3000;0.5144;0.1857;
186.6000;0.5128;0.1808;
186.9000;0.5136;0.1684;
187.2000;0.5144;0.1659;
187.5000;0.5144;0.1610;
187.8000;0.5039;0.1312;
188.1000;0.5136;0.1585;
188.4000;0.5144;0.1684;
188.7000;0.5144;0.1709;
189.0000;0.5144;0.1758;
189.3000;0.5177;0.1882;
189.6000;0.5210;0.2055;
189.9000;0.5120;0.1832;
190.2000;0.5161;0.2006;
190.5000;0.5153;0.1956;
190.8000;0.5161;0.2031;
191.1000;0.5153;0.1956;
191.4000;0.5144;0.1981;
191.7000;0.5144;0.1882;
192.0000;0.5136;0.1758;
192.3000;0.5153;0.1857;
192.6000;0.5161;0.1882;
192.9000;0.5144;0.1832;
193.2000;0.5128;0.1832;
193.5000;0.5136;0.1857;
193.8000;0.5144;0.1857;
194.1000;0.5136;0.1882;
194.4000;0.5128;0.2031;
194.7000;0.5120;0.1882;
195.0000;0.5153;0.1931;
195.3000;0.5136;0.1832;
195.6000;0.5144;0.1832;
195.9000;0.5136;0.1832;
196.2000;0.5153;0.1857;
196.5000;0.5153;0.1857;
196.8000;0.5201;0.2055;
197.1000;0.5136;0.1981;
197.4000;0.5161;0.2055;
197.7000;0.5136;0.2006;
198.0000;0.5144;0.2055;
198.3000;0.5144;0.2006;
198.6000;0.5136;0.1956;
198.9000;0.5161;0.1931;
199.2000;0.5144;0.1931;
199.5000;0.5153;0.1931;
199.8000;0.5153;0.1832;
200.1000;0.5169;0.1931;
200.4000;0.5185;0.1931;
200.7000;0.5161;0.1832;
201.0000;0.5144;0.1907;
201.3000;0.5161;0.1981;
201.6000;0.5161;0.1981;
201.9000;0.5144;0.2006;
202.2000;0.5153;0.1882;
202.5000;0.5153;0.1857;
202.8000;0.5161;0.1758;
203.1000;0.5153;0.1733;
203.4000;0.5153;0.1783;
203.7000;0.5144;0.1733;
204.0000;0.5153;0.1733;
204.3000;0.5128;0.1634;
204.6000;0.5136;0.1709;
204.9000;0.5136;0.1709;
205.2000;0.5144;0.1808;
205.5000;0.5136;0.1808;
205.8000;0.5128;0.1931;
206.1000;0.5136;0.1882;
206.4000;0.5144;0.1907;
206.7000;0.5144;0.1931;
207.0000;0.5136;0.1931;
207.3000;0.5144;0.2006;
207.6000;0.5153;0.1956;
207.9000;0.5153;0.1931;
208.2000;0.5161;0.1931;
208.5000;0.5153;0.1907;
208.8000;0.5144;0.1907;
209.1000;0.5153;0.1956;
209.4000;0.5128;0.1882;
209.7000;0.5136;0.1907;
210.0000;0.5144;0.1857;
210.3000;0.5161;0.1882;
210.6000;0.5144;0.1857;
210.9000;0.5144;0.1857;
211.2000;0.5144;0.1832;
211.5000;0.5128;0.1832;
211.8000;0.5144;0.1808;
212.1000;0.5161;0.1832;
212.4000;0.5144;0.1832;
212.7000;0.5136;0.1709;
213.0000;0.5153;0.1808;
213.3000;0.5153;0.1783;
213.6000;0.5153;0.1733;
213.9000;0.5144;0.1808;
214.2000;0.5144;0.1783;
214.5000;0.5144;0.1758;
214.8000;0.5144;0.1808;
215.1000;0.5144;0.1857;
215.4000;0.5144;0.1882;
215.7000;0.5136;0.1931;
216.0000;0.5128;0.1931;
216.3000;0.5169;0.2031;
216.6000;0.5153;0.2006;
216.9000;0.5161;0.1931;
217.2000;0.5218;0.2130;
217.5000;0.5136;0.1882;
217.8000;0.5136;0.1857;
218.1000;0.5153;0.1857;
218.4000;0.5153;0.1882;
218.7000;0.5153;0.1832;
219.0000;0.5120;0.1783;
219.3000;0.5161;0.1832;
219.6000;0.5144;0.1758;
219.9000;0.5144;0.1758;
220.2000;0.5185;0.1981;
220.5000;0.5144;0.2031;
220.8000;0.5201;0.2303;
221.1000;0.5120;0.2031;
221.4000;0.5193;0.2328;
221.7000;0.5055;0.1907;
222.0000;0.5153;0.2105;
222.3000;0.5088;0.1857;
222.6000;0.5136;0.1907;
222.9000;0.5136;0.1882;
223.2000;0.5144;0.1931;
223.5000;0.5161;0.2055;
223.8000;0.5161;0.2080;
224.1000;0.5112;0.1981;
224.4000;0.5153;0.2179;
224.7000;0.5153;0.2229;
225.0000;0.5128;0.2154;
225.3000;0.5177;0.2253;
225.6000;0.5136;0.2154;
225.9000;0.5144;0.2130;
226.2000;0.5153;0.2031;
226.5000;0.5153;0.1931;
226.8000;0.5144;0.1956;
227.1000;0.5136;0.1956;
227.4000;0.5153;0.2006;
227.7000;0.5242;0.2253;
228.0000;0.5153;0.2055;
228.3000;0.5161;0.2006;
228.6000;0.5161;0.1956;
228.9000;0.5161;0.1956;
229.2000;0.5144;0.2006;
229.5000;0.5153;0.2006;
229.8000;0.5153;0.2130;
230.1000;0.5161;0.2130;
230.4000;0.5161;0.2130;
230.7000;0.5120;0.1981;
231.0000;0.5161;0.2031;
231.3000;0.5136;0.1981;
231.6000;0.5136;0.2006;
231.9000;0.5112;0.1931;
232.2000;0.5128;0.1981;
232.5000;0.5153;0.1882;
232.8000;0.5153;0.1857;
233.1000;0.5153;0.1956;
233.4000;0.5120;0.1907;
233.7000;0.5144;0.2080;
234.0000;0.5153;0.2055;
234.3000;0.5161;0.2055;
234.6000;0.5144;0.2031;
234.9000;0.5128;0.1981;
235.2000;0.5153;0.2031;
235.5000;0.5153;0.2031;
235.8000;0.5161;0.2080;
236.1000;0.5144;0.2080;
236.4000;0.5161;0.2055;
236.7000;0.5153;0.1931;
237.0000;0.5153;0.1931;
237.3000;0.5161;0.1931;
237.6000;0.5169;0.1956;
237.9000;0.5169;0.2031;
238.2000;0.5210;0.2204;
238.5000;0.5128;0.1882;
238.8000;0.5144;0.1931;
239.1000;0.5169;0.2031;
239.4000;0.5153;0.2031;
239.7000;0.5144;0.2080;
240.0000;0.5071;0.1907;
240.3000;0.5153;0.2154;
240.6000;0.5136;0.2080;
240.9000;0.5153;0.2080;
241.2000;0.5063;0.1808;
241.5000;0.5153;0.1956;
241.8000;0.5136;0.1931;
242.1000;0.5022;0.1758;
242.4000;0.5120;0.1931;
242.7000;0.5120;0.1783;
243.0000;0.5120;0.1832;
243.3000;0.5055;0.1659;
243.6000;0.5144;0.1907;
243.9000;0.5153;0.1907;
244.2000;0.5169;0.1981;
244.5000;0.5104;0.1808;
244.8000;0.5144;0.1832;
245.1000;0.5144;0.1832;
245.4000;0.5144;0.1956;
245.7000;0.5153;0.2006;
246.0000;0.5128;0.2031;
246.3000;0.5128;0.2055;
246.6000;0.5185;0.2105;
246.9000;0.5161;0.2006;
247.2000;0.5161;0.1931;
247.5000;0.5128;0.1907;
247.8000;0.5136;0.1907;
248.1000;0.5112;0.1832;
248.4000;0.5153;0.1907;
248.7000;0.5144;0.1832;
249.0000;0.5144;0.1758;
249.3000;0.5161;0.1808;
249.6000;0.5161;0.1907;
249.9000;0.5144;0.1931;
250.2000;0.5144;0.1981;
250.5000;0.5104;0.1907;
250.8000;0.5063;0.1808;
251.1000;0.5136;0.1981;
251.4000;0.5136;0.1981;
251.7000;0.5161;0.2055;
252.0000;0.5161;0.1956;
252.3000;0.5161;0.1907;
252.6000;0.5153;0.1907;
252.9000;0.5136;0.1832;
253.2000;0.5144;0.1783;
253.5000;0.5153;0.1808;
253.8000;0.5161;0.1832;
254.1000;0.5161;0.1783;
254.4000;0.5153;0.1832;
254.7000;0.5144;0.1931;
255.0000;0.5153;0.1956;
255.3000;0.5136;0.1981;
255.6000;0.5144;0.2055;
255.9000;0.5144;0.2031;
256.2000;0.5153;0.2006;
256.5000;0.5128;0.2031;
256.8000;0.5120;0.2031;
257.1000;0.5161;0.2055;
257.4000;0.5153;0.1956;
257.7000;0.5136;0.1907;
258.0000;0.5161;0.2006;
258.3000;0.5177;0.2105;
258.6000;0.5136;0.2031;
258.9000;0.5144;0.2055;
259.2000;0.5242;0.2352;
259.5000;0.5169;0.2080;
259.8000;0.5153;0.1956;
260.1000;0.5153;0.1956;
260.4000;0.5144;0.2006;
260.7000;0.5153;0.2031;
261.0000;0.5153;0.1956;
261.3000;0.5161;0.2031;
261.6000;0.5153;0.1981;
261.9000;0.5153;0.2055;
262.2000;0.5120;0.1907;
262.5000;0.5153;0.2055;
262.8000;0.5169;0.2130;
263.1000;0.5177;0.2204;
263.4000;0.5153;0.2253;
263.7000;0.5169;0.2278;
264.0000;0.5153;0.2303;
264.3000;0.5112;0.2204;
264.6000;0.5153;0.2204;
264.9000;0.5153;0.2080;
265.2000;0.5153;0.1981;
265.5000;0.5153;0.1907;
265.8000;0.5210;0.1956;
266.1000;0.5169;0.1882;
266.4000;0.5177;0.1981;
266.7000;0.5193;0.2105;
267.0000;0.5153;0.2031;
267.3000;0.5177;0.2154;
267.6000;0.5153;0.2105;
267.9000;0.5177;0.2204;
268.2000;0.5136;0.2006;
268.5000;0.5177;0.2080;
268.8000;0.5161;0.2105;
269.1000;0.5136;0.2105;
269.4000;0.5218;0.2402;
269.7000;0.5136;0.2154;
270.0000;0.5144;0.2006;
270.3000;0.5153;0.2031;
270.6000;0.5144;0.2080;
270.9000;0.5144;0.2055;
271.2000;0.5136;0.2031;
271.5000;0.5153;0.2006;
271.8000;0.5128;0.1956;
272.1000;0.5153;0.2031;
272.4000;0.5169;0.2080;
272.7000;0.5210;0.2179;
273.0000;0.5153;0.2006;
273.3000;0.5153;0.2031;
273.6000;0.5153;0.2080;
273.9000;0.5161;0.2031;
274.2000;0.5153;0.2105;
274.5000;0.5153;0.2130;
274.8000;0.5153;0.2154;
275.1000;0.5169;0.2204;
275.4000;0.5177;0.2130;
275.7000;0.5153;0.2006;
276.0000;0.5144;0.1931;
276.3000;0.5144;0.2006;
276.6000;0.5177;0.2055;
276.9000;0.5136;0.1931;
277.2000;0.5153;0.1956;
277.5000;0.5144;0.2006;
277.8000;0.5169;0.2105;
278.1000;0.5144;0.2080;
278.4000;0.5153;0.2031;
278.7000;0.5153;0.2080;
279.0000;0.5153;0.2154;
279.3000;0.5161;0.2130;
279.6000;0.5153;0.1981;
279.9000;0.5128;0.1907;
280.2000;0.5153;0.1981;
280.5000;0.5136;0.1981;
280.8000;0.5153;0.1931;
281.1000;0.5153;0.1956;
281.4000;0.5136;0.1981;
281.7000;0.5177;0.2105;
282.0000;0.5153;0.1956;
282.3000;0.5169;0.2031;
282.6000;0.5210;0.2080;
282.9000;0.5169;0.1981;
283.2000;0.5161;0.2031;
283.5000;0.5153;0.1981;
283.8000;0.5153;0.1907;
284.1000;0.5161;0.1907;
284.4000;0.5177;0.1931;
284.7000;0.5161;0.1882;
285.0000;0.5112;0.1808;
285.3000;0.5169;0.1882;
285.6000;0.5201;0.1907;
285.9000;0.5161;0.1783;
286.2000;0.5112;0.1758;
286.5000;0.5144;0.1832;
286.8000;0.5169;0.1882;
287.1000;0.5250;0.2055;
287.4000;0.5144;0.1832;
287.7000;0.5234;0.2105;
288.0000;0.5177;0.1931;
288.3000;0.5169;0.2031;
288.6000;0.5153;0.1981;
288.9000;0.5169;0.1956;
289.2000;0.5153;0.1857;
289.5000;0.5161;0.1907;
289.8000;0.5169;0.1882;
290.1000;0.5153;0.1956;
290.4000;0.5185;0.2130;
290.7000;0.5161;0.2130;
291.0000;0.5153;0.2105;
291.3000;0.5144;0.2055;
291.6000;0.5144;0.2031;
291.9000;0.5161;0.2055;
292.2000;0.5161;0.2031;
292.5000;0.5169;0.2031;
292.8000;0.5136;0.1857;
293.1000;0.5136;0.1931;
293.4000;0.5128;0.1907;
293.7000;0.5144;0.1931;
294.0000;0.5128;0.1956;
294.3000;0.5136;0.1981;
294.6000;0.5153;0.1981;
294.9000;0.5153;0.1931;
295.2000;0.5136;0.1882;
295.5000;0.5161;0.1907;
295.8000;0.5144;0.1956;
296.1000;0.5161;0.1931;
296.4000;0.5153;0.1882;
296.7000;0.5161;0.1981;
297.0000;0.5144;0.1956;
297.3000;0.5153;0.1931;
297.6000;0.5161;0.2031;
297.9000;0.5153;0.2031;
298.2000;0.5153;0.2031;
298.5000;0.5169;0.2031;
298.8000;0.5169;0.2055;
299.1000;0.5169;0.1981;
299.4000;0.5234;0.2130;
299.7000;0.5144;0.1956;
300.0000;0.5169;0.2080;
300.3000;0.5169;0.2055;
300.6000;0.5161;0.1907;
300.9000;0.5153;0.1907;
301.2000;0.5169;0.2055;
301.5000;0.5144;0.2006;
301.8000;0.5161;0.2031;
302.1000;0.5161;0.2031;
302.4000;0.5153;0.2006;
302.7000;0.5161;0.2055;
303.0000;0.5177;0.2130;
303.3000;0.5144;0.2080;
303.6000;0.5161;0.2130;
303.9000;0.5144;0.2154;
304.2000;0.5169;0.2179;
304.5000;0.5185;0.2130;
304.8000;0.5161;0.2055;
305.1000;0.5153;0.1981;
305.4000;0.5153;0.2031;
305.7000;0.5161;0.2080;
306.0000;0.5161;0.2105;
306.3000;0.5161;0.2105;
306.6000;0.5169;0.2080;
306.9000;0.5153;0.2154;
307.2000;0.5144;0.2204;
307.5000;0.5161;0.2253;
307.8000;0.5169;0.2229;
308.1000;0.5161;0.2179;
308.4000;0.5136;0.2179;
308.7000;0.5161;0.2105;
309.0000;0.5161;0.2006;
309.3000;0.5120;0.1931;
309.6000;0.5153;0.2130;
309.9000;0.5185;0.2179;
310.2000;0.5136;0.2105;
310.5000;0.5177;0.2204;
310.8000;0.5136;0.2080;
311.1000;0.5161;0.2204;
311.4000;0.5169;0.2204;
311.7000;0.5177;0.2204;
312.0000;0.5144;0.2080;
312.3000;0.5144;0.2080;
312.6000;0.5169;0.2154;
312.9000;0.5153;0.2154;
313.2000;0.5144;0.2154;
313.5000;0.5153;0.2204;
313.8000;0.5161;0.2204;
314.1000;0.5128;0.2154;
314.4000;0.5153;0.2179;
314.7000;0.5136;0.2154;
315.0000;0.5128;0.2179;
315.3000;0.5153;0.2154;
315.6000;0.5153;0.2154;
315.9000;0.5144;0.2130;
316.2000;0.5153;0.2179;
316.5000;0.5210;0.2303;
316.8000;0.5104;0.2105;
317.1000;0.5161;0.2278;
317.4000;0.5144;0.2253;
317.7000;0.5096;0.2031;
318.0000;0.5153;0.2154;
318.3000;0.5144;0.2204;
318.6000;0.5153;0.2253;
318.9000;0.5128;0.2204;
319.2000;0.5144;0.2204;
319.5000;0.5161;0.2179;
319.8000;0.5161;0.2080;
320.1000;0.5136;0.2031;
320.4000;0.5153;0.2006;
320.7000;0.5136;0.1907;
321.0000;0.5161;0.1956;
321.3000;0.5161;0.1956;
321.6000;0.5169;0.1956;
321.9000;0.5161;0.1931;
322.2000;0.5144;0.1931;
322.5000;0.5153;0.1857;
322.8000;0.5161;0.1882;
323.1000;0.5161;0.1907;
323.4000;0.5120;0.1931;
323.7000;0.5153;0.2006;
324.0000;0.5177;0.2055;
324.3000;0.5153;0.1907;
324.6000;0.5169;0.1882;
324.9000;0.5153;0.1882;
325.2000;0.5144;0.1882;
325.5000;0.5153;0.1931;
325.8000;0.5112;0.1832;
326.1000;0.5153;0.1882;
326.4000;0.5153;0.1882;
326.7000;0.5136;0.1733;
327.0000;0.5153;0.1808;
327.3000;0.5153;0.1857;
327.6000;0.5161;0.1857;
327.9000;0.5153;0.1907;
328.2000;0.5161;0.2006;
328.5000;0.5161;0.2006;
328.8000;0.5161;0.1981;
329.1000;0.5153;0.1882;
329.4000;0.5210;0.1981;
329.7000;0.5153;0.1808;
330.0000;0.5153;0.1882;
330.3000;0.5169;0.1907;
330.6000;0.5153;0.1931;
330.9000;0.5161;0.1956;
331.2000;0.5161;0.1981;
331.5000;0.5185;0.2055;
331.8000;0.5136;0.2055;
332.1000;0.5177;0.2130;
332.4000;0.5193;0.2055;
332.7000;0.5161;0.2055;
333.0000;0.5153;0.2031;
333.3000;0.5234;0.2253;
333.6000;0.5144;0.2055;
333.9000;0.5185;0.2080;
334.2000;0.5128;0.1981;
334.5000;0.5144;0.1931;
334.8000;0.5177;0.2006;
335.1000;0.5120;0.1808;
335.4000;0.5144;0.1907;
335.7000;0.5177;0.1981;
336.0000;0.5153;0.1981;
336.3000;0.5161;0.1981;
336.6000;0.5201;0.2105;
336.9000;0.5161;0.2031;
337.2000;0.5193;0.2031;
337.5000;0.5177;0.1907;
337.8000;0.5104;0.1709;
338.1000;0.5169;0.1882;
338.4000;0.5153;0.1857;
338.7000;0.5177;0.1981;
339.0000;0.5153;0.1931;
339.3000;0.5112;0.1832;
339.6000;0.5185;0.1931;
339.9000;0.5144;0.1832;
340.2000;0.5144;0.1907;
340.5000;0.5120;0.1808;
340.8000;0.5144;0.1931;
341.1000;0.5112;0.1907;
341.4000;0.5144;0.1981;
341.7000;0.5153;0.2055;
342.0000;0.5153;0.2055;
342.3000;0.5153;0.2080;
342.6000;0.5136;0.1931;
342.9000;0.5169;0.1956;
343.2000;0.5153;0.1907;
343.5000;0.5128;0.1808;
343.8000;0.5161;0.1931;
344.1000;0.5169;0.1981;
344.4000;0.5153;0.2006;
344.7000;0.5144;0.1956;
345.0000;0.5153;0.1907;
345.3000;0.5169;0.1931;
345.6000;0.5153;0.1981;
345.9000;0.5161;0.2130;
346.2000;0.5161;0.2105;
346.5000;0.5153;0.2031;
346.8000;0.5185;0.2055;
347.1000;0.5153;0.1956;
347.4000;0.5161;0.2055;
347.7000;0.5193;0.2080;
348.0000;0.5161;0.2055;
348.3000;0.5161;0.2055;
348.6000;0.5153;0.1956;
348.9000;0.5161;0.1907;
349.2000;0.5153;0.1931;
349.5000;0.5161;0.1931;
349.8000;0.5185;0.1882;
350.1000;0.5153;0.1882;
350.4000;0.5169;0.1907;
350.7000;0.5104;0.1758;
351.0000;0.5153;0.1857;
351.3000;0.5210;0.2006;
351.6000;0.5161;0.1832;
351.9000;0.5177;0.1882;
352.2000;0.5169;0.1857;
352.5000;0.5153;0.1931;
352.8000;0.5120;0.1907;
353.1000;0.5144;0.1931;
353.4000;0.5136;0.1907;
353.7000;0.5128;0.1956;
354.0000;0.5144;0.2031;
354.3000;0.5136;0.2031;
354.6000;0.5128;0.1931;
354.9000;0.5144;0.1907;
355.2000;0.5161;0.1931;
355.5000;0.5079;0.1659;
355.8000;0.5144;0.1956;
356.1000;0.5210;0.2130;
356.4000;0.5169;0.2080;
356.7000;0.5144;0.1981;
357.0000;0.5161;0.2006;
357.3000;0.5169;0.2031;
357.6000;0.5161;0.2105;
357.9000;0.5153;0.2105;
358.2000;0.5161;0.2105;
358.5000;0.5136;0.2031;
358.8000;0.5153;0.2006;
359.1000;0.5055;0.1783;
359.4000;0.5153;0.2055;
359.7000;0.5169;0.2080;
360.0000;0.5161;0.2006;
360.3000;0.5177;0.2006;
360.6000;0.5169;0.1981;
360.9000;0.5153;0.1931;
361.2000;0.5201;0.2031;
361.5000;0.5161;0.1857;
361.8000;0.5161;0.1857;
362.1000;0.5112;0.1783;
362.4000;0.5153;0.1907;
362.7000;0.5161;0.1857;
363.0000;0.5161;0.1882;
363.3000;0.5104;0.1634;
363.6000;0.5153;0.1684;
363.9000;0.5136;0.1634;
364.2000;0.5153;0.1709;
364.5000;0.5104;0.1610;
364.8000;0.5161;0.1684;
365.1000;0.5144;0.1733;
365.4000;0.5161;0.1907;
365.7000;0.5169;0.1981;
366.0000;0.5169;0.2031;
366.3000;0.5161;0.2080;
366.6000;0.5144;0.2130;
366.9000;0.5161;0.2154;
367.2000;0.5169;0.2080;
367.5000;0.5153;0.2031;
367.8000;0.5161;0.2031;
368.1000;0.5169;0.1981;
368.4000;0.5161;0.2006;
368.7000;0.5161;0.2080;
369.0000;0.5144;0.2154;
369.3000;0.5169;0.2154;
369.6000;0.5177;0.2130;
369.9000;0.5161;0.2055;
370.2000;0.5169;0.2080;
370.5000;0.5161;0.1981;
370.8000;0.5161;0.2031;
371.1000;0.5161;0.2031;
371.4000;0.5071;0.1783;
371.7000;0.5169;0.2006;
372.0000;0.5177;0.2080;
372.3000;0.5177;0.2031;
372.6000;0.5169;0.2105;
372.9000;0.5153;0.2031;
373.2000;0.5161;0.2006;
373.5000;0.5185;0.2006;
373.8000;0.5161;0.2031;
374.1000;0.5177;0.2080;
374.4000;0.5144;0.1981;
374.7000;0.5128;0.2006;
375.0000;0.5144;0.2105;
375.3000;0.5153;0.2105;
375.6000;0.5144;0.1882;
375.9000;0.5144;0.1907;
376.2000;0.5128;0.1832;
376.5000;0.5153;0.1857;
376.8000;0.5153;0.1832;
377.1000;0.5161;0.1808;
377.4000;0.5153;0.1832;
377.7000;0.5120;0.1808;
378.0000;0.5169;0.1931;
378.3000;0.5144;0.1907;
378.6000;0.5161;0.1956;
378.9000;0.5144;0.1907;
379.2000;0.5144;0.1907;
379.5000;0.5112;0.1808;
379.8000;0.5144;0.1882;
380.1000;0.5161;0.1907;
380.4000;0.5201;0.2055;
380.7000;0.5112;0.1733;
381.0000;0.5079;0.1684;
381.3000;0.5144;0.1931;
381.6000;0.5153;0.1931;
381.9000;0.5161;0.1857;
382.2000;0.5128;0.1832;
382.5000;0.5153;0.1907;
382.8000;0.5177;0.2080;
383.1000;0.5120;0.1981;
383.4000;0.5128;0.1956;
383.7000;0.5153;0.2080;
384.0000;0.5161;0.2204;
384.3000;0.5161;0.2179;
384.6000;0.5161;0.2130;
384.9000;0.5153;0.2055;
385.2000;0.5177;0.2130;
385.5000;0.5144;0.2031;
385.8000;0.5153;0.1981;
386.1000;0.5153;0.1981;
386.4000;0.5153;0.1956;
386.7000;0.5153;0.1907;
387.0000;0.5136;0.1832;
387.3000;0.5153;0.1832;
387.6000;0.5161;0.1808;
387.9000;0.5144;0.1808;
388.2000;0.5153;0.1857;
388.5000;0.5120;0.1733;
388.8000;0.5153;0.1733;
389.1000;0.5169;0.1733;
389.4000;0.5144;0.1758;
389.7000;0.5144;0.1808;
390.0000;0.5161;0.1857;
390.3000;0.5144;0.1857;
390.6000;0.5177;0.1882;
390.9000;0.5161;0.1857;
391.2000;0.5144;0.1857;
391.5000;0.5153;0.1956;
391.8000;0.5153;0.2031;
392.1000;0.5136;0.2031;
392.4000;0.5136;0.2055;
392.7000;0.5153;0.2031;
393.0000;0.5161;0.2080;
393.3000;0.5153;0.2130;
393.6000;0.5169;0.2154;
393.9000;0.5161;0.2105;
394.2000;0.5177;0.2006;
394.5000;0.5177;0.1956;
394.8000;0.5161;0.1956;
395.1000;0.5161;0.2006;
395.4000;0.5161;0.2031;
395.7000;0.5161;0.1981;
396.0000;0.5144;0.1956;
396.3000;0.5153;0.1931;
396.6000;0.5177;0.2031;
396.9000;0.5161;0.1981;
397.2000;0.5161;0.1882;
397.5000;0.5153;0.1857;
397.8000;0.5161;0.1931;
398.1000;0.5153;0.1832;
398.4000;0.5144;0.1832;
398.7000;0.5144;0.1857;
399.0000;0.5161;0.1956;
399.3000;0.5177;0.1931;
399.6000;0.5161;0.1931;
399.9000;0.5104;0.1709;
400.2000;0.5161;0.1931;
400.5000;0.5177;0.1931;
400.8000;0.5169;0.1882;
401.1000;0.5144;0.1857;
401.4000;0.5153;0.1931;
401.7000;0.5144;0.2031;
402.0000;0.5144;0.2080;
402.3000;0.5169;0.2080;
402.6000;0.5161;0.2105;
402.9000;0.5144;0.2130;
403.2000;0.5169;0.2154;
403.5000;0.5161;0.2031;
403.8000;0.5144;0.1981;
404.1000;0.5144;0.1981;
404.4000;0.5144;0.1907;
404.7000;0.5226;0.2130;
405.0000;0.5169;0.2006;
405.3000;0.5177;0.1956;
405.6000;0.5169;0.1882;
405.9000;0.5161;0.1758;
406.2000;0.5161;0.1709;
406.5000;0.5144;0.1659;
406.8000;0.5161;0.1758;
407.1000;0.5128;0.1659;
407.4000;0.5177;0.1783;
407.7000;0.5153;0.1783;
408.0000;0.5153;0.1808;
408.3000;0.5177;0.1907;
408.6000;0.5153;0.1832;
408.9000;0.5169;0.1857;
409.2000;0.5169;0.1931;
409.5000;0.5201;0.2055;
409.8000;0.5120;0.1857;
410.1000;0.5177;0.2105;
410.4000;0.5201;0.2154;
410.7000;0.5185;0.2130;
411.0000;0.5153;0.2130;
411.3000;0.5153;0.2055;
411.6000;0.5136;0.2055;
411.9000;0.5128;0.2105;
412.2000;0.5153;0.2105;
412.5000;0.5136;0.1931;
412.8000;0.5153;0.1981;
413.1000;0.5136;0.1931;
413.4000;0.5177;0.2031;
413.7000;0.5161;0.2006;
414.0000;0.5153;0.1981;
414.3000;0.5153;0.2031;
414.6000;0.5144;0.2105;
414.9000;0.5153;0.2154;
415.2000;0.5161;0.2154;
415.5000;0.5185;0.2179;
415.8000;0.5169;0.2105;
416.1000;0.5185;0.2080;
416.4000;0.5177;0.1956;
416.7000;0.5161;0.1857;
417.0000;0.5161;0.1857;
417.3000;0.5161;0.1907;
417.6000;0.5169;0.1956;
417.9000;0.5161;0.1931;
418.2000;0.5144;0.1882;
418.5000;0.5201;0.2055;
418.8000;0.5153;0.1981;
419.1000;0.5153;0.1931;
419.4000;0.5161;0.1882;
419.7000;0.5153;0.1931;
420.0000;0.5161;0.1956;
420.3000;0.5153;0.1907;
420.6000;0.5088;0.1659;
420.9000;0.5153;0.1882;
421.2000;0.5169;0.2006;
421.5000;0.5144;0.2080;
421.8000;0.5169;0.2105;
422.1000;0.5161;0.2105;
422.4000;0.5161;0.2006;
422.7000;0.5177;0.2006;
423.0000;0.5104;0.1783;
423.3000;0.5144;0.1808;
423.6000;0.5177;0.1857;
423.9000;0.5169;0.1832;
424.2000;0.5153;0.1783;
424.5000;0.5169;0.1783;
424.8000;0.5169;0.1758;
425.1000;0.5169;0.1783;
425.4000;0.5177;0.1783;
425.7000;0.5161;0.1832;
426.0000;0.5153;0.1783;
426.3000;0.5153;0.1857;
426.6000;0.5153;0.1931;
426.9000;0.5185;0.2006;
427.2000;0.5193;0.1956;
427.5000;0.5161;0.1832;
427.8000;0.5161;0.1882;
428.1000;0.5031;0.1486;
428.4000;0.5128;0.1832;
428.7000;0.5136;0.1808;
429.0000;0.5112;0.1832;
429.3000;0.5136;0.1907;
429.6000;0.5161;0.1882;
429.9000;0.5161;0.1907;
430.2000;0.5153;0.1981;
430.5000;0.5153;0.2006;
430.8000;0.5144;0.1981;
431.1000;0.5169;0.1956;
431.4000;0.5161;0.2055;
431.7000;0.5112;0.1857;
432.0000;0.5161;0.2006;
432.3000;0.5193;0.2080;
432.6000;0.5185;0.1981;
432.9000;0.5120;0.1882;
433.2000;0.5185;0.1981;
433.5000;0.5112;0.1758;
433.8000;0.5193;0.1981;
434.1000;0.5055;0.1610;
434.4000;0.5161;0.1907;
434.7000;0.5120;0.1783;
435.0000;0.5153;0.1783;
435.3000;0.5153;0.1832;
435.6000;0.5161;0.1882;
435.9000;0.5161;0.1981;
436.2000;0.5136;0.1931;
436.5000;0.5120;0.1956;
436.8000;0.5161;0.2031;
437.1000;0.5161;0.1956;
437.4000;0.5185;0.1931;
437.7000;0.5144;0.1857;
438.0000;0.5169;0.1857;
438.3000;0.5169;0.1857;
438.6000;0.5177;0.1981;
438.9000;0.5161;0.1931;
439.2000;0.5169;0.1981;
439.5000;0.5169;0.2006;
439.8000;0.5169;0.2080;
440.1000;0.5169;0.2055;
440.4000;0.5153;0.2006;
440.7000;0.5169;0.2055;
441.0000;0.5161;0.1981;
441.3000;0.5169;0.1907;
441.6000;0.5120;0.1832;
441.9000;0.5177;0.1882;
442.2000;0.5177;0.1882;
442.5000;0.5193;0.1956;
442.8000;0.5161;0.2006;
443.1000;0.5153;0.1981;
443.4000;0.5169;0.2055;
443.7000;0.5169;0.2031;
444.0000;0.5153;0.2006;
444.3000;0.5177;0.2055;
444.6000;0.5169;0.1931;
444.9000;0.5161;0.1931;
445.2000;0.5153;0.1956;
445.5000;0.5153;0.1931;
445.8000;0.5153;0.1882;
446.1000;0.5161;0.1931;
446.4000;0.5144;0.1931;
446.7000;0.5128;0.1808;
447.0000;0.5153;0.1857;
447.3000;0.5177;0.1907;
447.6000;0.5153;0.1857;
447.9000;0.5128;0.1832;
448.2000;0.5177;0.1857;
448.5000;0.5153;0.1808;
448.8000;0.5153;0.1857;
449.1000;0.5128;0.1832;
449.4000;0.5161;0.1832;
449.7000;0.5096;0.1634;
450.0000;0.5144;0.1808;
450.3000;0.5136;0.1783;
450.6000;0.5079;0.1585;
450.9000;0.5153;0.1808;
451.2000;0.5161;0.1907;
451.5000;0.5153;0.1758;
451.8000;0.5153;0.1758;
452.1000;0.5153;0.1733;
452.4000;0.5201;0.1857;
452.7000;0.5161;0.1733;
453.0000;0.5112;0.1659;
453.3000;0.5136;0.1684;
453.6000;0.5128;0.1684;
453.9000;0.5161;0.1709;
454.2000;0.5120;0.1709;
454.5000;0.5144;0.1733;
454.8000;0.5193;0.1709;
455.1000;0.5210;0.1684;
455.4000;0.5169;0.1610;
455.7000;0.5177;0.1709;
456.0000;0.5153;0.1634;
456.3000;0.5177;0.1684;
456.6000;0.5153;0.1709;
456.9000;0.5144;0.1709;
457.2000;0.5144;0.1758;
457.5000;0.5120;0.1808;
457.8000;0.5120;0.1783;
458.1000;0.5112;0.1659;
458.4000;0.5144;0.1684;
458.7000;0.5201;0.1758;
459.0000;0.5153;0.1634;
459.3000;0.5161;0.1535;
459.6000;0.5161;0.1511;
459.9000;0.5169;0.1511;
460.2000;0.5144;0.1511;
460.5000;0.5169;0.1560;
460.8000;0.5153;0.1610;
461.1000;0.5161;0.1659;
461.4000;0.5153;0.1560;
461.7000;0.5161;0.1535;
462.0000;0.5161;0.1585;
462.3000;0.5144;0.1585;
462.6000;0.5185;0.1758;
462.9000;0.5177;0.1709;
463.2000;0.5161;0.1659;
463.5000;0.5161;0.1634;
463.8000;0.5153;0.1709;
464.1000;0.5185;0.1832;
464.4000;0.5161;0.1659;
464.7000;0.5169;0.1634;
465.0000;0.5185;0.1634;
465.3000;0.5177;0.1560;
465.6000;0.5185;0.1659;
465.9000;0.5169;0.1684;
466.2000;0.5153;0.1634;
466.5000;0.5161;0.1634;
466.8000;0.5185;0.1684;
467.1000;0.5153;0.1634;
467.4000;0.5161;0.1535;
467.7000;0.5169;0.1486;
468.0000;0.5169;0.1486;
468.3000;0.5144;0.1511;
468.6000;0.5161;0.1486;
468.9000;0.5242;0.1783;
469.2000;0.5169;0.1659;
469.5000;0.5153;0.1585;
469.8000;0.5153;0.1511;
470.1000;0.5169;0.1535;
470.4000;0.5169;0.1535;
470.7000;0.5218;0.1634;
471.0000;0.5153;0.1486;
471.3000;0.5128;0.1436;
471.6000;0.5193;0.1560;
471.9000;0.5185;0.1511;
472.2000;0.5169;0.1436;
472.5000;0.5169;0.1411;
472.8000;0.5169;0.1511;
473.1000;0.5169;0.1610;
473.4000;0.5153;0.1610;
473.7000;0.5063;0.1387;
474.0000;0.5144;0.1634;
474.3000;0.5153;0.1634;
474.6000;0.5177;0.1684;
474.9000;0.5153;0.1610;
475.2000;0.5144;0.1535;
475.5000;0.5153;0.1610;
475.8000;0.5144;0.1585;
476.1000;0.5153;0.1610;
476.4000;0.5185;0.1659;
476.7000;0.5161;0.1535;
477.0000;0.5169;0.1560;
477.3000;0.5153;0.1560;
477.6000;0.5144;0.1560;
477.9000;0.5144;0.1560;
478.2000;0.5153;0.1634;
478.5000;0.5153;0.1560;
478.8000;0.5144;0.1535;
479.1000;0.5144;0.1585;
479.4000;0.5177;0.1634;
479.7000;0.5161;0.1585;
480.0000;0.5144;0.1535;
480.3000;0.5136;0.1535;
480.6000;0.5153;0.1634;
480.9000;0.5161;0.1783;
481.2000;0.5128;0.1733;
481.5000;0.5161;0.1882;
481.8000;0.5153;0.2006;
482.1000;0.5161;0.2006;
482.4000;0.5136;0.1931;
482.7000;0.5153;0.1956;
483.0000;0.5144;0.1907;
483.3000;0.5161;0.1882;
483.6000;0.5161;0.1882;
483.9000;0.5161;0.1808;
484.2000;0.5136;0.1808;
484.5000;0.5128;0.1857;
484.8000;0.5144;0.1907;
485.1000;0.5104;0.1956;
485.4000;0.5177;0.2130;
485.7000;0.5144;0.1956;
486.0000;0.5169;0.1931;
486.3000;0.5136;0.1758;
486.6000;0.5210;0.1882;
486.9000;0.5161;0.1783;
487.2000;0.5169;0.1857;
487.5000;0.5169;0.1783;
487.8000;0.5153;0.1709;
488.1000;0.5153;0.1709;
488.4000;0.5136;0.1733;
488.7000;0.5136;0.1659;
489.0000;0.5144;0.1709;
489.3000;0.5161;0.1733;
489.6000;0.5161;0.1758;
489.9000;0.5153;0.1758;
490.2000;0.5177;0.1832;
490.5000;0.5136;0.1684;
490.8000;0.5161;0.1758;
491.1000;0.5153;0.1857;
491.4000;0.5169;0.1832;
491.7000;0.5169;0.1857;
492.0000;0.5088;0.1709;
492.3000;0.5153;0.1907;
492.6000;0.5153;0.1907;
492.9000;0.5153;0.1857;
493.2000;0.5153;0.1832;
493.5000;0.5169;0.1882;
493.8000;0.5153;0.1931;
494.1000;0.5169;0.1956;
494.4000;0.5177;0.2031;
494.7000;0.5161;0.1981;
495.0000;0.5144;0.1931;
495.3000;0.5169;0.2006;
495.6000;0.5104;0.1808;
495.9000;0.5144;0.1857;
496.2000;0.5169;0.1956;
496.5000;0.5153;0.1907;
496.8000;0.5161;0.1882;
497.1000;0.5153;0.1882;
497.4000;0.5177;0.1808;
497.7000;0.5218;0.1882;
498.0000;0.5153;0.1808;
498.3000;0.5161;0.1808;
498.6000;0.5079;0.1709;
498.9000;0.5144;0.1981;
499.2000;0.5185;0.2055;
499.5000;0.5153;0.1907;
499.8000;0.5161;0.1956;
500.1000;0.5153;0.1907;
500.4000;0.5169;0.1931;
500.7000;0.5144;0.1981;
501.0000;0.5177;0.1956;
501.3000;0.5153;0.1981;
501.6000;0.5144;0.1931;
501.9000;0.5161;0.2006;
502.2000;0.5153;0.1981;
502.5000;0.5177;0.2006;
502.8000;0.5153;0.1857;
503.1000;0.5161;0.1808;
503.4000;0.5153;0.1783;
503.7000;0.5153;0.1832;
504.0000;0.5153;0.1882;
504.3000;0.5169;0.1931;
504.6000;0.5169;0.1907;
504.9000;0.5136;0.1882;
505.2000;0.5144;0.1907;
505.5000;0.5169;0.1956;
505.8000;0.5153;0.1882;
506.1000;0.5161;0.1857;
506.4000;0.5161;0.1931;
506.7000;0.5153;0.1882;
507.0000;0.5161;0.1931;
507.3000;0.5153;0.1956;
507.6000;0.5161;0.1931;
507.9000;0.5169;0.1956;
508.2000;0.5169;0.1907;
508.5000;0.5161;0.1981;
508.8000;0.5104;0.1832;
509.1000;0.5153;0.1956;
509.4000;0.5153;0.1931;
509.7000;0.5161;0.1981;
510.0000;0.5242;0.2130;
510.3000;0.5161;0.1931;
510.6000;0.5136;0.2006;
510.9000;0.5144;0.1956;
511.2000;0.5144;0.2006;
511.5000;0.5193;0.2080;
511.8000;0.5144;0.1907;
512.1000;0.5161;0.1931;
512.4000;0.5128;0.1907;
512.7000;0.5136;0.1882;
513.0000;0.5161;0.1956;
513.3000;0.5161;0.1907;
513.6000;0.5161;0.1981;
513.9000;0.5161;0.1956;
514.2000;0.5177;0.1981;
514.5000;0.5169;0.1931;
514.8000;0.5161;0.1857;
515.1000;0.5144;0.1857;
515.4000;0.5088;0.1684;
515.7000;0.5161;0.1832;
516.0000;0.5153;0.1857;
516.3000;0.5161;0.1882;
516.6000;0.5250;0.2055;
516.9000;0.5153;0.1808;
517.2000;0.5201;0.1931;
517.5000;0.5153;0.1684;
517.8000;0.5161;0.1684;
518.1000;0.5144;0.1783;
518.4000;0.5161;0.1758;
518.7000;0.5177;0.1758;
519.0000;0.5161;0.1684;
519.3000;0.5161;0.1684;
519.6000;0.5153;0.1684;
519.9000;0.5153;0.1610;
520.2000;0.5234;0.1832;
520.5000;0.5144;0.1684;
520.8000;0.5153;0.1783;
521.1000;0.5144;0.1832;
521.4000;0.5128;0.1783;
521.7000;0.5169;0.1808;
522.0000;0.5161;0.1832;
522.3000;0.5153;0.1709;
522.6000;0.5153;0.1733;
522.9000;0.5144;0.1733;
523.2000;0.5153;0.1808;
523.5000;0.5153;0.1733;
523.8000;0.5193;0.1758;
524.1000;0.5161;0.1709;
524.4000;0.5153;0.1709;
524.7000;0.5153;0.1709;
525.0000;0.5177;0.1808;
525.3000;0.5153;0.1758;
525.6000;0.5153;0.1758;
525.9000;0.5153;0.1808;
526.2000;0.5161;0.1857;
526.5000;0.5153;0.1956;
526.8000;0.5153;0.1981;
527.1000;0.5144;0.1956;
527.4000;0.5153;0.1981;
527.7000;0.5136;0.1931;
528.0000;0.5153;0.1956;
528.3000;0.5104;0.1857;
528.6000;0.5161;0.1931;
528.9000;0.5169;0.2006;
529.2000;0.5144;0.1931;
529.5000;0.5161;0.1907;
529.8000;0.5161;0.1907;
530.1000;0.5144;0.1783;
530.4000;0.5185;0.1907;
530.7000;0.5153;0.1857;
531.0000;0.5153;0.1907;
531.3000;0.5169;0.1931;
531.6000;0.5177;0.1956;
531.9000;0.5161;0.1956;
532.2000;0.5161;0.1882;
532.5000;0.5144;0.1857;
532.8000;0.5153;0.1857;
533.1000;0.5144;0.1832;
533.4000;0.5144;0.1857;
533.7000;0.5169;0.1857;
534.0000;0.5169;0.1931;
534.3000;0.5169;0.1857;
534.6000;0.5153;0.1808;
534.9000;0.5169;0.1931;
535.2000;0.5144;0.1981;
535.5000;0.5161;0.1981;
535.8000;0.5144;0.1956;
536.1000;0.5218;0.2229;
536.4000;0.5144;0.2055;
536.7000;0.5161;0.2080;
537.0000;0.5144;0.2080;
537.3000;0.5153;0.2055;
537.6000;0.5153;0.2006;
537.9000;0.5169;0.1981;
538.2000;0.5161;0.1907;
538.5000;0.5144;0.1857;
538.8000;0.5161;0.1857;
539.1000;0.5153;0.1832;
539.4000;0.5161;0.1931;
539.7000;0.5144;0.1907;
540.0000;0.5096;0.1758;
540.3000;0.5144;0.1857;
540.6000;0.5161;0.1956;
540.9000;0.5161;0.1956;
541.2000;0.5161;0.1931;
541.5000;0.5161;0.1956;
541.8000;0.5177;0.2006;
542.1000;0.5161;0.1981;
542.4000;0.5136;0.1956;
542.7000;0.5104;0.1907;
543.0000;0.5161;0.2006;
543.3000;0.5144;0.1956;
543.6000;0.5161;0.1956;
543.9000;0.5136;0.1956;
544.2000;0.5193;0.2055;
544.5000;0.5177;0.2055;
544.8000;0.5153;0.1981;
545.1000;0.5136;0.2031;
545.4000;0.5153;0.2105;
545.7000;0.5153;0.2229;
546.0000;0.5193;0.2303;
546.3000;0.5144;0.2204;
546.6000;0.5153;0.2229;
546.9000;0.5153;0.2328;
547.2000;0.5185;0.2377;
547.5000;0.5144;0.2328;
547.8000;0.5144;0.2328;
548.1000;0.5177;0.2377;
548.4000;0.5128;0.2253;
548.7000;0.5218;0.2452;
549.0000;0.5144;0.2278;
549.3000;0.5193;0.2352;
549.6000;0.5161;0.2229;
549.9000;0.5161;0.2229;
550.2000;0.5153;0.2204;
550.5000;0.5153;0.2229;
550.8000;0.5144;0.2253;
551.1000;0.5153;0.2253;
551.4000;0.5153;0.2154;
551.7000;0.5161;0.2105;
552.0000;0.5161;0.2130;
552.3000;0.5169;0.2080;
552.6000;0.5136;0.1956;
552.9000;0.5169;0.2055;
553.2000;0.5169;0.2031;
553.5000;0.5153;0.1931;
553.8000;0.5161;0.2006;
554.1000;0.5161;0.2055;
554.4000;0.5161;0.1981;
554.7000;0.5169;0.1981;
555.0000;0.5161;0.1981;
555.3000;0.5153;0.1907;
555.6000;0.5161;0.1857;
555.9000;0.5136;0.1832;
556.2000;0.5153;0.1758;
556.5000;0.5177;0.1808;
556.8000;0.5136;0.1709;
557.1000;0.5153;0.1783;
557.4000;0.5153;0.1733;
557.7000;0.5153;0.1733;
558.0000;0.5153;0.1684;
558.3000;0.5161;0.1684;
558.6000;0.5177;0.1758;
558.9000;0.5169;0.1783;
559.2000;0.5185;0.1758;
559.5000;0.5161;0.1783;
559.8000;0.5169;0.1783;
560.1000;0.5169;0.1857;
560.4000;0.5169;0.1808;
560.7000;0.5153;0.1808;
561.0000;0.5161;0.1857;
561.3000;0.5153;0.1907;
561.6000;0.5161;0.1882;
561.9000;0.5153;0.1882;
562.2000;0.5169;0.2006;
562.5000;0.5153;0.1832;
562.8000;0.5144;0.1808;
563.1000;0.5169;0.1857;
563.4000;0.5153;0.1882;
563.7000;0.5136;0.1783;
564.0000;0.5144;0.1758;
564.3000;0.5169;0.1857;
564.6000;0.5153;0.1907;
564.9000;0.5169;0.1981;
565.2000;0.5153;0.1981;
565.5000;0.5161;0.2055;
565.8000;0.5161;0.2055;
566.1000;0.5161;0.1981;
566.4000;0.5218;0.2179;
566.7000;0.5153;0.1956;
567.0000;0.5153;0.1882;
567.3000;0.5161;0.1931;
567.6000;0.5210;0.2105;
567.9000;0.5169;0.2031;
568.2000;0.5055;0.1634;
568.5000;0.5161;0.1931;
568.8000;0.5161;0.1882;
569.1000;0.5177;0.1882;
569.4000;0.5161;0.1832;
569.7000;0.5144;0.1907;
570.0000;0.5169;0.1956;
570.3000;0.5177;0.1931;
570.6000;0.5153;0.1931;
570.9000;0.5144;0.1857;
571.2000;0.5136;0.1808;
571.5000;0.5153;0.1808;
571.8000;0.5153;0.1882;
572.1000;0.5153;0.1882;
572.4000;0.5144;0.1981;
572.7000;0.5161;0.2080;
573.0000;0.5128;0.2055;
573.3000;0.5153;0.2006;
573.6000;0.5161;0.1956;
573.9000;0.5169;0.2031;
574.2000;0.5153;0.2006;
574.5000;0.5144;0.2006;
574.8000;0.5153;0.2055;
575.1000;0.5153;0.2080;
575.4000;0.5153;0.2080;
575.7000;0.5177;0.2154;
576.0000;0.5120;0.2031;
576.3000;0.5218;0.2278;
576.6000;0.5153;0.2006;
576.9000;0.5144;0.1832;
577.2000;0.5153;0.1832;
577.5000;0.5161;0.1882;
577.8000;0.5144;0.1857;
578.1000;0.5153;0.1931;
578.4000;0.5153;0.1981;
578.7000;0.5161;0.1981;
579.0000;0.5177;0.2055;
579.3000;0.5153;0.1956;
579.6000;0.5153;0.1907;
579.9000;0.5161;0.1931;
580.2000;0.5177;0.2006;
580.5000;0.5161;0.1931;
580.8000;0.5161;0.1907;
581.1000;0.5153;0.1956;
581.4000;0.5153;0.1956;
581.7000;0.5136;0.1931;
582.0000;0.5144;0.1907;
582.3000;0.5120;0.1832;
582.6000;0.5120;0.1709;
582.9000;0.5169;0.1758;
583.2000;0.5144;0.1634;
583.5000;0.5136;0.1684;
583.8000;0.5136;0.1659;
584.1000;0.5153;0.1733;
584.4000;0.5177;0.1857;
584.7000;0.5136;0.1783;
585.0000;0.5136;0.1758;
585.3000;0.5185;0.1882;
585.6000;0.5153;0.1758;
585.9000;0.5161;0.1808;
586.2000;0.5136;0.1783;
586.5000;0.5153;0.1857;
586.8000;0.5161;0.1882;
587.1000;0.5096;0.1709;
587.4000;0.5193;0.1931;
587.7000;0.5144;0.1931;
588.0000;0.5144;0.1882;
588.3000;0.5161;0.1931;
588.6000;0.5161;0.1931;
588.9000;0.5144;0.1931;
589.2000;0.5193;0.2130;
589.5000;0.5136;0.2055;
589.8000;0.5161;0.2105;
590.1000;0.5153;0.2055;
590.4000;0.5144;0.1931;
590.7000;0.5153;0.1882;
591.0000;0.5185;0.1907;
591.3000;0.5161;0.1832;
591.6000;0.5144;0.1832;
591.9000;0.5144;0.1907;
592.2000;0.5104;0.1832;
592.5000;0.5096;0.1832;
592.8000;0.5169;0.1956;
593.1000;0.5210;0.2080;
593.4000;0.5144;0.1857;
593.7000;0.5153;0.1857;
594.0000;0.5153;0.1956;
594.3000;0.5169;0.1907;
594.6000;0.5120;0.1832;
594.9000;0.5161;0.1907;
595.2000;0.5169;0.1931;
595.5000;0.5153;0.1907;
595.8000;0.5193;0.1956;
596.1000;0.5161;0.1907;
596.4000;0.5153;0.1907;
596.7000;0.5169;0.1808;
597.0000;0.5161;0.1783;
597.3000;0.5096;0.1634;
597.6000;0.5161;0.1882;
597.9000;0.5177;0.2006;
598.2000;0.5161;0.1907;
598.5000;0.5161;0.1907;
598.8000;0.5136;0.1907;
599.1000;0.5153;0.1981;
599.4000;0.5153;0.1956;
599.7000;0.5201;0.2055;
600.0000;0.5153;0.1931;
600.3000;0.5161;0.1857;
600.6000;0.5169;0.1783;
600.9000;0.5153;0.1709;
601.2000;0.5136;0.1684;
601.5000;0.5136;0.1659;
601.8000;0.5096;0.1560;
602.1000;0.5071;0.1535;
602.4000;0.5022;0.1387;
602.7000;0.4965;0.1288;
603.0000;0.4957;0.1164;
603.3000;0.4949;0.1015;
603.6000;0.4974;0.1065;
603.9000;0.4908;0.1015;
604.2000;0.4892;0.0991;
604.5000;0.4851;0.0966;
604.8000;0.4835;0.0966;
605.1000;0.4876;0.1015;
605.4000;0.4770;0.0891;
605.7000;0.4729;0.0817;
606.0000;0.4778;0.0941;
606.3000;0.4754;0.0867;
606.6000;0.4811;0.1065;
606.9000;0.4778;0.0941;
607.2000;0.4697;0.0768;
607.5000;0.4689;0.0817;
607.8000;0.4689;0.0718;
608.1000;0.4664;0.0669;
608.4000;0.4664;0.0693;
608.7000;0.4640;0.0693;
609.0000;0.4664;0.0743;
609.3000;0.4648;0.0768;
609.6000;0.4615;0.0619;
609.9000;0.4542;0.0421;
610.2000;0.4591;0.0594;
610.5000;0.4607;0.0619;
610.8000;0.4591;0.0669;
611.1000;0.4591;0.0570;
611.4000;0.4575;0.0446;
611.7000;0.4583;0.0446;
612.0000;0.4534;0.0371;
612.3000;0.4542;0.0421;
612.6000;0.4510;0.0322;
612.9000;0.4534;0.0470;
613.2000;0.4501;0.0470;
613.5000;0.4526;0.0520;
613.8000;0.4510;0.0446;
614.1000;0.4501;0.0470;
614.4000;0.4510;0.0495;
614.7000;0.4469;0.0446;
615.0000;0.4477;0.0520;
615.3000;0.4485;0.0644;
615.6000;0.4469;0.0545;
615.9000;0.4453;0.0545;
616.2000;0.4444;0.0644;
616.5000;0.4444;0.0594;
616.8000;0.4453;0.0570;
617.1000;0.4444;0.0545;
617.4000;0.4404;0.0520;
617.7000;0.4412;0.0545;
618.0000;0.4420;0.0520;
618.3000;0.4412;0.0446;
618.6000;0.4420;0.0495;
618.9000;0.4387;0.0371;
619.2000;0.4371;0.0347;
619.5000;0.4428;0.0446;
619.8000;0.4371;0.0272;
620.1000;0.4371;0.0347;
620.4000;0.4371;0.0396;
620.7000;0.4371;0.0470;
621.0000;0.4347;0.0495;
621.3000;0.4379;0.0570;
621.6000;0.4306;0.0347;
621.9000;0.4347;0.0396;
622.2000;0.4339;0.0322;
622.5000;0.4314;0.0297;
622.8000;0.4274;0.0248;
623.1000;0.4322;0.0347;
623.4000;0.4298;0.0347;
623.7000;0.4363;0.0495;
624.0000;0.4282;0.0297;
624.3000;0.4274;0.0371;
624.6000;0.4282;0.0520;
624.9000;0.4282;0.0520;
625.2000;0.4265;0.0495;
625.5000;0.4208;0.0371;
625.8000;0.4257;0.0644;
626.1000;0.4265;0.0669;
626.4000;0.4241;0.0495;
626.7000;0.4257;0.0446;
627.0000;0.4208;0.0470;
627.3000;0.4225;0.0495;
627.6000;0.4208;0.0421;
627.9000;0.4274;0.0693;
628.2000;0.4225;0.0619;
628.5000;0.4208;0.0520;
628.8000;0.4217;0.0446;
629.1000;0.4217;0.0470;
629.4000;0.4241;0.0594;
629.7000;0.4208;0.0570;
630.0000;0.4208;0.0570;
630.3000;0.4176;0.0520;
630.6000;0.4274;0.0768;
630.9000;0.4192;0.0545;
631.2000;0.4160;0.0520;
631.5000;0.4184;0.0619;
631.8000;0.4119;0.0470;
632.1000;0.4151;0.0545;
632.4000;0.4160;0.0594;
632.7000;0.4127;0.0594;
633.0000;0.4143;0.0570;
633.3000;0.4135;0.0470;
633.6000;0.4135;0.0446;
633.9000;0.4135;0.0470;
634.2000;0.4119;0.0545;
634.5000;0.4135;0.0594;
634.8000;0.4111;0.0644;
635.1000;0.4127;0.0644;
635.4000;0.4086;0.0545;
635.7000;0.4086;0.0495;
636.0000;0.4111;0.0520;
636.3000;0.4103;0.0470;
636.6000;0.4086;0.0421;
636.9000;0.4086;0.0520;
637.2000;0.4127;0.0594;
637.5000;0.4086;0.0495;
637.8000;0.4070;0.0446;
638.1000;0.4054;0.0421;
638.4000;0.4119;0.0644;
638.7000;0.4062;0.0495;
639.0000;0.4054;0.0545;
639.3000;0.4054;0.0594;
639.6000;0.4070;0.0644;
639.9000;0.4046;0.0619;
640.2000;0.4062;0.0743;
640.5000;0.4021;0.0619;
640.8000;0.4013;0.0669;
641.1000;0.4054;0.0768;
641.4000;0.4013;0.0619;
641.7000;0.4021;0.0693;
642.0000;0.4029;0.0842;
642.3000;0.4021;0.0693;
642.6000;0.4013;0.0644;
642.9000;0.3997;0.0619;
643.2000;0.3997;0.0644;
643.5000;0.4037;0.0817;
643.8000;0.3997;0.0693;
644.1000;0.4005;0.0669;
644.4000;0.4013;0.0669;
644.7000;0.3997;0.0693;
645.0000;0.3980;0.0669;
645.3000;0.3972;0.0570;
645.6000;0.3964;0.0520;
645.9000;0.3972;0.0545;
646.2000;0.3989;0.0570;
646.5000;0.3989;0.0545;
646.8000;0.3948;0.0495;
647.1000;0.3940;0.0495;
647.4000;0.3940;0.0396;
647.7000;0.3956;0.0396;
648.0000;0.3948;0.0421;
648.3000;0.3956;0.0421;
648.6000;0.3956;0.0347;
648.9000;0.3948;0.0347;
649.2000;0.3948;0.0396;
649.5000;0.3956;0.0421;
649.8000;0.3940;0.0470;
650.1000;0.3940;0.0421;
650.4000;0.3932;0.0495;
650.7000;0.3923;0.0446;
651.0000;0.3940;0.0446;
651.3000;0.3923;0.0446;
651.6000;0.3932;0.0520;
651.9000;0.3915;0.0396;
652.2000;0.3940;0.0446;
652.5000;0.3907;0.0371;
652.8000;0.3915;0.0272;
653.1000;0.3899;0.0248;
653.4000;0.3899;0.0198;
653.7000;0.3891;0.0322;
654.0000;0.3899;0.0297;
654.3000;0.3891;0.0322;
654.6000;0.3891;0.0272;
654.9000;0.3891;0.0322;
655.2000;0.3940;0.0495;
655.5000;0.3883;0.0272;
655.8000;0.3875;0.0297;
656.1000;0.3867;0.0248;
656.4000;0.3875;0.0297;
656.7000;0.3850;0.0322;
657.0000;0.3867;0.0396;
657.3000;0.3850;0.0396;
657.6000;0.3850;0.0371;
657.9000;0.3850;0.0396;
658.2000;0.3891;0.0495;
658.5000;0.3907;0.0495;
658.8000;0.3842;0.0347;
659.1000;0.3948;0.0619;
659.4000;0.3834;0.0396;
659.7000;0.3826;0.0446;
660.0000;0.3858;0.0520;
660.3000;0.3801;0.0396;
660.6000;0.3834;0.0520;
660.9000;0.3834;0.0446;
661.2000;0.3818;0.0371;
661.5000;0.3826;0.0322;
661.8000;0.3834;0.0347;
662.1000;0.3810;0.0347;
662.4000;0.3826;0.0396;
662.7000;0.3818;0.0322;
663.0000;0.3826;0.0396;
663.3000;0.3810;0.0396;
663.6000;0.3801;0.0446;
663.9000;0.3785;0.0446;
664.2000;0.3826;0.0470;
664.5000;0.3769;0.0347;
664.8000;0.3793;0.0446;
665.1000;0.3818;0.0545;
665.4000;0.3777;0.0495;
665.7000;0.3761;0.0371;
666.0000;0.3753;0.0421;
666.3000;0.3712;0.0347;
666.6000;0.3761;0.0495;
666.9000;0.3777;0.0570;
667.2000;0.3777;0.0545;
667.5000;0.3818;0.0644;
667.8000;0.3785;0.0545;
668.1000;0.3777;0.0619;
668.4000;0.3753;0.0570;
668.7000;0.3769;0.0570;
669.0000;0.3761;0.0545;
669.3000;0.3777;0.0446;
669.6000;0.3785;0.0520;
669.9000;0.3753;0.0421;
670.2000;0.3777;0.0396;
670.5000;0.3744;0.0297;
670.8000;0.3753;0.0272;
671.1000;0.3761;0.0322;
671.4000;0.3744;0.0347;
671.7000;0.3753;0.0371;
672.0000;0.3736;0.0297;
672.3000;0.3769;0.0371;
672.6000;0.3736;0.0272;
672.9000;0.3736;0.0322;
673.2000;0.3728;0.0223;
673.5000;0.3736;0.0297;
673.8000;0.3744;0.0272;
674.1000;0.3728;0.0223;
674.4000;0.3712;0.0149;
674.7000;0.3744;0.0248;
675.0000;0.3744;0.0272;
675.3000;0.3736;0.0223;
675.6000;0.3687;0.0074;
675.9000;0.3720;0.0099;
676.2000;0.3712;0.0124;
676.5000;0.3728;0.0173;
676.8000;0.3736;0.0248;
677.1000;0.3712;0.0173;
677.4000;0.3712;0.0173;
677.7000;0.3704;0.0198;
678.0000;0.3712;0.0248;
678.3000;0.3720;0.0297;
678.6000;0.3687;0.0248;
678.9000;0.3720;0.0396;
679.2000;0.3744;0.0421;
679.5000;0.3704;0.0297;
679.8000;0.3712;0.0297;
680.1000;0.3720;0.0297;
680.4000;0.3728;0.0322;
680.7000;0.3720;0.0371;
681.0000;0.3696;0.0272;
681.3000;0.3639;0.0124;
681.6000;0.3655;0.0223;
681.9000;0.3679;0.0297;
682.2000;0.3696;0.0322;
682.5000;0.3687;0.0322;
682.8000;0.3679;0.0347;
683.1000;0.3687;0.0446;
683.4000;0.3671;0.0446;
683.7000;0.3655;0.0446;
684.0000;0.3704;0.0570;
684.3000;0.3679;0.0520;
684.6000;0.3671;0.0495;
684.9000;0.3679;0.0495;
685.2000;0.3679;0.0545;
685.5000;0.3696;0.0545;
685.8000;0.3671;0.0470;
686.1000;0.3655;0.0470;
686.4000;0.3704;0.0545;
686.7000;0.3728;0.0570;
687.0000;0.3671;0.0347;
687.3000;0.3655;0.0272;
687.6000;0.3671;0.0248;
687.9000;0.3679;0.0198;
688.2000;0.3679;0.0272;
688.5000;0.3622;0.0149;
688.8000;0.3639;0.0297;
689.1000;0.3655;0.0322;
689.4000;0.3647;0.0272;
689.7000;0.3671;0.0322;
690.0000;0.3639;0.0347;
690.3000;0.3647;0.0396;
690.6000;0.3655;0.0297;
690.9000;0.3655;0.0322;
691.2000;0.3696;0.0495;
691.5000;0.3663;0.0470;
691.8000;0.3647;0.0396;
692.1000;0.3663;0.0371;
692.4000;0.3614;0.0297;
692.7000;0.3630;0.0371;
693.0000;0.3647;0.0446;
693.3000;0.3630;0.0446;
693.6000;0.3647;0.0520;
693.9000;0.3630;0.0570;
694.2000;0.3647;0.0619;
694.5000;0.3639;0.0570;
694.8000;0.3630;0.0570;
695.1000;0.3606;0.0520;
695.4000;0.3647;0.0594;
695.7000;0.3614;0.0495;
696.0000;0.3639;0.0545;
696.3000;0.3647;0.0495;
696.6000;0.3622;0.0421;
696.9000;0.3663;0.0545;
697.2000;0.3639;0.0545;
697.5000;0.3622;0.0470;
697.8000;0.3630;0.0470;
698.1000;0.3639;0.0396;
698.4000;0.3614;0.0396;
698.7000;0.3639;0.0396;
699.0000;0.3655;0.0421;
699.3000;0.3614;0.0347;
699.6000;0.3639;0.0396;
699.9000;0.3606;0.0421;
700.2000;0.3606;0.0396;
700.5000;0.3606;0.0371;
700.8000;0.3614;0.0495;
701.1000;0.3606;0.0470;
701.4000;0.3606;0.0446;
701.7000;0.3606;0.0371;
702.0000;0.3696;0.0669;
702.3000;0.3622;0.0396;
702.6000;0.3590;0.0495;
702.9000;0.3606;0.0495;
703.2000;0.3639;0.0669;
703.5000;0.3598;0.0545;
703.8000;0.3614;0.0570;
704.1000;0.3598;0.0570;
704.4000;0.3598;0.0495;
704.7000;0.3606;0.0495;
705.0000;0.3590;0.0495;
705.3000;0.3573;0.0470;
705.6000;0.3590;0.0495;
705.9000;0.3582;0.0495;
706.2000;0.3663;0.0644;
706.5000;0.3630;0.0520;
706.8000;0.3598;0.0421;
707.1000;0.3598;0.0470;
707.4000;0.3614;0.0545;
707.7000;0.3590;0.0545;
708.0000;0.3582;0.0470;
708.3000;0.3565;0.0446;
708.6000;0.3590;0.0495;
708.9000;0.3565;0.0470;
709.2000;0.3573;0.0446;
709.5000;0.3573;0.0446;
709.8000;0.3573;0.0421;
710.1000;0.3590;0.0396;
710.4000;0.3582;0.0396;
710.7000;0.3573;0.0446;
711.0000;0.3573;0.0520;
711.3000;0.3565;0.0470;
711.6000;0.3582;0.0446;
711.9000;0.3573;0.0396;
712.2000;0.3557;0.0421;
712.5000;0.3590;0.0545;
712.8000;0.3565;0.0396;
713.1000;0.3565;0.0421;
713.4000;0.3565;0.0520;
713.7000;0.3525;0.0421;
714.0000;0.3573;0.0470;
714.3000;0.3565;0.0421;
714.6000;0.3516;0.0396;
714.9000;0.3557;0.0619;
715.2000;0.3565;0.0644;
715.5000;0.3541;0.0619;
715.8000;0.3557;0.0718;
716.1000;0.3549;0.0693;
716.4000;0.3525;0.0545;
716.7000;0.3549;0.0594;
717.0000;0.3557;0.0520;
717.3000;0.3582;0.0495;
717.6000;0.3582;0.0396;
717.9000;0.3565;0.0371;
718.2000;0.3573;0.0371;
718.5000;0.3549;0.0371;
718.8000;0.3549;0.0446;
719.1000;0.3582;0.0396;
719.4000;0.3590;0.0396;
719.7000;0.3533;0.0322;
720.0000;0.3541;0.0371;
720.3000;0.3525;0.0248;
720.6000;0.3525;0.0421;
720.9000;0.3525;0.0446;
721.2000;0.3533;0.0347;
721.5000;0.3549;0.0347;
721.8000;0.3533;0.0297;
722.1000;0.3525;0.0272;
722.4000;0.3549;0.0347;
722.7000;0.3541;0.0446;
723.0000;0.3582;0.0570;
723.3000;0.3533;0.0421;
723.6000;0.3516;0.0371;
723.9000;0.3541;0.0371;
724.2000;0.3533;0.0347;
724.5000;0.3525;0.0297;
724.8000;0.3533;0.0371;
725.1000;0.3549;0.0421;
725.4000;0.3533;0.0371;
725.7000;0.3508;0.0347;
726.0000;0.3533;0.0347;
726.3000;0.3508;0.0347;
726.6000;0.3533;0.0347;
726.9000;0.3565;0.0322;
727.2000;0.3557;0.0297;
727.5000;0.3516;0.0173;
727.8000;0.3541;0.0124;
728.1000;0.3549;0.0198;
728.4000;0.3533;0.0223;
728.7000;0.3533;0.0297;
729.0000;0.3549;0.0421;
729.3000;0.3541;0.0347;
729.6000;0.3533;0.0421;
729.9000;0.3533;0.0495;
730.2000;0.3500;0.0446;
730.5000;0.3516;0.0421;
730.8000;0.3525;0.0371;
731.1000;0.3508;0.0322;
731.4000;0.3508;0.0322;
731.7000;0.3516;0.0322;
732.0000;0.3516;0.0371;
732.3000;0.3533;0.0421;
732.6000;0.3606;0.0669;
732.9000;0.3492;0.0322;
733.2000;0.3508;0.0322;
733.5000;0.3500;0.0272;
733.8000;0.3500;0.0297;
734.1000;0.3516;0.0272;
734.4000;0.3516;0.0272;
734.7000;0.3525;0.0223;
735.0000;0.3516;0.0223;
735.3000;0.3508;0.0248;
735.6000;0.3606;0.0495;
735.9000;0.3516;0.0297;
736.2000;0.3508;0.0272;
736.5000;0.3516;0.0223;
736.8000;0.3516;0.0149;
737.1000;0.3508;0.0198;
737.4000;0.3525;0.0173;
737.7000;0.3508;0.0149;
738.0000;0.3500;0.0149;
738.3000;0.3508;0.0297;
738.6000;0.3492;0.0198;
738.9000;0.3500;0.0198;
739.2000;0.3500;0.0198;
739.5000;0.3443;0.0050;
739.8000;0.3460;0.0173;
740.1000;0.3484;0.0223;
740.4000;0.3492;0.0198;
740.7000;0.3541;0.0272;
741.0000;0.3508;0.0272;
741.3000;0.3500;0.0347;
741.6000;0.3500;0.0248;
741.9000;0.3451;0.0074;
742.2000;0.3500;0.0074;
742.5000;0.3516;0.0099;
742.8000;0.3508;0.0198;
743.1000;0.3492;0.0248;
743.4000;0.3508;0.0272;
743.7000;0.3525;0.0347;
744.0000;0.3508;0.0272;
744.3000;0.3500;0.0297;
744.6000;0.3565;0.0470;
744.9000;0.3492;0.0322;
745.2000;0.3476;0.0371;
745.5000;0.3492;0.0371;
745.8000;0.3549;0.0520;
746.1000;0.3541;0.0446;
746.4000;0.3492;0.0371;
746.7000;0.3484;0.0371;
747.0000;0.3516;0.0396;
747.3000;0.3476;0.0248;
747.6000;0.3484;0.0099;
747.9000;0.3606;0.0446;
748.2000;0.3484;0.0272;
748.5000;0.3484;0.0248;
748.8000;0.3484;0.0198;
749.1000;0.3484;0.0149;
749.4000;0.3468;0.0198;
749.7000;0.3476;0.0248;
750.0000;0.3492;0.0272;
750.3000;0.3492;0.0297;
750.6000;0.3476;0.0173;
750.9000;0.3476;0.0173;
751.2000;0.3476;0.0297;
751.5000;0.3492;0.0297;
751.8000;0.3484;0.0223;
752.1000;0.3516;0.0347;
752.4000;0.3484;0.0347;
752.7000;0.3492;0.0248;
753.0000;0.3492;0.0297;
753.3000;0.3533;0.0371;
753.6000;0.3476;0.0223;
753.9000;0.3484;0.0198;
754.2000;0.3492;0.0198;
754.5000;0.3468;0.0198;
754.8000;0.3460;0.0149;
755.1000;0.3468;0.0099;
755.4000;0.3484;0.0149;
755.7000;0.3484;0.0124;
756.0000;0.3484;0.0099;
756.3000;0.3492;0.0173;
756.6000;0.3476;0.0173;
756.9000;0.3476;0.0198;
757.2000;0.3451;0.0173;
757.5000;0.3476;0.0248;
757.8000;0.3492;0.0297;
758.1000;0.3468;0.0223;
758.4000;0.3476;0.0272;
758.7000;0.3460;0.0223;
759.0000;0.3492;0.0297;
759.3000;0.3435;0.0173;
759.6000;0.3451;0.0272;
759.9000;0.3476;0.0297;
760.2000;0.3484;0.0297;
760.5000;0.3468;0.0173;
760.8000;0.3468;0.0074;
761.1000;0.3435;-0.0074;
761.4000;0.3419;-0.0050;
761.7000;0.3476;0.0050;
762.0000;0.3476;0.0025;
762.3000;0.3468;-0.0025;
762.6000;0.3476;0.0099;
762.9000;0.3468;0.0149;
763.2000;0.3468;0.0124;
763.5000;0.3411;-0.0050;
763.8000;0.3443;0.0050;
764.1000;0.3468;0.0099;
764.4000;0.3484;0.0173;
764.7000;0.3451;0.0025;
765.0000;0.3460;-0.0025;
765.3000;0.3476;-0.0025;
765.6000;0.3435;-0.0074;
765.9000;0.3419;-0.0099;
766.2000;0.3484;0.0124;
766.5000;0.3476;0.0223;
766.8000;0.3451;0.0198;
767.1000;0.3476;0.0322;
767.4000;0.3451;0.0347;
767.7000;0.3468;0.0421;
768.0000;0.3460;0.0347;
768.3000;0.3443;0.0322;
768.6000;0.3443;0.0322;
768.9000;0.3460;0.0371;
769.2000;0.3476;0.0347;
769.5000;0.3468;0.0272;
769.8000;0.3419;0.0124;
770.1000;0.3427;0.0173;
770.4000;0.3443;0.0173;
770.7000;0.3443;0.0198;
771.0000;0.3451;0.0272;
771.3000;0.3451;0.0223;
771.6000;0.3468;0.0396;
771.9000;0.3460;0.0421;
772.2000;0.3451;0.0347;
772.5000;0.3451;0.0347;
772.8000;0.3468;0.0371;
773.1000;0.3435;0.0297;
773.4000;0.3460;0.0396;
773.7000;0.3460;0.0347;
774.0000;0.3460;0.0322;
774.3000;0.3484;0.0396;
774.6000;0.3460;0.0272;
774.9000;0.3435;0.0272;
775.2000;0.3443;0.0322;
775.5000;0.3435;0.0272;
775.8000;0.3460;0.0272;
776.1000;0.3451;0.0272;
776.4000;0.3451;0.0272;
776.7000;0.3451;0.0322;
777.0000;0.3427;0.0223;
777.3000;0.3394;0.0074;
777.6000;0.3492;0.0248;
777.9000;0.3468;0.0149;
778.2000;0.3468;0.0124;
778.5000;0.3484;0.0149;
778.8000;0.3468;0.0074;
779.1000;0.3460;0.0099;
779.4000;0.3468;0.0149;
779.7000;0.3451;0.0124;
780.0000;0.3443;0.0223;
780.3000;0.3435;0.0173;
780.6000;0.3443;0.0272;
780.9000;0.3443;0.0272;
781.2000;0.3435;0.0198;
781.5000;0.3435;0.0223;
781.8000;0.3476;0.0347;
782.1000;0.3451;0.0347;
782.4000;0.3435;0.0322;
782.7000;0.3435;0.0347;
783.0000;0.3435;0.0297;
783.3000;0.3451;0.0322;
783.6000;0.3435;0.0297;
783.9000;0.3443;0.0322;
784.2000;0.3435;0.0371;
784.5000;0.3435;0.0248;
784.8000;0.3451;0.0272;
785.1000;0.3411;0.0297;
785.4000;0.3427;0.0347;
785.7000;0.3435;0.0396;
786.0000;0.3443;0.0396;
786.3000;0.3346;0.0099;
786.6000;0.3443;0.0322;
786.9000;0.3419;0.0297;
787.2000;0.3443;0.0421;
787.5000;0.3435;0.0446;
787.8000;0.3443;0.0396;
788.1000;0.3419;0.0396;
788.4000;0.3435;0.0421;
788.7000;0.3468;0.0470;
789.0000;0.3419;0.0495;
789.3000;0.3427;0.0421;
789.6000;0.3411;0.0446;
789.9000;0.3427;0.0446;
790.2000;0.3451;0.0470;
790.5000;0.3411;0.0396;
790.8000;0.3435;0.0421;
791.1000;0.3435;0.0421;
791.4000;0.3443;0.0446;
791.7000;0.3541;0.0619;
792.0000;0.3411;0.0223;
792.3000;0.3403;0.0173;
792.6000;0.3435;0.0248;
792.9000;0.3378;0.0099;
793.2000;0.3403;0.0173;
793.5000;0.3427;0.0173;
793.8000;0.3411;0.0124;
794.1000;0.3386;0.0000;
794.4000;0.3435;0.0074;
794.7000;0.3427;0.0074;
795.0000;0.3427;0.0025;
795.3000;0.3451;0.0149;
795.6000;0.3403;0.0173;
795.9000;0.3427;0.0099;
796.2000;0.3451;0.0173;
796.5000;0.3476;0.0297;
796.8000;0.3427;0.0297;
797.1000;0.3533;0.0545;
797.4000;0.3451;0.0322;
797.7000;0.3435;0.0347;
798.0000;0.3411;0.0272;
798.3000;0.3419;0.0248;
798.6000;0.3419;0.0248;
798.9000;0.3386;0.0124;
799.2000;0.3419;0.0198;
799.5000;0.3419;0.0297;
799.8000;0.3427;0.0248;
800.1000;0.3427;0.0173;
800.4000;0.3435;0.0198;
800.7000;0.3427;0.0173;
801.0000;0.3435;0.0149;
801.3000;0.3411;0.0149;
801.6000;0.3427;0.0322;
801.9000;0.3443;0.0396;
802.2000;0.3443;0.0446;
802.5000;0.3427;0.0446;
802.8000;0.3419;0.0396;
803.1000;0.3435;0.0446;
803.4000;0.3427;0.0396;
803.7000;0.3411;0.0371;
804.0000;0.3451;0.0446;
804.3000;0.3419;0.0396;
804.6000;0.3443;0.0446;
804.9000;0.3362;0.0223;
805.2000;0.3427;0.0371;
805.5000;0.3435;0.0322;
805.8000;0.3427;0.0347;
806.1000;0.3419;0.0322;
806.4000;0.3427;0.0371;
806.7000;0.3427;0.0322;
807.0000;0.3419;0.0272;
807.3000;0.3403;0.0173;
807.6000;0.3394;0.0198;
807.9000;0.3394;0.0149;
808.2000;0.3411;0.0149;
808.5000;0.3419;0.0248;
808.8000;0.3378;0.0074;
809.1000;0.3427;0.0223;
809.4000;0.3370;0.0074;
809.7000;0.3435;0.0322;
810.0000;0.3411;0.0297;
810.3000;0.3386;0.0223;
810.6000;0.3411;0.0371;
810.9000;0.3411;0.0396;
811.2000;0.3419;0.0322;
811.5000;0.3443;0.0446;
811.8000;0.3394;0.0272;
812.1000;0.3427;0.0297;
812.4000;0.3427;0.0223;
812.7000;0.3419;0.0297;
813.0000;0.3411;0.0322;
813.3000;0.3411;0.0322;
813.6000;0.3435;0.0272;
813.9000;0.3403;0.0198;
814.2000;0.3394;0.0198;
814.5000;0.3394;0.0198;
814.8000;0.3411;0.0272;
815.1000;0.3394;0.0272;
815.4000;0.3411;0.0248;
815.7000;0.3403;0.0124;
816.0000;0.3411;0.0124;
816.3000;0.3378;0.0124;
816.6000;0.3403;0.0322;
816.9000;0.3419;0.0396;
817.2000;0.3394;0.0371;
817.5000;0.3411;0.0446;
817.8000;0.3403;0.0470;
818.1000;0.3435;0.0495;
818.4000;0.3443;0.0594;
818.7000;0.3411;0.0545;
819.0000;0.3362;0.0421;
819.3000;0.3370;0.0446;
819.6000;0.3411;0.0470;
819.9000;0.3411;0.0570;
820.2000;0.3419;0.0570;
820.5000;0.3403;0.0520;
820.8000;0.3403;0.0495;
821.1000;0.3427;0.0570;
821.4000;0.3411;0.0495;
821.7000;0.3394;0.0470;
822.0000;0.3394;0.0520;
822.3000;0.3362;0.0396;
822.6000;0.3386;0.0272;
822.9000;0.3403;0.0322;
823.2000;0.3386;0.0297;
823.5000;0.3411;0.0347;
823.8000;0.3403;0.0421;
824.1000;0.3403;0.0421;
824.4000;0.3403;0.0446;
824.7000;0.3403;0.0421;
825.0000;0.3419;0.0347;
825.3000;0.3403;0.0297;
825.6000;0.3394;0.0322;
825.9000;0.3403;0.0272;
826.2000;0.3419;0.0322;
826.5000;0.3411;0.0272;
826.8000;0.3403;0.0347;
827.1000;0.3403;0.0347;
827.4000;0.3411;0.0371;
827.7000;0.3411;0.0470;
828.0000;0.3419;0.0495;
828.3000;0.3394;0.0396;
828.6000;0.3403;0.0347;
828.9000;0.3411;0.0347;
829.2000;0.3419;0.0371;
829.5000;0.3394;0.0371;
829.8000;0.3394;0.0421;
830.1000;0.3419;0.0396;
830.4000;0.3403;0.0421;
830.7000;0.3411;0.0470;
831.0000;0.3394;0.0421;
831.3000;0.3419;0.0470;
831.6000;0.3386;0.0396;
831.9000;0.3403;0.0421;
832.2000;0.3403;0.0446;
832.5000;0.3394;0.0446;
832.8000;0.3378;0.0396;
833.1000;0.3378;0.0371;
833.4000;0.3386;0.0421;
833.7000;0.3386;0.0396;
834.0000;0.3378;0.0421;
834.3000;0.3419;0.0495;
834.6000;0.3394;0.0421;
834.9000;0.3394;0.0421;
835.2000;0.3411;0.0446;
835.5000;0.3394;0.0495;
835.8000;0.3403;0.0594;
836.1000;0.3394;0.0520;
836.4000;0.3460;0.0693;
836.7000;0.3468;0.0644;
837.0000;0.3403;0.0446;
837.3000;0.3386;0.0396;
837.6000;0.3354;0.0297;
837.9000;0.3378;0.0396;
838.2000;0.3394;0.0495;
838.5000;0.3370;0.0470;
838.8000;0.3362;0.0446;
839.1000;0.3378;0.0470;
839.4000;0.3435;0.0495;
839.7000;0.3370;0.0347;
840.0000;0.3378;0.0495;
840.3000;0.3362;0.0421;
840.6000;0.3386;0.0396;
840.9000;0.3378;0.0396;
841.2000;0.3386;0.0371;
841.5000;0.3394;0.0347;
841.8000;0.3313;0.0074;
842.1000;0.3346;0.0124;
842.4000;0.3419;0.0421;
842.7000;0.3362;0.0347;
843.0000;0.3427;0.0545;
843.3000;0.3378;0.0446;
843.6000;0.3362;0.0371;
843.9000;0.3329;0.0248;
844.2000;0.3378;0.0520;
844.5000;0.3394;0.0545;
844.8000;0.3460;0.0768;
845.1000;0.3394;0.0570;
845.4000;0.3386;0.0520;
845.7000;0.3394;0.0421;
846.0000;0.3378;0.0371;
846.3000;0.3362;0.0297;
846.6000;0.3403;0.0396;
846.9000;0.3362;0.0396;
847.2000;0.3386;0.0470;
847.5000;0.3378;0.0421;
847.8000;0.3378;0.0396;
848.1000;0.3378;0.0347;
848.4000;0.3386;0.0446;
848.7000;0.3378;0.0396;
849.0000;0.3386;0.0347;
849.3000;0.3329;0.0173;
849.6000;0.3403;0.0322;
849.9000;0.3378;0.0322;
850.2000;0.3378;0.0248;
850.5000;0.3378;0.0248;
850.8000;0.3386;0.0322;
851.1000;0.3386;0.0371;
851.4000;0.3370;0.0347;
851.7000;0.3386;0.0347;
852.0000;0.3321;0.0173;
852.3000;0.3394;0.0371;
852.6000;0.3370;0.0322;
852.9000;0.3362;0.0347;
853.2000;0.3362;0.0421;
853.5000;0.3362;0.0421;
853.8000;0.3378;0.0470;
854.1000;0.3370;0.0520;
854.4000;0.3354;0.0520;
854.7000;0.3378;0.0669;
855.0000;0.3394;0.0743;
855.3000;0.3370;0.0743;
855.6000;0.3386;0.0693;
855.9000;0.3476;0.0891;
856.2000;0.3386;0.0594;
856.5000;0.3354;0.0520;
856.8000;0.3386;0.0520;
857.1000;0.3370;0.0520;
857.4000;0.3337;0.0421;
857.7000;0.3370;0.0421;
858.0000;0.3362;0.0371;
858.3000;0.3378;0.0371;
858.6000;0.3460;0.0644;
858.9000;0.3378;0.0396;
859.2000;0.3378;0.0322;
859.5000;0.3354;0.0297;
859.8000;0.3386;0.0371;
860.1000;0.3370;0.0396;
860.4000;0.3362;0.0347;
860.7000;0.3386;0.0371;
861.0000;0.3394;0.0223;
861.3000;0.3378;0.0248;
861.6000;0.3435;0.0470;
861.9000;0.3378;0.0396;
862.2000;0.3386;0.0371;
862.5000;0.3329;0.0248;
862.8000;0.3329;0.0322;
863.1000;0.3370;0.0396;
863.4000;0.3346;0.0396;
863.7000;0.3362;0.0322;
864.0000;0.3362;0.0223;
864.3000;0.3370;0.0248;
864.6000;0.3370;0.0297;
864.9000;0.3386;0.0347;
865.2000;0.3386;0.0248;
865.5000;0.3362;0.0223;
865.8000;0.3362;0.0272;
866.1000;0.3386;0.0347;
866.4000;0.3378;0.0297;
866.7000;0.3362;0.0347;
867.0000;0.3370;0.0347;
867.3000;0.3362;0.0248;
867.6000;0.3370;0.0272;
867.9000;0.3394;0.0272;
868.2000;0.3362;0.0198;
868.5000;0.3370;0.0223;
868.8000;0.3451;0.0470;
869.1000;0.3289;0.0074;
869.4000;0.3403;0.0347;
869.7000;0.3370;0.0272;
870.0000;0.3370;0.0322;
870.3000;0.3403;0.0421;
870.6000;0.3370;0.0347;
870.9000;0.3370;0.0297;
871.2000;0.3329;0.0223;
871.5000;0.3378;0.0322;
871.8000;0.3378;0.0347;
872.1000;0.3378;0.0347;
872.4000;0.3370;0.0495;
872.7000;0.3386;0.0495;
873.0000;0.3394;0.0495;
873.3000;0.3403;0.0446;
873.6000;0.3362;0.0347;
873.9000;0.3378;0.0297;
874.2000;0.3378;0.0347;
874.5000;0.3370;0.0347;
874.8000;0.3354;0.0322;
875.1000;0.3370;0.0396;
875.4000;0.3378;0.0347;
875.7000;0.3394;0.0396;
876.0000;0.3370;0.0347;
876.3000;0.3468;0.0644;
876.6000;0.3370;0.0396;
876.9000;0.3378;0.0470;
877.2000;0.3370;0.0396;
877.5000;0.3321;0.0248;
877.8000;0.3370;0.0347;
878.1000;0.3394;0.0396;
878.4000;0.3370;0.0347;
878.7000;0.3362;0.0322;
879.0000;0.3362;0.0248;
879.3000;0.3370;0.0272;
879.6000;0.3386;0.0396;
879.9000;0.3370;0.0396;
880.2000;0.3362;0.0371;
880.5000;0.3370;0.0470;
880.8000;0.3337;0.0470;
881.1000;0.3386;0.0570;
881.4000;0.3346;0.0495;
881.7000;0.3354;0.0495;
882.0000;0.3378;0.0495;
882.3000;0.3362;0.0421;
882.6000;0.3346;0.0396;
882.9000;0.3362;0.0446;
883.2000;0.3378;0.0396;
883.5000;0.3370;0.0446;
883.8000;0.3378;0.0520;
884.1000;0.3346;0.0446;
884.4000;0.3362;0.0470;
884.7000;0.3370;0.0495;
885.0000;0.3370;0.0495;
885.3000;0.3362;0.0570;
885.6000;0.3354;0.0594;
885.9000;0.3378;0.0570;
886.2000;0.3354;0.0371;
886.5000;0.3346;0.0421;
886.8000;0.3362;0.0470;
887.1000;0.3370;0.0446;
887.4000;0.3354;0.0495;
887.7000;0.3354;0.0495;
888.0000;0.3354;0.0520;
888.3000;0.3370;0.0470;
888.6000;0.3354;0.0470;
888.9000;0.3362;0.0396;
889.2000;0.3378;0.0446;
889.5000;0.3378;0.0347;
889.8000;0.3337;0.0248;
890.1000;0.3362;0.0371;
890.4000;0.3370;0.0371;
890.7000;0.3362;0.0396;
891.0000;0.3378;0.0495;
891.3000;0.3362;0.0421;
891.6000;0.3354;0.0371;
891.9000;0.3370;0.0347;
892.2000;0.3354;0.0347;
892.5000;0.3370;0.0371;
892.8000;0.3354;0.0272;
893.1000;0.3362;0.0297;
893.4000;0.3362;0.0322;
893.7000;0.3354;0.0347;
894.0000;0.3354;0.0371;
894.3000;0.3370;0.0396;
894.6000;0.3362;0.0421;
894.9000;0.3362;0.0347;
895.2000;0.3419;0.0446;
895.5000;0.3362;0.0322;
895.8000;0.3378;0.0347;
896.1000;0.3354;0.0371;
896.4000;0.3378;0.0371;
896.7000;0.3313;0.0173;
897.0000;0.3354;0.0322;
897.3000;0.3354;0.0297;
897.6000;0.3354;0.0371;
897.9000;0.3362;0.0371;
898.2000;0.3354;0.0297;
898.5000;0.3362;0.0347;
898.8000;0.3370;0.0347;
899.1000;0.3346;0.0396;
899.4000;0.3346;0.0371;
899.7000;0.3329;0.0347;
900.0000;0.3362;0.0371;
900.3000;0.3346;0.0371;
900.6000;0.3346;0.0371;
900.9000;0.3337;0.0322;
901.2000;0.3321;0.0297;
901.5000;0.3354;0.0322;
901.8000;0.3362;0.0347;
902.1000;0.3346;0.0396;
902.4000;0.3354;0.0470;
902.7000;0.3354;0.0545;
903.0000;0.3346;0.0520;
903.3000;0.3362;0.0594;
903.6000;0.3362;0.0594;
903.9000;0.3362;0.0594;
904.2000;0.3354;0.0594;
904.5000;0.3362;0.0644;
904.8000;0.3305;0.0545;
905.1000;0.3337;0.0718;
905.4000;0.3354;0.0817;
905.7000;0.3313;0.0718;
906.0000;0.3337;0.0718;
906.3000;0.3346;0.0743;
906.6000;0.3337;0.0768;
906.9000;0.3329;0.0570;
907.2000;0.3337;0.0545;
907.5000;0.3337;0.0495;
907.8000;0.3362;0.0545;
908.1000;0.3354;0.0570;
908.4000;0.3362;0.0743;
908.7000;0.3370;0.0768;
909.0000;0.3346;0.0792;
909.3000;0.3354;0.0817;
909.6000;0.3362;0.0768;
909.9000;0.3362;0.0768;
910.2000;0.3354;0.0792;
910.5000;0.3394;0.0792;
910.8000;0.3346;0.0718;
911.1000;0.3435;0.0768;
911.4000;0.3337;0.0495;
911.7000;0.3386;0.0570;
912.0000;0.3321;0.0396;
912.3000;0.3354;0.0446;
912.6000;0.3305;0.0297;
912.9000;0.3264;0.0248;
913.2000;0.3346;0.0347;
913.5000;0.3354;0.0371;
913.8000;0.3346;0.0470;
914.1000;0.3280;0.0272;
914.4000;0.3354;0.0520;
914.7000;0.3354;0.0470;
915.0000;0.3354;0.0495;
915.3000;0.3403;0.0619;
915.6000;0.3354;0.0520;
915.9000;0.3354;0.0520;
916.2000;0.3378;0.0520;
916.5000;0.3329;0.0470;
916.8000;0.3337;0.0446;
917.1000;0.3337;0.0396;
917.4000;0.3289;0.0248;
917.7000;0.3337;0.0545;
918.0000;0.3354;0.0644;
918.3000;0.3370;0.0594;
918.6000;0.3346;0.0545;
918.9000;0.3329;0.0495;
919.2000;0.3305;0.0396;
919.5000;0.3354;0.0594;
919.8000;0.3321;0.0495;
920.1000;0.3329;0.0446;
920.4000;0.3354;0.0396;
920.7000;0.3313;0.0347;
921.0000;0.3370;0.0520;
921.3000;0.3362;0.0520;
921.6000;0.3354;0.0495;
921.9000;0.3362;0.0396;
922.2000;0.3386;0.0396;
922.5000;0.3354;0.0347;
922.8000;0.3337;0.0297;
923.1000;0.3362;0.0347;
923.4000;0.3370;0.0297;
923.7000;0.3362;0.0470;
924.0000;0.3386;0.0545;
924.3000;0.3370;0.0619;
924.6000;0.3354;0.0570;
924.9000;0.3362;0.0520;
925.2000;0.3337;0.0371;
925.5000;0.3346;0.0371;
925.8000;0.3346;0.0421;
926.1000;0.3337;0.0470;
926.4000;0.3346;0.0470;
926.7000;0.3346;0.0495;
927.0000;0.3346;0.0594;
927.3000;0.3354;0.0644;
927.6000;0.3346;0.0619;
927.9000;0.3337;0.0594;
928.2000;0.3346;0.0594;
928.5000;0.3346;0.0619;
928.8000;0.3337;0.0545;
929.1000;0.3362;0.0570;
929.4000;0.3346;0.0520;
929.7000;0.3346;0.0446;
930.0000;0.3321;0.0446;
930.3000;0.3337;0.0446;
930.6000;0.3337;0.0396;
930.9000;0.3329;0.0421;
931.2000;0.3362;0.0421;
931.5000;0.3354;0.0446;
931.8000;0.3346;0.0371;
932.1000;0.3329;0.0347;
932.4000;0.3354;0.0446;
932.7000;0.3337;0.0322;
933.0000;0.3313;0.0297;
933.3000;0.3346;0.0371;
933.6000;0.3289;0.0223;
933.9000;0.3378;0.0470;
934.2000;0.3329;0.0272;
934.5000;0.3337;0.0322;
934.8000;0.3370;0.0545;
935.1000;0.3386;0.0545;
935.4000;0.3305;0.0297;
935.7000;0.3321;0.0371;
936.0000;0.3346;0.0446;
936.3000;0.3362;0.0470;
936.6000;0.3337;0.0396;
936.9000;0.3313;0.0371;
937.2000;0.3346;0.0396;
937.5000;0.3346;0.0347;
937.8000;0.3297;0.0149;
938.1000;0.3386;0.0347;
938.4000;0.3337;0.0371;
938.7000;0.3321;0.0371;
939.0000;0.3329;0.0371;
939.3000;0.3329;0.0421;
939.6000;0.3337;0.0470;
939.9000;0.3329;0.0421;
940.2000;0.3329;0.0322;
940.5000;0.3337;0.0272;
940.8000;0.3329;0.0272;
941.1000;0.3346;0.0347;
941.4000;0.3386;0.0570;
941.7000;0.3346;0.0570;
942.0000;0.3321;0.0495;
942.3000;0.3329;0.0520;
942.6000;0.3370;0.0470;
942.9000;0.3346;0.0371;
943.2000;0.3337;0.0297;
943.5000;0.3354;0.0272;
943.8000;0.3329;0.0173;
944.1000;0.3346;0.0198;
944.4000;0.3346;0.0124;
944.7000;0.3329;0.0149;
945.0000;0.3346;0.0149;
945.3000;0.3394;0.0223;
945.6000;0.3346;0.0173;
945.9000;0.3337;0.0124;
946.2000;0.3362;0.0173;
946.5000;0.3346;0.0099;
946.8000;0.3354;0.0149;
947.1000;0.3337;0.0149;
947.4000;0.3346;0.0149;
947.7000;0.3362;0.0248;
948.0000;0.3354;0.0198;
948.3000;0.3337;0.0173;
948.6000;0.3346;0.0248;
948.9000;0.3337;0.0272;
949.2000;0.3337;0.0248;
949.5000;0.3337;0.0272;
949.8000;0.3305;0.0149;
950.1000;0.3321;0.0173;
950.4000;0.3289;0.0074;
950.7000;0.3305;0.0124;
951.0000;0.3321;0.0297;
951.3000;0.3240;0.0050;
951.6000;0.3321;0.0322;
951.9000;0.3337;0.0322;
952.2000;0.3337;0.0371;
952.5000;0.3346;0.0446;
952.8000;0.3329;0.0371;
953.1000;0.3370;0.0470;
953.4000;0.3362;0.0520;
953.7000;0.3354;0.0470;
954.0000;0.3362;0.0495;
954.3000;0.3329;0.0470;
954.6000;0.3346;0.0371;
954.9000;0.3346;0.0371;
955.2000;0.3321;0.0248;
955.5000;0.3329;0.0248;
955.8000;0.3280;0.0050;
956.1000;0.3305;0.0050;
956.4000;0.3346;0.0149;
956.7000;0.3337;0.0223;
957.0000;0.3346;0.0223;
957.3000;0.3346;0.0272;
957.6000;0.3329;0.0272;
957.9000;0.3313;0.0198;
958.2000;0.3321;0.0223;
958.5000;0.3346;0.0347;
958.8000;0.3337;0.0272;
959.1000;0.3346;0.0297;
959.4000;0.3337;0.0248;
959.7000;0.3329;0.0149;
960.0000;0.3329;0.0173;
960.3000;0.3354;0.0248;
960.6000;0.3321;0.0272;
960.9000;0.3297;0.0223;
961.2000;0.3329;0.0371;
961.5000;0.3305;0.0297;
961.8000;0.3321;0.0322;
962.1000;0.3321;0.0396;
962.4000;0.3280;0.0322;
962.7000;0.3321;0.0297;
963.0000;0.3370;0.0371;
963.3000;0.3370;0.0322;
963.6000;0.3321;0.0198;
963.9000;0.3337;0.0248;
964.2000;0.3313;0.0173;
964.5000;0.3386;0.0347;
964.8000;0.3321;0.0272;
965.1000;0.3346;0.0322;
965.4000;0.3297;0.0322;
965.7000;0.3354;0.0421;
966.0000;0.3346;0.0421;
966.3000;0.3337;0.0421;
966.6000;0.3378;0.0520;
966.9000;0.3329;0.0396;
967.2000;0.3264;0.0223;
967.5000;0.3321;0.0347;
967.8000;0.3321;0.0396;
968.1000;0.3313;0.0347;
968.4000;0.3346;0.0371;
968.7000;0.3354;0.0396;
969.0000;0.3346;0.0396;
969.3000;0.3362;0.0396;
969.6000;0.3313;0.0347;
969.9000;0.3329;0.0446;
970.2000;0.3346;0.0470;
970.5000;0.3305;0.0322;
970.8000;0.3313;0.0347;
971.1000;0.3313;0.0248;
971.4000;0.3337;0.0198;
971.7000;0.3329;0.0223;
972.0000;0.3411;0.0495;
972.3000;0.3337;0.0347;
972.6000;0.3329;0.0347;
972.9000;0.3346;0.0347;
973.2000;0.3272;0.0149;
973.5000;0.3289;0.0223;
973.8000;0.3346;0.0396;
974.1000;0.3329;0.0322;
974.4000;0.3280;0.0149;
974.7000;0.3321;0.0223;
975.0000;0.3346;0.0347;
975.3000;0.3329;0.0322;
975.6000;0.3362;0.0446;
975.9000;0.3305;0.0272;
976.2000;0.3321;0.0297;
976.5000;0.3346;0.0272;
976.8000;0.3337;0.0248;
977.1000;0.3329;0.0322;
977.4000;0.3321;0.0322;
977.7000;0.3321;0.0396;
978.0000;0.3337;0.0446;
978.3000;0.3346;0.0545;
978.6000;0.3329;0.0446;
978.9000;0.3346;0.0396;
979.2000;0.3346;0.0371;
979.5000;0.3329;0.0371;
979.8000;0.3329;0.0347;
980.1000;0.3329;0.0371;
980.4000;0.3337;0.0347;
980.7000;0.3378;0.0470;
981.0000;0.3329;0.0421;
981.3000;0.3329;0.0347;
981.6000;0.3337;0.0371;
981.9000;0.3329;0.0347;
982.2000;0.3313;0.0347;
982.5000;0.3337;0.0297;
982.8000;0.3354;0.0272;
983.1000;0.3321;0.0272;
983.4000;0.3337;0.0297;
983.7000;0.3386;0.0396;
984.0000;0.3346;0.0297;
984.3000;0.3329;0.0322;
984.6000;0.3337;0.0421;
984.9000;0.3313;0.0396;
985.2000;0.3305;0.0371;
985.5000;0.3329;0.0446;
985.8000;0.3386;0.0644;
986.1000;0.3370;0.0545;
986.4000;0.3305;0.0470;
986.7000;0.3329;0.0520;
987.0000;0.3321;0.0495;
987.3000;0.3329;0.0396;
987.6000;0.3321;0.0446;
987.9000;0.3313;0.0495;
988.2000;0.3346;0.0594;
988.5000;0.3313;0.0520;
988.8000;0.3321;0.0470;
989.1000;0.3329;0.0446;
989.4000;0.3321;0.0371;
989.7000;0.3329;0.0322;
990.0000;0.3321;0.0272;
990.3000;0.3321;0.0173;
990.6000;0.3313;0.0248;
990.9000;0.3280;0.0124;
991.2000;0.3321;0.0272;
991.5000;0.3321;0.0223;
991.8000;0.3313;0.0173;
992.1000;0.3321;0.0173;
992.4000;0.3321;0.0223;
992.7000;0.3321;0.0198;
993.0000;0.3329;0.0272;
993.3000;0.3337;0.0297;
993.6000;0.3321;0.0322;
993.9000;0.3337;0.0421;
994.2000;0.3346;0.0495;
994.5000;0.3354;0.0495;
994.8000;0.3321;0.0396;
995.1000;0.3305;0.0272;
995.4000;0.3321;0.0272;
995.7000;0.3346;0.0322;
996.0000;0.3297;0.0223;
996.3000;0.3329;0.0272;
996.6000;0.3321;0.0272;
996.9000;0.3321;0.0223;
997.2000;0.3329;0.0198;
997.5000;0.3321;0.0124;
997.8000;0.3321;0.0198;
998.1000;0.3329;0.0173;
998.4000;0.3305;0.0173;
998.7000;0.3329;0.0347;
999.0000;0.3313;0.0272;
999.3000;0.3354;0.0495;
999.6000;0.3313;0.0396;
999.9000;0.3313;0.0371;
1000.2000;0.3305;0.0297;
1000.5000;0.3321;0.0322;
1000.8000;0.3321;0.0371;
1001.1000;0.3313;0.0371;
1001.4000;0.3321;0.0520;
1001.7000;0.3321;0.0570;
1002.0000;0.3329;0.0644;
1002.3000;0.3329;0.0619;
1002.6000;0.3329;0.0470;
1002.9000;0.3337;0.0347;
1003.2000;0.3346;0.0371;
1003.5000;0.3346;0.0297;
1003.8000;0.3321;0.0297;
1004.1000;0.3337;0.0173;
1004.4000;0.3321;0.0223;
1004.7000;0.3321;0.0297;
1005.0000;0.3321;0.0272;
1005.3000;0.3329;0.0347;
1005.6000;0.3321;0.0297;
1005.9000;0.3321;0.0322;
1006.2000;0.3329;0.0347;
1006.5000;0.3305;0.0322;
1006.8000;0.3329;0.0347;
1007.1000;0.3321;0.0371;
1007.4000;0.3337;0.0421;
1007.7000;0.3346;0.0446;
1008.0000;0.3329;0.0470;
1008.3000;0.3321;0.0470;
1008.6000;0.3321;0.0347;
1008.9000;0.3313;0.0347;
1009.2000;0.3321;0.0396;
1009.5000;0.3321;0.0495;
1009.8000;0.3321;0.0495;
1010.1000;0.3354;0.0594;
1010.4000;0.3305;0.0396;
1010.7000;0.3321;0.0396;
1011.0000;0.3321;0.0470;
1011.3000;0.3337;0.0520;
1011.6000;0.3313;0.0421;
1011.9000;0.3321;0.0446;
1012.2000;0.3329;0.0446;
1012.5000;0.3329;0.0446;
1012.8000;0.3337;0.0446;
1013.1000;0.3337;0.0396;
1013.4000;0.3362;0.0446;
1013.7000;0.3272;0.0173;
1014.0000;0.3321;0.0297;
1014.3000;0.3394;0.0545;
1014.6000;0.3321;0.0347;
1014.9000;0.3321;0.0421;
1015.2000;0.3321;0.0272;
1015.5000;0.3240;-0.0050;
1015.8000;0.3256;0.0000;
1016.1000;0.3313;0.0198;
1016.4000;0.3321;0.0173;
1016.7000;0.3305;0.0149;
1017.0000;0.3305;0.0149;
1017.3000;0.3321;0.0149;
1017.6000;0.3321;0.0173;
1017.9000;0.3337;0.0223;
1018.2000;0.3346;0.0223;
1018.5000;0.3346;0.0297;
1018.8000;0.3337;0.0248;
1019.1000;0.3362;0.0248;
1019.4000;0.3354;0.0223;
1019.7000;0.3329;0.0173;
1020.0000;0.3321;0.0223;
1020.3000;0.3329;0.0198;
1020.6000;0.3321;0.0297;
1020.9000;0.3321;0.0347;
1021.2000;0.3329;0.0248;
1021.5000;0.3329;0.0223;
1021.8000;0.3329;0.0272;
1022.1000;0.3305;0.0124;
1022.4000;0.3297;0.0272;
1022.7000;0.3305;0.0371;
1023.0000;0.3321;0.0322;
1023.3000;0.3305;0.0272;
1023.6000;0.3313;0.0322;
1023.9000;0.3305;0.0371;
1024.2000;0.3313;0.0347;
1024.5000;0.3321;0.0347;
1024.8000;0.3321;0.0421;
1025.1000;0.3321;0.0520;
1025.4000;0.3362;0.0570;
1025.7000;0.3329;0.0470;
1026.0000;0.3321;0.0446;
1026.3000;0.3321;0.0347;
1026.6000;0.3329;0.0297;
1026.9000;0.3362;0.0347;
1027.2000;0.3305;0.0198;
1027.5000;0.3313;0.0297;
1027.8000;0.3321;0.0322;
1028.1000;0.3321;0.0371;
1028.4000;0.3313;0.0421;
1028.7000;0.3297;0.0371;
1029.0000;0.3313;0.0396;
1029.3000;0.3305;0.0396;
1029.6000;0.3321;0.0421;
1029.9000;0.3240;0.0074;
1030.2000;0.3337;0.0223;
1030.5000;0.3321;0.0272;
1030.8000;0.3337;0.0173;
1031.1000;0.3394;0.0371;
1031.4000;0.3313;0.0149;
1031.7000;0.3321;0.0124;
1032.0000;0.3403;0.0322;
1032.3000;0.3403;0.0322;
1032.6000;0.3305;0.0124;
1032.9000;0.3248;0.0025;
1033.2000;0.3321;0.0173;
1033.5000;0.3329;0.0173;
1033.8000;0.3321;0.0198;
1034.1000;0.3305;0.0198;
1034.4000;0.3337;0.0371;
1034.7000;0.3305;0.0347;
1035.0000;0.3305;0.0446;
1035.3000;0.3386;0.0470;
1035.6000;0.3305;0.0223;
1035.9000;0.3321;0.0297;
1036.2000;0.3305;0.0322;
1036.5000;0.3321;0.0371;
1036.8000;0.3321;0.0297;
1037.1000;0.3313;0.0248;
1037.4000;0.3256;0.0124;
1037.7000;0.3370;0.0347;
1038.0000;0.3321;0.0297;
1038.3000;0.3313;0.0371;
1038.6000;0.3305;0.0470;
1038.9000;0.3313;0.0594;
1039.2000;0.3337;0.0693;
1039.5000;0.3329;0.0743;
1039.8000;0.3256;0.0520;
1040.1000;0.3321;0.0570;
1040.4000;0.3329;0.0594;
1040.7000;0.3362;0.0644;
1041.0000;0.3329;0.0495;
1041.3000;0.3313;0.0446;
1041.6000;0.3337;0.0446;
1041.9000;0.3313;0.0470;
1042.2000;0.3313;0.0520;
1042.5000;0.3321;0.0570;
1042.8000;0.3305;0.0570;
1043.1000;0.3313;0.0619;
1043.4000;0.3313;0.0693;
1043.7000;0.3289;0.0594;
1044.0000;0.3305;0.0570;
1044.3000;0.3313;0.0644;
1044.6000;0.3305;0.0594;
1044.9000;0.3313;0.0594;
1045.2000;0.3305;0.0495;
1045.5000;0.3313;0.0446;
1045.8000;0.3321;0.0470;
1046.1000;0.3329;0.0495;
1046.4000;0.3321;0.0470;
1046.7000;0.3297;0.0396;
1047.0000;0.3280;0.0322;
1047.3000;0.3337;0.0520;
1047.6000;0.3321;0.0545;
1047.9000;0.3313;0.0520;
1048.2000;0.3313;0.0545;
1048.5000;0.3354;0.0669;
1048.8000;0.3321;0.0619;
1049.1000;0.3346;0.0669;
1049.4000;0.3297;0.0570;
1049.7000;0.3305;0.0545;
1050.0000;0.3313;0.0570;
1050.3000;0.3313;0.0470;
1050.6000;0.3329;0.0545;
1050.9000;0.3305;0.0421;
1051.2000;0.3313;0.0421;
1051.5000;0.3337;0.0446;
1051.8000;0.3305;0.0421;
1052.1000;0.3329;0.0470;
1052.4000;0.3329;0.0371;
1052.7000;0.3329;0.0470;
1053.0000;0.3411;0.0718;
1053.3000;0.3329;0.0446;
1053.6000;0.3321;0.0495;
1053.9000;0.3256;0.0297;
1054.2000;0.3329;0.0470;
1054.5000;0.3297;0.0371;
1054.8000;0.3362;0.0470;
1055.1000;0.3313;0.0347;
1055.4000;0.3329;0.0371;
1055.7000;0.3313;0.0371;
1056.0000;0.3313;0.0371;
1056.3000;0.3305;0.0421;
1056.6000;0.3329;0.0470;
1056.9000;0.3370;0.0644;
1057.2000;0.3289;0.0446;
1057.5000;0.3305;0.0594;
1057.8000;0.3297;0.0470;
1058.1000;0.3321;0.0495;
1058.4000;0.3305;0.0470;
1058.7000;0.3313;0.0470;
1059.0000;0.3305;0.0446;
1059.3000;0.3321;0.0470;
1059.6000;0.3313;0.0371;
1059.9000;0.3321;0.0322;
1060.2000;0.3305;0.0322;
1060.5000;0.3346;0.0248;
1060.8000;0.3362;0.0272;
1061.1000;0.3313;0.0099;
1061.4000;0.3329;0.0099;
1061.7000;0.3443;0.0495;
1062.0000;0.3329;0.0198;
1062.3000;0.3313;0.0223;
1062.6000;0.3329;0.0248;
1062.9000;0.3329;0.0272;
1063.2000;0.3354;0.0272;
1063.5000;0.3337;0.0223;
1063.8000;0.3321;0.0198;
1064.1000;0.3321;0.0173;
1064.4000;0.3354;0.0297;
1064.7000;0.3329;0.0198;
1065.0000;0.3329;0.0347;
1065.3000;0.3329;0.0371;
1065.6000;0.3337;0.0421;
1065.9000;0.3305;0.0322;
1066.2000;0.3305;0.0297;
1066.5000;0.3223;0.0050;
1066.8000;0.3313;0.0272;
1067.1000;0.3337;0.0347;
1067.4000;0.3321;0.0272;
1067.7000;0.3289;0.0223;
1068.0000;0.3264;0.0124;
1068.3000;0.3337;0.0371;
1068.6000;0.3289;0.0272;
1068.9000;0.3313;0.0347;
1069.2000;0.3289;0.0371;
1069.5000;0.3272;0.0396;
1069.8000;0.3305;0.0421;
1070.1000;0.3280;0.0322;
1070.4000;0.3378;0.0545;
1070.7000;0.3370;0.0495;
1071.0000;0.3313;0.0371;
1071.3000;0.3313;0.0371;
1071.6000;0.3305;0.0297;
1071.9000;0.3313;0.0297;
1072.2000;0.3313;0.0198;
1072.5000;0.3321;0.0149;
1072.8000;0.3321;0.0248;
1073.1000;0.3329;0.0272;
1073.4000;0.3321;0.0347;
1073.7000;0.3329;0.0371;
1074.0000;0.3329;0.0347;
1074.3000;0.3321;0.0396;
1074.6000;0.3272;0.0297;
1074.9000;0.3370;0.0446;
1075.2000;0.3321;0.0322;
1075.5000;0.3321;0.0347;
1075.8000;0.3297;0.0322;
1076.1000;0.3313;0.0371;
1076.4000;0.3305;0.0347;
1076.7000;0.3305;0.0396;
1077.0000;0.3329;0.0446;
1077.3000;0.3329;0.0421;
1077.6000;0.3321;0.0371;
1077.9000;0.3321;0.0495;
1078.2000;0.3305;0.0396;
1078.5000;0.3321;0.0371;
1078.8000;0.3313;0.0297;
1079.1000;0.3297;0.0322;
1079.4000;0.3289;0.0272;
1079.7000;0.3297;0.0347;
1080.0000;0.3313;0.0396;
1080.3000;0.3248;0.0198;
1080.6000;0.3297;0.0371;
1080.9000;0.3313;0.0371;
1081.2000;0.3346;0.0470;
1081.5000;0.3305;0.0371;
1081.8000;0.3313;0.0371;
1082.1000;0.3297;0.0322;
1082.4000;0.3370;0.0545;
1082.7000;0.3346;0.0545;
1083.0000;0.3305;0.0470;
1083.3000;0.3264;0.0446;
1083.6000;0.3289;0.0570;
1083.9000;0.3297;0.0520;
1084.2000;0.3305;0.0520;
1084.5000;0.3305;0.0570;
1084.8000;0.3313;0.0594;
1085.1000;0.3321;0.0619;
1085.4000;0.3313;0.0594;
1085.7000;0.3321;0.0570;
1086.0000;0.3321;0.0520;
1086.3000;0.3321;0.0495;
1086.6000;0.3313;0.0396;
1086.9000;0.3313;0.0347;
1087.2000;0.3321;0.0347;
1087.5000;0.3321;0.0371;
1087.8000;0.3313;0.0272;
1088.1000;0.3321;0.0223;
1088.4000;0.3313;0.0248;
1088.7000;0.3305;0.0248;
1089.0000;0.3313;0.0272;
1089.3000;0.3321;0.0272;
1089.6000;0.3297;0.0248;
1089.9000;0.3321;0.0272;
1090.2000;0.3321;0.0248;
1090.5000;0.3321;0.0272;
1090.8000;0.3321;0.0248;
1091.1000;0.3289;0.0173;
1091.4000;0.3305;0.0248;
1091.7000;0.3321;0.0371;
1092.0000;0.3313;0.0371;
1092.3000;0.3297;0.0371;
1092.6000;0.3321;0.0470;
1092.9000;0.3313;0.0446;
1093.2000;0.3248;0.0396;
1093.5000;0.3305;0.0520;
1093.8000;0.3297;0.0520;
1094.1000;0.3297;0.0470;
1094.4000;0.3313;0.0495;
1094.7000;0.3313;0.0520;
1095.0000;0.3313;0.0520;
1095.3000;0.3337;0.0520;
1095.6000;0.3321;0.0470;
1095.9000;0.3313;0.0421;
1096.2000;0.3297;0.0371;
1096.5000;0.3321;0.0421;
1096.8000;0.3313;0.0421;
1097.1000;0.3321;0.0520;
1097.4000;0.3305;0.0594;
1097.7000;0.3297;0.0619;
1098.0000;0.3313;0.0495;
1098.3000;0.3321;0.0545;
1098.6000;0.3313;0.0495;
1098.9000;0.3329;0.0446;
1099.2000;0.3313;0.0322;
1099.5000;0.3329;0.0322;
1099.8000;0.3313;0.0149;
1100.1000;0.3305;0.0198;
1100.4000;0.3321;0.0297;
1100.7000;0.3329;0.0347;
1101.0000;0.3297;0.0272;
1101.3000;0.3321;0.0297;
1101.6000;0.3321;0.0297;
1101.9000;0.3313;0.0322;
1102.2000;0.3313;0.0347;
1102.5000;0.3337;0.0446;
1102.8000;0.3248;0.0248;
1103.1000;0.3280;0.0470;
1103.4000;0.3256;0.0347;
1103.7000;0.3305;0.0371;
1104.0000;0.3280;0.0421;
1104.3000;0.3297;0.0421;
1104.6000;0.3297;0.0396;
1104.9000;0.3305;0.0446;
1105.2000;0.3264;0.0446;
1105.5000;0.3321;0.0594;
1105.8000;0.3313;0.0495;
1106.1000;0.3321;0.0446;
1106.4000;0.3264;0.0371;
1106.7000;0.3297;0.0446;
1107.0000;0.3305;0.0495;
1107.3000;0.3289;0.0446;
1107.6000;0.3313;0.0495;
1107.9000;0.3297;0.0446;
1108.2000;0.3272;0.0396;
1108.5000;0.3289;0.0495;
1108.8000;0.3272;0.0446;
1109.1000;0.3313;0.0470;
1109.4000;0.3321;0.0470;
1109.7000;0.3313;0.0570;
1110.0000;0.3297;0.0520;
1110.3000;0.3313;0.0396;
1110.6000;0.3321;0.0396;
1110.9000;0.3321;0.0446;
1111.2000;0.3329;0.0520;
1111.5000;0.3321;0.0545;
1111.8000;0.3321;0.0545;
1112.1000;0.3321;0.0495;
1112.4000;0.3337;0.0421;
1112.7000;0.3329;0.0421;
1113.0000;0.3305;0.0470;
1113.3000;0.3313;0.0446;
1113.6000;0.3305;0.0470;
1113.9000;0.3305;0.0470;
1114.2000;0.3305;0.0396;
1114.5000;0.3305;0.0446;
1114.8000;0.3321;0.0520;
1115.1000;0.3313;0.0446;
1115.4000;0.3305;0.0371;
1115.7000;0.3297;0.0396;
1116.0000;0.3297;0.0470;
1116.3000;0.3256;0.0322;
1116.6000;0.3313;0.0446;
1116.9000;0.3280;0.0347;
1117.2000;0.3280;0.0347;
1117.5000;0.3297;0.0322;
1117.8000;0.3297;0.0248;
1118.1000;0.3289;0.0198;
1118.4000;0.3280;0.0198;
1118.7000;0.3305;0.0248;
1119.0000;0.3297;0.0223;
1119.3000;0.3313;0.0149;
1119.6000;0.3313;0.0149;
1119.9000;0.3313;0.0173;
1120.2000;0.3297;0.0198;
1120.5000;0.3264;0.0124;
1120.8000;0.3305;0.0223;
1121.1000;0.3297;0.0272;
1121.4000;0.3313;0.0371;
1121.7000;0.3321;0.0347;
1122.0000;0.3337;0.0421;
1122.3000;0.3313;0.0272;
1122.6000;0.3329;0.0322;
1122.9000;0.3354;0.0396;
1123.2000;0.3313;0.0322;
1123.5000;0.3280;0.0297;
1123.8000;0.3313;0.0371;
1124.1000;0.3370;0.0421;
1124.4000;0.3329;0.0396;
1124.7000;0.3313;0.0322;
1125.0000;0.3354;0.0347;
1125.3000;0.3337;0.0223;
1125.6000;0.3305;0.0173;
1125.9000;0.3297;0.0149;
1126.2000;0.3313;0.0223;
1126.5000;0.3297;0.0223;
1126.8000;0.3289;0.0173;
1127.1000;0.3232;0.0025;
1127.4000;0.3297;0.0124;
1127.7000;0.3313;0.0173;
1128.0000;0.3313;0.0173;
1128.3000;0.3305;0.0173;
1128.6000;0.3346;0.0223;
1128.9000;0.3321;0.0173;
1129.2000;0.3297;0.0149;
1129.5000;0.3297;0.0099;
1129.8000;0.3321;0.0198;
1130.1000;0.3297;0.0149;
1130.4000;0.3321;0.0198;
1130.7000;0.3280;0.0198;
1131.0000;0.3297;0.0223;
1131.3000;0.3305;0.0272;
1131.6000;0.3289;0.0223;
1131.9000;0.3289;0.0223;
1132.2000;0.3272;0.0248;
1132.5000;0.3305;0.0322;
1132.8000;0.3313;0.0272;
1133.1000;0.3313;0.0198;
1133.4000;0.3313;0.0297;
1133.7000;0.3305;0.0198;
1134.0000;0.3313;0.0272;
1134.3000;0.3329;0.0272;
1134.6000;0.3321;0.0248;
1134.9000;0.3313;0.0297;
1135.2000;0.3305;0.0272;
1135.5000;0.3313;0.0198;
1135.8000;0.3289;0.0149;
1136.1000;0.3305;0.0173;
1136.4000;0.3337;0.0322;
1136.7000;0.3305;0.0248;
1137.0000;0.3272;0.0124;
1137.3000;0.3289;0.0223;
1137.6000;0.3289;0.0272;
1137.9000;0.3305;0.0248;
1138.2000;0.3264;0.0223;
1138.5000;0.3272;0.0248;
1138.8000;0.3280;0.0347;
1139.1000;0.3289;0.0470;
1139.4000;0.3313;0.0396;
1139.7000;0.3305;0.0371;
1140.0000;0.3305;0.0347;
1140.3000;0.3297;0.0347;
1140.6000;0.3362;0.0446;
1140.9000;0.3305;0.0446;
1141.2000;0.3256;0.0371;
1141.5000;0.3289;0.0545;
1141.8000;0.3289;0.0644;
1142.1000;0.3313;0.0545;
1142.4000;0.3297;0.0470;
1142.7000;0.3297;0.0619;
1143.0000;0.3289;0.0594;
1143.3000;0.3297;0.0594;
1143.6000;0.3297;0.0570;
1143.9000;0.3305;0.0619;
1144.2000;0.3305;0.0669;
1144.5000;0.3305;0.0570;
1144.8000;0.3313;0.0644;
1145.1000;0.3280;0.0545;
1145.4000;0.3305;0.0520;
1145.7000;0.3321;0.0594;
1146.0000;0.3346;0.0619;
1146.3000;0.3313;0.0570;
1146.6000;0.3321;0.0520;
1146.9000;0.3305;0.0470;
1147.2000;0.3289;0.0446;
1147.5000;0.3289;0.0421;
1147.8000;0.3305;0.0371;
1148.1000;0.3264;0.0223;
1148.4000;0.3305;0.0371;
1148.7000;0.3329;0.0446;
1149.0000;0.3321;0.0396;
1149.3000;0.3305;0.0272;
1149.6000;0.3321;0.0297;
1149.9000;0.3248;0.0149;
1150.2000;0.3297;0.0248;
1150.5000;0.3297;0.0173;
1150.8000;0.3297;0.0149;
1151.1000;0.3313;0.0223;
1151.4000;0.3313;0.0099;
1151.7000;0.3305;0.0099;
1152.0000;0.3297;0.0099;
1152.3000;0.3329;0.0223;
1152.6000;0.3354;0.0297;
1152.9000;0.3264;0.0025;
1153.2000;0.3297;0.0099;
1153.5000;0.3297;0.0050;
1153.8000;0.3386;0.0297;
1154.1000;0.3297;0.0074;
1154.4000;0.3297;0.0050;
1154.7000;0.3297;0.0124;
1155.0000;0.3305;0.0124;
1155.3000;0.3280;-0.0050;
1155.6000;0.3289;-0.0074;
1155.9000;0.3321;0.0099;
1156.2000;0.3305;0.0173;
1156.5000;0.3321;0.0149;
1156.8000;0.3321;0.0248;
1157.1000;0.3313;0.0173;
1157.4000;0.3313;0.0248;
1157.7000;0.3337;0.0223;
1158.0000;0.3313;0.0124;
1158.3000;0.3337;0.0149;
1158.6000;0.3313;0.0173;
1158.9000;0.3321;0.0248;
1159.2000;0.3329;0.0223;
1159.5000;0.3305;0.0149;
1159.8000;0.3289;0.0124;
1160.1000;0.3329;0.0173;
1160.4000;0.3289;0.0124;
1160.7000;0.3289;0.0099;
1161.0000;0.3313;0.0099;
1161.3000;0.3321;0.0074;
1161.6000;0.3305;0.0025;
1161.9000;0.3313;0.0025;
1162.2000;0.3297;0.0000;
1162.5000;0.3305;0.0000;
1162.8000;0.3297;0.0000;
1163.1000;0.3232;-0.0272;
1163.4000;0.3297;0.0000;
1163.7000;0.3280;-0.0025;
1164.0000;0.3289;0.0000;
1164.3000;0.3289;0.0050;
1164.6000;0.3280;0.0074;
1164.9000;0.3289;0.0149;
1165.2000;0.3321;0.0198;
1165.5000;0.3305;0.0173;
1165.8000;0.3305;0.0173;
1166.1000;0.3313;0.0198;
1166.4000;0.3329;0.0322;
1166.7000;0.3321;0.0272;
1167.0000;0.3289;0.0124;
1167.3000;0.3305;0.0248;
1167.6000;0.3297;0.0347;
1167.9000;0.3305;0.0272;
1168.2000;0.3297;0.0248;
1168.5000;0.3272;0.0149;
1168.8000;0.3305;0.0223;
1169.1000;0.3297;0.0248;
1169.4000;0.3329;0.0371;
1169.7000;0.3297;0.0272;
1170.0000;0.3289;0.0272;
1170.3000;0.3305;0.0297;
1170.6000;0.3329;0.0446;
1170.9000;0.3297;0.0272;
1171.2000;0.3289;0.0248;
1171.5000;0.3297;0.0322;
1171.8000;0.3451;0.0792;
1172.1000;0.3297;0.0371;
1172.4000;0.3321;0.0272;
1172.7000;0.3313;0.0248;
1173.0000;0.3272;0.0149;
1173.3000;0.3305;0.0322;
1173.6000;0.3297;0.0272;
1173.9000;0.3305;0.0248;
1174.2000;0.3313;0.0223;
1174.5000;0.3305;0.0272;
1174.8000;0.3329;0.0322;
1175.1000;0.3337;0.0347;
1175.4000;0.3289;0.0297;
1175.7000;0.3297;0.0371;
1176.0000;0.3313;0.0446;
1176.3000;0.3280;0.0446;
1176.6000;0.3329;0.0446;
1176.9000;0.3305;0.0421;
1177.2000;0.3297;0.0421;
1177.5000;0.3289;0.0371;
1177.8000;0.3305;0.0421;
1178.1000;0.3280;0.0470;
1178.4000;0.3329;0.0520;
1178.7000;0.3346;0.0446;
1179.0000;0.3305;0.0371;
1179.3000;0.3329;0.0520;
1179.6000;0.3297;0.0495;
1179.9000;0.3289;0.0520;
1180.2000;0.3280;0.0421;
1180.5000;0.3297;0.0421;
1180.8000;0.3264;0.0248;
1181.1000;0.3297;0.0396;
1181.4000;0.3321;0.0446;
1181.7000;0.3313;0.0446;
1182.0000;0.3321;0.0446;
1182.3000;0.3321;0.0322;
1182.6000;0.3305;0.0248;
1182.9000;0.3280;0.0322;
1183.2000;0.3313;0.0371;
1183.5000;0.3272;0.0248;
1183.8000;0.3305;0.0248;
1184.1000;0.3321;0.0248;
1184.4000;0.3313;0.0297;
1184.7000;0.3272;0.0272;
1185.0000;0.3337;0.0396;
1185.3000;0.3264;0.0173;
1185.6000;0.3305;0.0149;
1185.9000;0.3297;0.0149;
1186.2000;0.3297;0.0173;
1186.5000;0.3289;0.0099;
1186.8000;0.3297;0.0272;
1187.1000;0.3289;0.0248;
1187.4000;0.3297;0.0272;
1187.7000;0.3337;0.0347;
1188.0000;0.3394;0.0470;
1188.3000;0.3305;0.0347;
1188.6000;0.3329;0.0322;
1188.9000;0.3321;0.0371;
1189.2000;0.3305;0.0347;
1189.5000;0.3289;0.0322;
1189.8000;0.3280;0.0272;
1190.1000;0.3289;0.0297;
1190.4000;0.3272;0.0322;
1190.7000;0.3297;0.0322;
1191.0000;0.3297;0.0347;
1191.3000;0.3354;0.0421;
1191.6000;0.3297;0.0396;
1191.9000;0.3280;0.0371;
1192.2000;0.3272;0.0421;
1192.5000;0.3321;0.0545;
1192.8000;0.3289;0.0421;
1193.1000;0.3305;0.0446;
1193.4000;0.3297;0.0421;
1193.7000;0.3321;0.0421;
1194.0000;0.3321;0.0371;
1194.3000;0.3354;0.0446;
1194.6000;0.3354;0.0421;
1194.9000;0.3305;0.0322;
1195.2000;0.3321;0.0371;
1195.5000;0.3297;0.0322;
1195.8000;0.3313;0.0371;
1196.1000;0.3305;0.0347;
1196.4000;0.3305;0.0272;
1196.7000;0.3289;0.0272;
1197.0000;0.3289;0.0272;
1197.3000;0.3289;0.0297;
1197.6000;0.3297;0.0223;
1197.9000;0.3289;0.0198;
1198.2000;0.3354;0.0371;
1198.5000;0.3305;0.0198;
1198.8000;0.3264;0.0173;
1199.1000;0.3289;0.0198;
1199.4000;0.3289;0.0173;
1199.7000;0.3248;0.0099;
1200.0000;0.3305;0.0297;
1200.3000;0.3305;0.0272;
1200.6000;0.3305;0.0248;
1200.9000;0.3313;0.0248;
1201.2000;0.3329;0.0322;
1201.5000;0.3289;0.0272;
1201.8000;0.3223;0.0173;
1202.1000;0.3272;0.0347;
1202.4000;0.3289;0.0297;
1202.7000;0.3280;0.0272;
1203.0000;0.3289;0.0248;
1203.3000;0.3297;0.0248;
1203.6000;0.3289;0.0173;
1203.9000;0.3378;0.0470;
1204.2000;0.3313;0.0322;
1204.5000;0.3272;0.0248;
1204.8000;0.3329;0.0619;
1205.1000;0.3329;0.0693;
1205.4000;0.3305;0.0669;
1205.7000;0.3394;0.0916;
1206.0000;0.3305;0.0619;
1206.3000;0.3305;0.0495;
1206.6000;0.3321;0.0594;
1206.9000;0.3305;0.0495;
1207.2000;0.3305;0.0470;
1207.5000;0.3289;0.0371;
1207.8000;0.3305;0.0446;
1208.1000;0.3321;0.0520;
1208.4000;0.3297;0.0495;
1208.7000;0.3289;0.0470;
1209.0000;0.3305;0.0495;
1209.3000;0.3305;0.0470;
1209.6000;0.3305;0.0446;
1209.9000;0.3305;0.0371;
1210.2000;0.3297;0.0396;
1210.5000;0.3305;0.0520;
1210.8000;0.3337;0.0570;
1211.1000;0.3321;0.0545;
1211.4000;0.3313;0.0545;
1211.7000;0.3313;0.0495;
1212.0000;0.3313;0.0446;
1212.3000;0.3394;0.0669;
1212.6000;0.3305;0.0322;
1212.9000;0.3313;0.0371;
1213.2000;0.3313;0.0396;
1213.5000;0.3297;0.0495;
1213.8000;0.3264;0.0446;
1214.1000;0.3313;0.0570;
1214.4000;0.3289;0.0619;
1214.7000;0.3354;0.0644;
1215.0000;0.3305;0.0520;
1215.3000;0.3305;0.0545;
1215.6000;0.3329;0.0570;
1215.9000;0.3313;0.0619;
1216.2000;0.3313;0.0619;
1216.5000;0.3297;0.0545;
1216.8000;0.3313;0.0520;
1217.1000;0.3313;0.0520;
1217.4000;0.3305;0.0421;
1217.7000;0.3313;0.0347;
1218.0000;0.3289;0.0371;
1218.3000;0.3329;0.0470;
1218.6000;0.3297;0.0446;
1218.9000;0.3305;0.0470;
1219.2000;0.3321;0.0421;
1219.5000;0.3297;0.0371;
1219.8000;0.3289;0.0347;
1220.1000;0.3337;0.0396;
1220.4000;0.3297;0.0322;
1220.7000;0.3305;0.0421;
1221.0000;0.3305;0.0421;
1221.3000;0.3321;0.0570;
1221.6000;0.3289;0.0520;
1221.9000;0.3280;0.0520;
1222.2000;0.3272;0.0594;
1222.5000;0.3280;0.0619;
1222.8000;0.3289;0.0644;
1223.1000;0.3289;0.0619;
1223.4000;0.3362;0.0718;
1223.7000;0.3362;0.0669;
1224.0000;0.3313;0.0570;
1224.3000;0.3297;0.0743;
1224.6000;0.3313;0.0792;
1224.9000;0.3313;0.0743;
1225.2000;0.3248;0.0545;
1225.5000;0.3305;0.0570;
1225.8000;0.3280;0.0545;
1226.1000;0.3305;0.0545;
1226.4000;0.3289;0.0570;
1226.7000;0.3280;0.0570;
1227.0000;0.3305;0.0545;
1227.3000;0.3305;0.0545;
1227.6000;0.3321;0.0669;
1227.9000;0.3313;0.0644;
1228.2000;0.3297;0.0570;
1228.5000;0.3297;0.0594;
1228.8000;0.3297;0.0520;
1229.1000;0.3297;0.0520;
1229.4000;0.3289;0.0470;
1229.7000;0.3289;0.0495;
1230.0000;0.3297;0.0495;
1230.3000;0.3305;0.0421;
1230.6000;0.3297;0.0446;
1230.9000;0.3297;0.0520;
1231.2000;0.3305;0.0470;
1231.5000;0.3289;0.0446;
1231.8000;0.3297;0.0371;
1232.1000;0.3297;0.0371;
1232.4000;0.3313;0.0371;
1232.7000;0.3223;0.0173;
1233.0000;0.3272;0.0322;
1233.3000;0.3289;0.0446;
1233.6000;0.3305;0.0470;
1233.9000;0.3321;0.0470;
1234.2000;0.3297;0.0470;
1234.5000;0.3321;0.0495;
1234.8000;0.3313;0.0495;
1235.1000;0.3280;0.0421;
1235.4000;0.3305;0.0421;
1235.7000;0.3297;0.0347;
1236.0000;0.3272;0.0198;
1236.3000;0.3289;0.0347;
1236.6000;0.3305;0.0347;
1236.9000;0.3305;0.0371;
1237.2000;0.3305;0.0322;
1237.5000;0.3313;0.0297;
1237.8000;0.3313;0.0371;
1238.1000;0.3305;0.0322;
1238.4000;0.3289;0.0272;
1238.7000;0.3321;0.0421;
1239.0000;0.3313;0.0421;
1239.3000;0.3297;0.0396;
1239.6000;0.3297;0.0446;
1239.9000;0.3289;0.0545;
1240.2000;0.3297;0.0619;
1240.5000;0.3289;0.0619;
1240.8000;0.3329;0.0619;
1241.1000;0.3297;0.0619;
1241.4000;0.3313;0.0644;
1241.7000;0.3280;0.0446;
1242.0000;0.3313;0.0470;
1242.3000;0.3248;0.0396;
1242.6000;0.3305;0.0520;
1242.9000;0.3321;0.0594;
1243.2000;0.3313;0.0570;
1243.5000;0.3313;0.0570;
1243.8000;0.3313;0.0520;
1244.1000;0.3305;0.0446;
1244.4000;0.3321;0.0470;
1244.7000;0.3297;0.0520;
1245.0000;0.3280;0.0570;
1245.3000;0.3199;0.0520;
1245.6000;0.3313;0.0718;
1245.9000;0.3305;0.0669;
1246.2000;0.3289;0.0644;
1246.5000;0.3297;0.0644;
1246.8000;0.3305;0.0743;
1247.1000;0.3305;0.0817;
1247.4000;0.3280;0.0792;
1247.7000;0.3329;0.0867;
1248.0000;0.3289;0.0718;
1248.3000;0.3305;0.0594;
1248.6000;0.3313;0.0570;
1248.9000;0.3313;0.0570;
1249.2000;0.3305;0.0594;
1249.5000;0.3321;0.0594;
1249.8000;0.3329;0.0644;
1250.1000;0.3313;0.0545;
1250.4000;0.3313;0.0545;
1250.7000;0.3337;0.0545;
1251.0000;0.3329;0.0520;
1251.3000;0.3321;0.0446;
1251.6000;0.3305;0.0545;
1251.9000;0.3321;0.0520;
1252.2000;0.3313;0.0495;
1252.5000;0.3321;0.0570;
1252.8000;0.3313;0.0570;
1253.1000;0.3280;0.0570;
1253.4000;0.3297;0.0570;
1253.7000;0.3297;0.0520;
1254.0000;0.3297;0.0545;
1254.3000;0.3305;0.0495;
1254.6000;0.3305;0.0446;
1254.9000;0.3313;0.0446;
1255.2000;0.3313;0.0495;
1255.5000;0.3321;0.0470;
1255.8000;0.3313;0.0545;
1256.1000;0.3329;0.0693;
1256.4000;0.3337;0.0669;
1256.7000;0.3313;0.0619;
1257.0000;0.3280;0.0545;
1257.3000;0.3321;0.0594;
1257.6000;0.3305;0.0495;
1257.9000;0.3329;0.0594;
1258.2000;0.3256;0.0396;
1258.5000;0.3289;0.0371;
1258.8000;0.3248;0.0248;
1259.1000;0.3272;0.0371;
1259.4000;0.3289;0.0446;
1259.7000;0.3272;0.0421;
1260.0000;0.3289;0.0495;
1260.3000;0.3297;0.0570;
1260.6000;0.3280;0.0570;
1260.9000;0.3305;0.0594;
1261.2000;0.3297;0.0520;
1261.5000;0.3305;0.0520;
1261.8000;0.3346;0.0693;
1262.1000;0.3305;0.0520;
1262.4000;0.3297;0.0594;
1262.7000;0.3289;0.0470;
1263.0000;0.3280;0.0421;
1263.3000;0.3297;0.0421;
1263.6000;0.3264;0.0396;
1263.9000;0.3289;0.0396;
1264.2000;0.3289;0.0347;
1264.5000;0.3207;0.0198;
1264.8000;0.3329;0.0470;
1265.1000;0.3305;0.0470;
1265.4000;0.3305;0.0470;
1265.7000;0.3321;0.0495;
1266.0000;0.3329;0.0495;
1266.3000;0.3313;0.0495;
1266.6000;0.3329;0.0619;
1266.9000;0.3297;0.0545;
1267.2000;0.3337;0.0594;
1267.5000;0.3289;0.0495;
1267.8000;0.3313;0.0520;
1268.1000;0.3313;0.0446;
1268.4000;0.3289;0.0470;
1268.7000;0.3272;0.0470;
1269.0000;0.3305;0.0545;
1269.3000;0.3313;0.0495;
1269.6000;0.3240;0.0322;
1269.9000;0.3297;0.0470;
1270.2000;0.3289;0.0421;
1270.5000;0.3264;0.0421;
1270.8000;0.3272;0.0396;
1271.1000;0.3297;0.0396;
1271.4000;0.3264;0.0396;
1271.7000;0.3232;0.0248;
1272.0000;0.3313;0.0421;
1272.3000;0.3264;0.0297;
1272.6000;0.3305;0.0371;
1272.9000;0.3297;0.0322;
1273.2000;0.3313;0.0371;
1273.5000;0.3297;0.0322;
1273.8000;0.3289;0.0347;
1274.1000;0.3297;0.0421;
1274.4000;0.3297;0.0396;
1274.7000;0.3297;0.0396;
1275.0000;0.3297;0.0470;
1275.3000;0.3305;0.0570;
1275.6000;0.3297;0.0594;
1275.9000;0.3313;0.0570;
1276.2000;0.3297;0.0644;
1276.5000;0.3313;0.0545;
1276.8000;0.3297;0.0495;
1277.1000;0.3297;0.0446;
1277.4000;0.3313;0.0371;
1277.7000;0.3289;0.0520;
1278.0000;0.3289;0.0347;
1278.3000;0.3297;0.0297;
1278.6000;0.3280;0.0297;
1278.9000;0.3313;0.0396;
1279.2000;0.3289;0.0248;
1279.5000;0.3289;0.0272;
1279.8000;0.3297;0.0347;
1280.1000;0.3272;0.0272;
1280.4000;0.3305;0.0396;
1280.7000;0.3305;0.0371;
1281.0000;0.3280;0.0396;
1281.3000;0.3305;0.0495;
1281.6000;0.3280;0.0446;
1281.9000;0.3297;0.0421;
1282.2000;0.3272;0.0396;
1282.5000;0.3297;0.0470;
1282.8000;0.3289;0.0545;
1283.1000;0.3297;0.0570;
1283.4000;0.3305;0.0594;
1283.7000;0.3289;0.0594;
1284.0000;0.3305;0.0669;
1284.3000;0.3313;0.0693;
1284.6000;0.3321;0.0693;
1284.9000;0.3280;0.0619;
1285.2000;0.3297;0.0718;
1285.5000;0.3305;0.0768;
1285.8000;0.3280;0.0644;
1286.1000;0.3289;0.0570;
1286.4000;0.3280;0.0545;
1286.7000;0.3248;0.0470;
1287.0000;0.3289;0.0644;
1287.3000;0.3329;0.0768;
1287.6000;0.3280;0.0644;
1287.9000;0.3297;0.0570;
1288.2000;0.3305;0.0495;
1288.5000;0.3305;0.0520;
1288.8000;0.3297;0.0446;
1289.1000;0.3289;0.0446;
1289.4000;0.3321;0.0446;
1289.7000;0.3313;0.0421;
1290.0000;0.3297;0.0297;
1290.3000;0.3297;0.0347;
1290.6000;0.3297;0.0272;
1290.9000;0.3305;0.0347;
1291.2000;0.3305;0.0347;
1291.5000;0.3272;0.0322;
1291.8000;0.3305;0.0371;
1292.1000;0.3289;0.0297;
1292.4000;0.3321;0.0297;
1292.7000;0.3272;0.0248;
1293.0000;0.3313;0.0347;
1293.3000;0.3289;0.0297;
1293.6000;0.3305;0.0371;
1293.9000;0.3370;0.0520;
1294.2000;0.3305;0.0347;
1294.5000;0.3305;0.0322;
1294.8000;0.3289;0.0272;
1295.1000;0.3313;0.0371;
1295.4000;0.3297;0.0396;
1295.7000;0.3329;0.0495;
1296.0000;0.3313;0.0470;
1296.3000;0.3289;0.0421;
1296.6000;0.3289;0.0421;
1296.9000;0.3256;0.0421;
1297.2000;0.3297;0.0594;
1297.5000;0.3297;0.0520;
1297.8000;0.3297;0.0545;
1298.1000;0.3313;0.0570;
1298.4000;0.3289;0.0520;
1298.7000;0.3313;0.0545;
1299.0000;0.3305;0.0470;
1299.3000;0.3297;0.0446;
1299.6000;0.3321;0.0470;
1299.9000;0.3280;0.0396;
1300.2000;0.3297;0.0371;
1300.5000;0.3297;0.0421;
1300.8000;0.3297;0.0371;
1301.1000;0.3289;0.0272;
1301.4000;0.3305;0.0322;
1301.7000;0.3272;0.0371;
1302.0000;0.3305;0.0446;
1302.3000;0.3321;0.0470;
1302.6000;0.3313;0.0421;
1302.9000;0.3313;0.0520;
1303.2000;0.3313;0.0545;
1303.5000;0.3305;0.0520;
1303.8000;0.3313;0.0570;
1304.1000;0.3297;0.0470;
1304.4000;0.3289;0.0446;
1304.7000;0.3289;0.0495;
1305.0000;0.3313;0.0594;
1305.3000;0.3280;0.0570;
1305.6000;0.3289;0.0570;
1305.9000;0.3297;0.0520;
1306.2000;0.3313;0.0545;
1306.5000;0.3289;0.0520;
1306.8000;0.3280;0.0421;
1307.1000;0.3297;0.0371;
1307.4000;0.3305;0.0396;
1307.7000;0.3297;0.0421;
1308.0000;0.3289;0.0371;
1308.3000;0.3305;0.0446;
1308.6000;0.3313;0.0446;
1308.9000;0.3297;0.0421;
1309.2000;0.3297;0.0322;
1309.5000;0.3337;0.0421;
1309.8000;0.3313;0.0371;
1310.1000;0.3305;0.0371;
1310.4000;0.3280;0.0297;
1310.7000;0.3297;0.0347;
1311.0000;0.3289;0.0322;
1311.3000;0.3305;0.0396;
1311.6000;0.3370;0.0545;
1311.9000;0.3305;0.0347;
1312.2000;0.3232;0.0173;
1312.5000;0.3289;0.0248;
1312.8000;0.3289;0.0149;
1313.1000;0.3289;0.0248;
1313.4000;0.3305;0.0347;
1313.7000;0.3280;0.0248;
1314.0000;0.3313;0.0347;
1314.3000;0.3313;0.0322;
1314.6000;0.3289;0.0223;
1314.9000;0.3289;0.0248;
1315.2000;0.3289;0.0248;
1315.5000;0.3297;0.0198;
1315.8000;0.3289;0.0272;
1316.1000;0.3305;0.0223;
1316.4000;0.3289;0.0198;
1316.7000;0.3305;0.0223;
1317.0000;0.3289;0.0198;
1317.3000;0.3313;0.0297;
1317.6000;0.3329;0.0470;
1317.9000;0.3329;0.0495;
1318.2000;0.3297;0.0421;
1318.5000;0.3264;0.0347;
1318.8000;0.3272;0.0446;
1319.1000;0.3297;0.0495;
1319.4000;0.3280;0.0446;
1319.7000;0.3297;0.0470;
1320.0000;0.3297;0.0520;
1320.3000;0.3289;0.0545;
1320.6000;0.3297;0.0594;
1320.9000;0.3232;0.0347;
1321.2000;0.3297;0.0421;
1321.5000;0.3305;0.0421;
1321.8000;0.3305;0.0446;
1322.1000;0.3289;0.0347;
1322.4000;0.3280;0.0322;
1322.7000;0.3305;0.0371;
1323.0000;0.3289;0.0371;
1323.3000;0.3313;0.0446;
1323.6000;0.3297;0.0446;
1323.9000;0.3305;0.0470;
1324.2000;0.3313;0.0495;
1324.5000;0.3313;0.0495;
1324.8000;0.3297;0.0446;
1325.1000;0.3289;0.0446;
1325.4000;0.3297;0.0495;
1325.7000;0.3297;0.0520;
1326.0000;0.3289;0.0470;
1326.3000;0.3289;0.0495;
1326.6000;0.3313;0.0545;
1326.9000;0.3313;0.0545;
1327.2000;0.3256;0.0470;
1327.5000;0.3289;0.0545;
1327.8000;0.3297;0.0570;
1328.1000;0.3313;0.0693;
1328.4000;0.3313;0.0693;
1328.7000;0.3289;0.0669;
1329.0000;0.3289;0.0693;
1329.3000;0.3280;0.0743;
1329.6000;0.3297;0.0792;
1329.9000;0.3297;0.0743;
1330.2000;0.3272;0.0693;
1330.5000;0.3248;0.0446;
1330.8000;0.3313;0.0570;
1331.1000;0.3289;0.0520;
1331.4000;0.3289;0.0520;
1331.7000;0.3272;0.0545;
1332.0000;0.3305;0.0545;
1332.3000;0.3337;0.0619;
1332.6000;0.3297;0.0545;
1332.9000;0.3280;0.0495;
1333.2000;0.3289;0.0594;
1333.5000;0.3256;0.0594;
1333.8000;0.3289;0.0619;
1334.1000;0.3280;0.0520;
1334.4000;0.3289;0.0396;
1334.7000;0.3370;0.0594;
1335.0000;0.3313;0.0347;
1335.3000;0.3329;0.0347;
1335.6000;0.3289;0.0272;
1335.9000;0.3280;0.0223;
1336.2000;0.3305;0.0272;
1336.5000;0.3305;0.0322;
1336.8000;0.3337;0.0421;
1337.1000;0.3280;0.0198;
1337.4000;0.3280;0.0272;
1337.7000;0.3354;0.0470;
1338.0000;0.3305;0.0322;
1338.3000;0.3280;0.0272;
1338.6000;0.3362;0.0396;
1338.9000;0.3297;0.0322;
1339.2000;0.3329;0.0446;
1339.5000;0.3337;0.0470;
1339.8000;0.3305;0.0347;
1340.1000;0.3305;0.0371;
1340.4000;0.3289;0.0347;
1340.7000;0.3289;0.0371;
1341.0000;0.3289;0.0347;
1341.3000;0.3354;0.0495;
1341.6000;0.3297;0.0297;
1341.9000;0.3305;0.0371;
1342.2000;0.3321;0.0446;
1342.5000;0.3297;0.0396;
1342.8000;0.3305;0.0446;
1343.1000;0.3297;0.0396;
1343.4000;0.3256;0.0347;
1343.7000;0.3297;0.0495;
1344.0000;0.3297;0.0495;
1344.3000;0.3289;0.0545;
1344.6000;0.3313;0.0545;
1344.9000;0.3305;0.0644;
1345.2000;0.3297;0.0693;
1345.5000;0.3264;0.0594;
1345.8000;0.3280;0.0545;
1346.1000;0.3297;0.0570;
1346.4000;0.3313;0.0495;
1346.7000;0.3313;0.0396;
1347.0000;0.3297;0.0322;
1347.3000;0.3280;0.0322;
1347.6000;0.3280;0.0272;
1347.9000;0.3297;0.0297;
1348.2000;0.3297;0.0198;
1348.5000;0.3289;0.0223;
1348.8000;0.3297;0.0248;
1349.1000;0.3305;0.0322;
1349.4000;0.3289;0.0297;
1349.7000;0.3297;0.0347;
1350.0000;0.3329;0.0446;
1350.3000;0.3264;0.0371;
1350.6000;0.3289;0.0371;
1350.9000;0.3297;0.0470;
1351.2000;0.3289;0.0495;
1351.5000;0.3297;0.0520;
1351.8000;0.3305;0.0446;
1352.1000;0.3280;0.0371;
1352.4000;0.3289;0.0347;
1352.7000;0.3297;0.0396;
1353.0000;0.3313;0.0371;
1353.3000;0.3280;0.0297;
1353.6000;0.3280;0.0347;
1353.9000;0.3297;0.0347;
1354.2000;0.3305;0.0272;
1354.5000;0.3297;0.0223;
1354.8000;0.3264;0.0050;
1355.1000;0.3297;0.0223;
1355.4000;0.3297;0.0272;
1355.7000;0.3305;0.0297;
1356.0000;0.3280;0.0248;
1356.3000;0.3289;0.0322;
1356.6000;0.3289;0.0297;
1356.9000;0.3289;0.0347;
1357.2000;0.3297;0.0322;
1357.5000;0.3386;0.0545;
1357.8000;0.3297;0.0297;
1358.1000;0.3305;0.0347;
1358.4000;0.3248;0.0223;
1358.7000;0.3264;0.0297;
1359.0000;0.3256;0.0322;
1359.3000;0.3297;0.0495;
1359.6000;0.3289;0.0470;
1359.9000;0.3248;0.0272;
1360.2000;0.3305;0.0421;
1360.5000;0.3313;0.0446;
1360.8000;0.3289;0.0396;
1361.1000;0.3321;0.0446;
1361.4000;0.3305;0.0396;
1361.7000;0.3297;0.0446;
1362.0000;0.3362;0.0545;
1362.3000;0.3289;0.0396;
1362.6000;0.3289;0.0495;
1362.9000;0.3362;0.0792;
1363.2000;0.3248;0.0545;
1363.5000;0.3305;0.0718;
1363.8000;0.3272;0.0545;
1364.1000;0.3305;0.0594;
1364.4000;0.3313;0.0644;
1364.7000;0.3313;0.0619;
1365.0000;0.3297;0.0570;
1365.3000;0.3411;0.0941;
1365.6000;0.3297;0.0644;
1365.9000;0.3313;0.0619;
1366.2000;0.3289;0.0520;
1366.5000;0.3305;0.0520;
1366.8000;0.3297;0.0446;
1367.1000;0.3297;0.0396;
1367.4000;0.3289;0.0322;
1367.7000;0.3264;0.0272;
1368.0000;0.3313;0.0371;
1368.3000;0.3346;0.0520;
1368.6000;0.3240;0.0248;
1368.9000;0.3289;0.0421;
1369.2000;0.3305;0.0446;
1369.5000;0.3321;0.0470;
1369.8000;0.3305;0.0446;
1370.1000;0.3305;0.0495;
1370.4000;0.3305;0.0396;
1370.7000;0.3297;0.0272;
1371.0000;0.3280;0.0223;
1371.3000;0.3305;0.0272;
1371.6000;0.3305;0.0272;
1371.9000;0.3321;0.0347;
1372.2000;0.3337;0.0396;
1372.5000;0.3321;0.0421;
1372.8000;0.3305;0.0495;
1373.1000;0.3305;0.0495;
1373.4000;0.3297;0.0545;
1373.7000;0.3289;0.0520;
1374.0000;0.3305;0.0594;
1374.3000;0.3289;0.0545;
1374.6000;0.3297;0.0470;
1374.9000;0.3313;0.0545;
1375.2000;0.3264;0.0495;
1375.5000;0.3280;0.0619;
1375.8000;0.3297;0.0644;
1376.1000;0.3297;0.0669;
1376.4000;0.3313;0.0669;
1376.7000;0.3305;0.0644;
1377.0000;0.3280;0.0545;
1377.3000;0.3305;0.0669;
1377.6000;0.3329;0.0570;
1377.9000;0.3305;0.0446;
1378.2000;0.3289;0.0470;
1378.5000;0.3289;0.0446;
1378.8000;0.3313;0.0570;
1379.1000;0.3313;0.0520;
1379.4000;0.3297;0.0495;
1379.7000;0.3289;0.0495;
1380.0000;0.3272;0.0446;
1380.3000;0.3305;0.0545;
1380.6000;0.3289;0.0545;
1380.9000;0.3289;0.0495;
1381.2000;0.3289;0.0520;
1381.5000;0.3305;0.0470;
1381.8000;0.3313;0.0421;
1382.1000;0.3280;0.0421;
1382.4000;0.3297;0.0371;
1382.7000;0.3305;0.0297;
1383.0000;0.3329;0.0371;
1383.3000;0.3280;0.0272;
1383.6000;0.3321;0.0347;
1383.9000;0.3321;0.0421;
1384.2000;0.3264;0.0297;
1384.5000;0.3305;0.0297;
1384.8000;0.3223;0.0124;
1385.1000;0.3297;0.0396;
1385.4000;0.3272;0.0347;
1385.7000;0.3272;0.0347;
1386.0000;0.3297;0.0470;
1386.3000;0.3313;0.0520;
1386.6000;0.3297;0.0421;
1386.9000;0.3305;0.0495;
1387.2000;0.3297;0.0545;
1387.5000;0.3297;0.0619;
1387.8000;0.3272;0.0520;
1388.1000;0.3297;0.0594;
1388.4000;0.3289;0.0570;
1388.7000;0.3297;0.0520;
1389.0000;0.3297;0.0520;
1389.3000;0.3289;0.0470;
1389.6000;0.3280;0.0421;
1389.9000;0.3280;0.0421;
1390.2000;0.3297;0.0421;
1390.5000;0.3297;0.0470;
1390.8000;0.3280;0.0396;
1391.1000;0.3297;0.0446;
1391.4000;0.3280;0.0421;
1391.7000;0.3289;0.0446;
1392.0000;0.3289;0.0421;
1392.3000;0.3280;0.0470;
1392.6000;0.3297;0.0495;
1392.9000;0.3305;0.0495;
1393.2000;0.3305;0.0470;
1393.5000;0.3280;0.0570;
1393.8000;0.3297;0.0619;
1394.1000;0.3289;0.0619;
1394.4000;0.3280;0.0693;
1394.7000;0.3297;0.0619;
1395.0000;0.3272;0.0594;
1395.3000;0.3297;0.0669;
1395.6000;0.3289;0.0644;
1395.9000;0.3289;0.0669;
1396.2000;0.3289;0.0693;
1396.5000;0.3297;0.0669;
1396.8000;0.3305;0.0644;
1397.1000;0.3305;0.0619;
1397.4000;0.3305;0.0669;
1397.7000;0.3289;0.0570;
1398.0000;0.3289;0.0570;
1398.3000;0.3297;0.0619;
1398.6000;0.3297;0.0594;
1398.9000;0.3289;0.0594;
1399.2000;0.3289;0.0545;
1399.5000;0.3289;0.0594;
1399.8000;0.3280;0.0619;
