time/ms;Fluo/V;P700 deltaI/I x10³;
-199.8000;0.4371;0.0272;
-199.5000;0.4355;0.0272;
-199.2000;0.4396;0.0347;
-198.9000;0.4330;0.0248;
-198.6000;0.4322;0.0297;
-198.3000;0.4371;0.0421;
-198.0000;0.4387;0.0495;
-197.7000;0.4347;0.0421;
-197.4000;0.4339;0.0446;
-197.1000;0.4363;0.0470;
-196.8000;0.4298;0.0297;
-196.5000;0.4347;0.0371;
-196.2000;0.4355;0.0322;
-195.9000;0.4355;0.0322;
-195.6000;0.4412;0.0520;
-195.3000;0.4363;0.0421;
-195.0000;0.4363;0.0396;
-194.7000;0.4355;0.0347;
-194.4000;0.4355;0.0322;
-194.1000;0.4355;0.0322;
-193.8000;0.4371;0.0297;
-193.5000;0.4420;0.0371;
-193.2000;0.4371;0.0223;
-192.9000;0.4347;0.0272;
-192.6000;0.4396;0.0421;
-192.3000;0.4347;0.0248;
-192.0000;0.4347;0.0223;
-191.7000;0.4355;0.0248;
-191.4000;0.4330;0.0124;
-191.1000;0.4355;0.0124;
-190.8000;0.4404;0.0223;
-190.5000;0.4387;0.0223;
-190.2000;0.4371;0.0223;
-189.9000;0.4355;0.0272;
-189.6000;0.4355;0.0322;
-189.3000;0.4444;0.0545;
-189.0000;0.4363;0.0297;
-188.7000;0.4330;0.0248;
-188.4000;0.4306;0.0074;
-188.1000;0.4363;0.0322;
-187.8000;0.4363;0.0347;
-187.5000;0.4371;0.0396;
-187.2000;0.4363;0.0396;
-186.9000;0.4363;0.0421;
-186.6000;0.4444;0.0644;
-186.3000;0.4347;0.0347;
-186.0000;0.4339;0.0371;
-185.7000;0.4371;0.0470;
-185.4000;0.4379;0.0421;
-185.1000;0.4322;0.0248;
-184.8000;0.4363;0.0297;
-184.5000;0.4347;0.0297;
-184.2000;0.4420;0.0446;
-183.9000;0.4371;0.0322;
-183.6000;0.4363;0.0297;
-183.3000;0.4371;0.0396;
-183.0000;0.4371;0.0371;
-182.7000;0.4363;0.0347;
-182.4000;0.4314;0.0198;
-182.1000;0.4330;0.0297;
-181.8000;0.4371;0.0396;
-181.5000;0.4387;0.0396;
-181.2000;0.4355;0.0322;
-180.9000;0.4355;0.0322;
-180.6000;0.4355;0.0371;
-180.3000;0.4363;0.0421;
-180.0000;0.4347;0.0421;
-179.7000;0.4363;0.0470;
-179.4000;0.4355;0.0495;
-179.1000;0.4347;0.0495;
-178.8000;0.4371;0.0545;
-178.5000;0.4355;0.0470;
-178.2000;0.4371;0.0396;
-177.9000;0.4355;0.0446;
-177.6000;0.4355;0.0396;
-177.3000;0.4306;0.0248;
-177.0000;0.4330;0.0248;
-176.7000;0.4355;0.0347;
-176.4000;0.4347;0.0495;
-176.1000;0.4379;0.0520;
-175.8000;0.4363;0.0520;
-175.5000;0.4347;0.0570;
-175.2000;0.4387;0.0570;
-174.9000;0.4371;0.0446;
-174.6000;0.4339;0.0421;
-174.3000;0.4355;0.0470;
-174.0000;0.4371;0.0347;
-173.7000;0.4347;0.0470;
-173.4000;0.4347;0.0396;
-173.1000;0.4355;0.0396;
-172.8000;0.4371;0.0495;
-172.5000;0.4355;0.0594;
-172.2000;0.4355;0.0594;
-171.9000;0.4339;0.0570;
-171.6000;0.4363;0.0644;
-171.3000;0.4355;0.0644;
-171.0000;0.4355;0.0619;
-170.7000;0.4339;0.0421;
-170.4000;0.4355;0.0396;
-170.1000;0.4355;0.0396;
-169.8000;0.4371;0.0470;
-169.5000;0.4371;0.0545;
-169.2000;0.4428;0.0693;
-168.9000;0.4363;0.0495;
-168.6000;0.4396;0.0545;
-168.3000;0.4339;0.0371;
-168.0000;0.4355;0.0371;
-167.7000;0.4363;0.0371;
-167.4000;0.4363;0.0421;
-167.1000;0.4363;0.0371;
-166.8000;0.4363;0.0396;
-166.5000;0.4330;0.0322;
-166.2000;0.4347;0.0470;
-165.9000;0.4371;0.0446;
-165.6000;0.4322;0.0421;
-165.3000;0.4339;0.0470;
-165.0000;0.4339;0.0396;
-164.7000;0.4355;0.0396;
-164.4000;0.4330;0.0248;
-164.1000;0.4355;0.0149;
-163.8000;0.4347;0.0149;
-163.5000;0.4355;0.0099;
-163.2000;0.4355;0.0149;
-162.9000;0.4347;0.0173;
-162.6000;0.4355;0.0198;
-162.3000;0.4363;0.0173;
-162.0000;0.4355;0.0223;
-161.7000;0.4371;0.0272;
-161.4000;0.4339;0.0223;
-161.1000;0.4322;0.0149;
-160.8000;0.4379;0.0347;
-160.5000;0.4355;0.0248;
-160.2000;0.4355;0.0248;
-159.9000;0.4339;0.0248;
-159.6000;0.4347;0.0248;
-159.3000;0.4371;0.0322;
-159.0000;0.4347;0.0347;
-158.7000;0.4339;0.0371;
-158.4000;0.4330;0.0248;
-158.1000;0.4347;0.0322;
-157.8000;0.4355;0.0371;
-157.5000;0.4379;0.0446;
-157.2000;0.4363;0.0446;
-156.9000;0.4363;0.0470;
-156.6000;0.4371;0.0520;
-156.3000;0.4363;0.0396;
-156.0000;0.4347;0.0272;
-155.7000;0.4347;0.0223;
-155.4000;0.4339;0.0149;
-155.1000;0.4306;0.0074;
-154.8000;0.4330;0.0124;
-154.5000;0.4355;0.0272;
-154.2000;0.4330;0.0223;
-153.9000;0.4330;0.0347;
-153.6000;0.4355;0.0446;
-153.3000;0.4347;0.0470;
-153.0000;0.4355;0.0421;
-152.7000;0.4371;0.0347;
-152.4000;0.4363;0.0272;
-152.1000;0.4355;0.0297;
-151.8000;0.4363;0.0371;
-151.5000;0.4420;0.0545;
-151.2000;0.4371;0.0421;
-150.9000;0.4420;0.0594;
-150.6000;0.4355;0.0421;
-150.3000;0.4371;0.0421;
-150.0000;0.4347;0.0322;
-149.7000;0.4387;0.0446;
-149.4000;0.4363;0.0446;
-149.1000;0.4371;0.0520;
-148.8000;0.4330;0.0446;
-148.5000;0.4322;0.0396;
-148.2000;0.4371;0.0495;
-147.9000;0.4387;0.0570;
-147.6000;0.4363;0.0446;
-147.3000;0.4363;0.0495;
-147.0000;0.4396;0.0570;
-146.7000;0.4330;0.0347;
-146.4000;0.4371;0.0446;
-146.1000;0.4355;0.0371;
-145.8000;0.4355;0.0396;
-145.5000;0.4355;0.0371;
-145.2000;0.4306;0.0149;
-144.9000;0.4355;0.0248;
-144.6000;0.4396;0.0347;
-144.3000;0.4330;0.0173;
-144.0000;0.4363;0.0297;
-143.7000;0.4339;0.0322;
-143.4000;0.4347;0.0396;
-143.1000;0.4330;0.0371;
-142.8000;0.4347;0.0371;
-142.5000;0.4363;0.0322;
-142.2000;0.4355;0.0347;
-141.9000;0.4322;0.0272;
-141.6000;0.4355;0.0371;
-141.3000;0.4363;0.0297;
-141.0000;0.4363;0.0297;
-140.7000;0.4355;0.0248;
-140.4000;0.4347;0.0272;
-140.1000;0.4347;0.0223;
-139.8000;0.4347;0.0347;
-139.5000;0.4347;0.0371;
-139.2000;0.4330;0.0421;
-138.9000;0.4355;0.0396;
-138.6000;0.4355;0.0322;
-138.3000;0.4347;0.0347;
-138.0000;0.4347;0.0272;
-137.7000;0.4347;0.0248;
-137.4000;0.4363;0.0198;
-137.1000;0.4347;0.0198;
-136.8000;0.4371;0.0272;
-136.5000;0.4404;0.0347;
-136.2000;0.4363;0.0223;
-135.9000;0.4347;0.0198;
-135.6000;0.4363;0.0272;
-135.3000;0.4363;0.0322;
-135.0000;0.4363;0.0322;
-134.7000;0.4379;0.0322;
-134.4000;0.4347;0.0248;
-134.1000;0.4347;0.0248;
-133.8000;0.4330;0.0297;
-133.5000;0.4396;0.0371;
-133.2000;0.4347;0.0248;
-132.9000;0.4363;0.0322;
-132.6000;0.4347;0.0322;
-132.3000;0.4339;0.0297;
-132.0000;0.4347;0.0371;
-131.7000;0.4347;0.0347;
-131.4000;0.4330;0.0347;
-131.1000;0.4347;0.0371;
-130.8000;0.4355;0.0322;
-130.5000;0.4339;0.0297;
-130.2000;0.4347;0.0347;
-129.9000;0.4355;0.0371;
-129.6000;0.4387;0.0545;
-129.3000;0.4339;0.0470;
-129.0000;0.4339;0.0396;
-128.7000;0.4355;0.0396;
-128.4000;0.4355;0.0470;
-128.1000;0.4387;0.0619;
-127.8000;0.4339;0.0545;
-127.5000;0.4387;0.0669;
-127.2000;0.4347;0.0594;
-126.9000;0.4363;0.0594;
-126.6000;0.4330;0.0570;
-126.3000;0.4339;0.0594;
-126.0000;0.4339;0.0644;
-125.7000;0.4347;0.0594;
-125.4000;0.4363;0.0594;
-125.1000;0.4404;0.0669;
-124.8000;0.4322;0.0545;
-124.5000;0.4428;0.0768;
-124.2000;0.4347;0.0545;
-123.9000;0.4355;0.0495;
-123.6000;0.4396;0.0545;
-123.3000;0.4355;0.0470;
-123.0000;0.4363;0.0545;
-122.7000;0.4428;0.0693;
-122.4000;0.4314;0.0446;
-122.1000;0.4355;0.0545;
-121.8000;0.4379;0.0545;
-121.5000;0.4355;0.0495;
-121.2000;0.4330;0.0421;
-120.9000;0.4347;0.0347;
-120.6000;0.4355;0.0396;
-120.3000;0.4347;0.0322;
-120.0000;0.4347;0.0248;
-119.7000;0.4363;0.0272;
-119.4000;0.4371;0.0347;
-119.1000;0.4330;0.0396;
-118.8000;0.4363;0.0570;
-118.5000;0.4355;0.0520;
-118.2000;0.4355;0.0545;
-117.9000;0.4371;0.0470;
-117.6000;0.4371;0.0470;
-117.3000;0.4363;0.0371;
-117.0000;0.4355;0.0272;
-116.7000;0.4347;0.0322;
-116.4000;0.4355;0.0297;
-116.1000;0.4322;0.0198;
-115.8000;0.4355;0.0248;
-115.5000;0.4379;0.0297;
-115.2000;0.4355;0.0248;
-114.9000;0.4322;0.0248;
-114.6000;0.4339;0.0223;
-114.3000;0.4379;0.0371;
-114.0000;0.4363;0.0297;
-113.7000;0.4363;0.0223;
-113.4000;0.4363;0.0272;
-113.1000;0.4371;0.0297;
-112.8000;0.4363;0.0297;
-112.5000;0.4355;0.0347;
-112.2000;0.4355;0.0371;
-111.9000;0.4363;0.0495;
-111.6000;0.4282;0.0322;
-111.3000;0.4363;0.0594;
-111.0000;0.4347;0.0570;
-110.7000;0.4355;0.0644;
-110.4000;0.4379;0.0644;
-110.1000;0.4347;0.0495;
-109.8000;0.4428;0.0644;
-109.5000;0.4347;0.0470;
-109.2000;0.4355;0.0396;
-108.9000;0.4412;0.0495;
-108.6000;0.4347;0.0347;
-108.3000;0.4371;0.0371;
-108.0000;0.4379;0.0421;
-107.7000;0.4379;0.0470;
-107.4000;0.4363;0.0421;
-107.1000;0.4371;0.0446;
-106.8000;0.4363;0.0396;
-106.5000;0.4379;0.0495;
-106.2000;0.4347;0.0396;
-105.9000;0.4355;0.0421;
-105.6000;0.4339;0.0322;
-105.3000;0.4363;0.0446;
-105.0000;0.4363;0.0495;
-104.7000;0.4363;0.0470;
-104.4000;0.4363;0.0470;
-104.1000;0.4371;0.0470;
-103.8000;0.4363;0.0495;
-103.5000;0.4363;0.0446;
-103.2000;0.4436;0.0619;
-102.9000;0.4371;0.0470;
-102.6000;0.4371;0.0545;
-102.3000;0.4363;0.0495;
-102.0000;0.4355;0.0396;
-101.7000;0.4387;0.0421;
-101.4000;0.4379;0.0446;
-101.1000;0.4355;0.0396;
-100.8000;0.4363;0.0371;
-100.5000;0.4355;0.0347;
-100.2000;0.4347;0.0297;
-99.9000;0.4347;0.0347;
-99.6000;0.4339;0.0272;
-99.3000;0.4355;0.0248;
-99.0000;0.4355;0.0297;
-98.7000;0.4371;0.0272;
-98.4000;0.4371;0.0248;
-98.1000;0.4347;0.0124;
-97.8000;0.4363;0.0272;
-97.5000;0.4363;0.0347;
-97.2000;0.4379;0.0396;
-96.9000;0.4347;0.0248;
-96.6000;0.4298;0.0124;
-96.3000;0.4355;0.0421;
-96.0000;0.4371;0.0520;
-95.7000;0.4347;0.0594;
-95.4000;0.4355;0.0545;
-95.1000;0.4363;0.0495;
-94.8000;0.4371;0.0495;
-94.5000;0.4347;0.0520;
-94.2000;0.4355;0.0495;
-93.9000;0.4355;0.0520;
-93.6000;0.4339;0.0470;
-93.3000;0.4330;0.0396;
-93.0000;0.4322;0.0396;
-92.7000;0.4330;0.0371;
-92.4000;0.4355;0.0470;
-92.1000;0.4347;0.0371;
-91.8000;0.4379;0.0322;
-91.5000;0.4330;0.0347;
-91.2000;0.4347;0.0495;
-90.9000;0.4363;0.0470;
-90.6000;0.4371;0.0470;
-90.3000;0.4330;0.0446;
-90.0000;0.4355;0.0446;
-89.7000;0.4379;0.0446;
-89.4000;0.4387;0.0545;
-89.1000;0.4355;0.0570;
-88.8000;0.4355;0.0545;
-88.5000;0.4387;0.0718;
-88.2000;0.4371;0.0669;
-87.9000;0.4347;0.0693;
-87.6000;0.4339;0.0693;
-87.3000;0.4306;0.0545;
-87.0000;0.4355;0.0743;
-86.7000;0.4363;0.0718;
-86.4000;0.4371;0.0644;
-86.1000;0.4387;0.0619;
-85.8000;0.4396;0.0594;
-85.5000;0.4355;0.0470;
-85.2000;0.4339;0.0470;
-84.9000;0.4355;0.0570;
-84.6000;0.4347;0.0495;
-84.3000;0.4355;0.0495;
-84.0000;0.4428;0.0644;
-83.7000;0.4363;0.0421;
-83.4000;0.4371;0.0421;
-83.1000;0.4420;0.0545;
-82.8000;0.4355;0.0371;
-82.5000;0.4330;0.0470;
-82.2000;0.4290;0.0347;
-81.9000;0.4355;0.0495;
-81.6000;0.4363;0.0495;
-81.3000;0.4355;0.0545;
-81.0000;0.4363;0.0545;
-80.7000;0.4379;0.0594;
-80.4000;0.4363;0.0594;
-80.1000;0.4363;0.0545;
-79.8000;0.4371;0.0594;
-79.5000;0.4363;0.0619;
-79.2000;0.4363;0.0570;
-78.9000;0.4363;0.0594;
-78.6000;0.4363;0.0520;
-78.3000;0.4363;0.0570;
-78.0000;0.4355;0.0520;
-77.7000;0.4347;0.0446;
-77.4000;0.4347;0.0470;
-77.1000;0.4363;0.0495;
-76.8000;0.4363;0.0495;
-76.5000;0.4355;0.0421;
-76.2000;0.4355;0.0495;
-75.9000;0.4371;0.0545;
-75.6000;0.4404;0.0693;
-75.3000;0.4347;0.0446;
-75.0000;0.4371;0.0495;
-74.7000;0.4274;0.0297;
-74.4000;0.4371;0.0545;
-74.1000;0.4387;0.0619;
-73.8000;0.4355;0.0495;
-73.5000;0.4371;0.0545;
-73.2000;0.4355;0.0520;
-72.9000;0.4379;0.0520;
-72.6000;0.4387;0.0570;
-72.3000;0.4355;0.0545;
-72.0000;0.4355;0.0495;
-71.7000;0.4322;0.0396;
-71.4000;0.4347;0.0470;
-71.1000;0.4371;0.0545;
-70.8000;0.4347;0.0421;
-70.5000;0.4347;0.0520;
-70.2000;0.4355;0.0520;
-69.9000;0.4363;0.0545;
-69.6000;0.4379;0.0545;
-69.3000;0.4371;0.0470;
-69.0000;0.4379;0.0520;
-68.7000;0.4339;0.0470;
-68.4000;0.4355;0.0570;
-68.1000;0.4371;0.0570;
-67.8000;0.4347;0.0470;
-67.5000;0.4282;0.0446;
-67.2000;0.4379;0.0718;
-66.9000;0.4355;0.0619;
-66.6000;0.4322;0.0495;
-66.3000;0.4371;0.0594;
-66.0000;0.4355;0.0594;
-65.7000;0.4355;0.0594;
-65.4000;0.4339;0.0619;
-65.1000;0.4290;0.0619;
-64.8000;0.4371;0.0792;
-64.5000;0.4330;0.0693;
-64.2000;0.4347;0.0693;
-63.9000;0.4322;0.0520;
-63.6000;0.4363;0.0644;
-63.3000;0.4347;0.0644;
-63.0000;0.4330;0.0520;
-62.7000;0.4371;0.0619;
-62.4000;0.4379;0.0619;
-62.1000;0.4322;0.0470;
-61.8000;0.4363;0.0520;
-61.5000;0.4339;0.0545;
-61.2000;0.4314;0.0495;
-60.9000;0.4347;0.0545;
-60.6000;0.4355;0.0495;
-60.3000;0.4347;0.0470;
-60.0000;0.4371;0.0495;
-59.7000;0.4379;0.0470;
-59.4000;0.4347;0.0371;
-59.1000;0.4265;0.0198;
-58.8000;0.4355;0.0520;
-58.5000;0.4355;0.0570;
-58.2000;0.4347;0.0495;
-57.9000;0.4347;0.0446;
-57.6000;0.4347;0.0446;
-57.3000;0.4371;0.0446;
-57.0000;0.4347;0.0396;
-56.7000;0.4339;0.0396;
-56.4000;0.4347;0.0396;
-56.1000;0.4404;0.0470;
-55.8000;0.4355;0.0347;
-55.5000;0.4444;0.0520;
-55.2000;0.4355;0.0371;
-54.9000;0.4363;0.0371;
-54.6000;0.4347;0.0421;
-54.3000;0.4379;0.0545;
-54.0000;0.4330;0.0396;
-53.7000;0.4355;0.0495;
-53.4000;0.4355;0.0545;
-53.1000;0.4355;0.0520;
-52.8000;0.4363;0.0545;
-52.5000;0.4371;0.0594;
-52.2000;0.4355;0.0495;
-51.9000;0.4387;0.0570;
-51.6000;0.4387;0.0594;
-51.3000;0.4355;0.0396;
-51.0000;0.4379;0.0446;
-50.7000;0.4298;0.0297;
-50.4000;0.4355;0.0396;
-50.1000;0.4339;0.0421;
-49.8000;0.4347;0.0545;
-49.5000;0.4347;0.0520;
-49.2000;0.4347;0.0446;
-48.9000;0.4339;0.0371;
-48.6000;0.4363;0.0446;
-48.3000;0.4363;0.0396;
-48.0000;0.4355;0.0396;
-47.7000;0.4322;0.0371;
-47.4000;0.4355;0.0470;
-47.1000;0.4355;0.0520;
-46.8000;0.4355;0.0520;
-46.5000;0.4339;0.0421;
-46.2000;0.4355;0.0371;
-45.9000;0.4347;0.0322;
-45.6000;0.4363;0.0347;
-45.3000;0.4355;0.0347;
-45.0000;0.4363;0.0322;
-44.7000;0.4347;0.0248;
-44.4000;0.4371;0.0297;
-44.1000;0.4363;0.0322;
-43.8000;0.4347;0.0297;
-43.5000;0.4355;0.0347;
-43.2000;0.4371;0.0421;
-42.9000;0.4363;0.0470;
-42.6000;0.4363;0.0495;
-42.3000;0.4355;0.0495;
-42.0000;0.4355;0.0470;
-41.7000;0.4371;0.0545;
-41.4000;0.4387;0.0619;
-41.1000;0.4363;0.0594;
-40.8000;0.4379;0.0644;
-40.5000;0.4379;0.0594;
-40.2000;0.4355;0.0470;
-39.9000;0.4347;0.0446;
-39.6000;0.4339;0.0446;
-39.3000;0.4363;0.0545;
-39.0000;0.4339;0.0495;
-38.7000;0.4347;0.0396;
-38.4000;0.4339;0.0446;
-38.1000;0.4355;0.0495;
-37.8000;0.4355;0.0495;
-37.5000;0.4355;0.0570;
-37.2000;0.4339;0.0594;
-36.9000;0.4355;0.0669;
-36.6000;0.4371;0.0570;
-36.3000;0.4387;0.0594;
-36.0000;0.4347;0.0545;
-35.7000;0.4371;0.0594;
-35.4000;0.4339;0.0495;
-35.1000;0.4347;0.0421;
-34.8000;0.4363;0.0470;
-34.5000;0.4347;0.0446;
-34.2000;0.4371;0.0495;
-33.9000;0.4363;0.0619;
-33.6000;0.4347;0.0570;
-33.3000;0.4339;0.0470;
-33.0000;0.4420;0.0594;
-32.7000;0.4355;0.0470;
-32.4000;0.4314;0.0396;
-32.1000;0.4322;0.0446;
-31.8000;0.4404;0.0644;
-31.5000;0.4314;0.0322;
-31.2000;0.4339;0.0347;
-30.9000;0.4379;0.0495;
-30.6000;0.4371;0.0470;
-30.3000;0.4371;0.0470;
-30.0000;0.4363;0.0470;
-29.7000;0.4355;0.0545;
-29.4000;0.4339;0.0619;
-29.1000;0.4355;0.0669;
-28.8000;0.4347;0.0644;
-28.5000;0.4355;0.0619;
-28.2000;0.4371;0.0644;
-27.9000;0.4363;0.0545;
-27.6000;0.4339;0.0495;
-27.3000;0.4330;0.0570;
-27.0000;0.4330;0.0495;
-26.7000;0.4347;0.0446;
-26.4000;0.4363;0.0495;
-26.1000;0.4347;0.0545;
-25.8000;0.4347;0.0446;
-25.5000;0.4355;0.0495;
-25.2000;0.4363;0.0520;
-24.9000;0.4371;0.0520;
-24.6000;0.4355;0.0446;
-24.3000;0.4347;0.0520;
-24.0000;0.4347;0.0594;
-23.7000;0.4347;0.0644;
-23.4000;0.4355;0.0718;
-23.1000;0.4314;0.0669;
-22.8000;0.4347;0.0693;
-22.5000;0.4355;0.0669;
-22.2000;0.4347;0.0669;
-21.9000;0.4339;0.0594;
-21.6000;0.4347;0.0669;
-21.3000;0.4347;0.0619;
-21.0000;0.4347;0.0619;
-20.7000;0.4339;0.0594;
-20.4000;0.4387;0.0768;
-20.1000;0.4371;0.0718;
-19.8000;0.4339;0.0693;
-19.5000;0.4355;0.0693;
-19.2000;0.4355;0.0545;
-18.9000;0.4404;0.0619;
-18.6000;0.4371;0.0495;
-18.3000;0.4355;0.0446;
-18.0000;0.4355;0.0470;
-17.7000;0.4339;0.0495;
-17.4000;0.4363;0.0619;
-17.1000;0.4355;0.0570;
-16.8000;0.4363;0.0619;
-16.5000;0.4363;0.0669;
-16.2000;0.4363;0.0619;
-15.9000;0.4355;0.0446;
-15.6000;0.4379;0.0644;
-15.3000;0.4306;0.0495;
-15.0000;0.4363;0.0594;
-14.7000;0.4363;0.0594;
-14.4000;0.4347;0.0495;
-14.1000;0.4355;0.0570;
-13.8000;0.4330;0.0470;
-13.5000;0.4330;0.0470;
-13.2000;0.4363;0.0520;
-12.9000;0.4314;0.0421;
-12.6000;0.4330;0.0470;
-12.3000;0.4330;0.0520;
-12.0000;0.4330;0.0520;
-11.7000;0.4355;0.0570;
-11.4000;0.4339;0.0545;
-11.1000;0.4330;0.0520;
-10.8000;0.4396;0.0644;
-10.5000;0.4379;0.0495;
-10.2000;0.4347;0.0396;
-9.9000;0.4436;0.0594;
-9.6000;0.4371;0.0421;
-9.3000;0.4355;0.0322;
-9.0000;0.4412;0.0446;
-8.7000;0.4355;0.0248;
-8.4000;0.4363;0.0173;
-8.1000;0.4363;0.0223;
-7.8000;0.4314;0.0050;
-7.5000;0.4347;0.0099;
-7.2000;0.4339;0.0149;
-6.9000;0.4363;0.0272;
-6.6000;0.4363;0.0272;
-6.3000;0.4339;0.0322;
-6.0000;0.4371;0.0396;
-5.7000;0.4306;0.0297;
-5.4000;0.4355;0.0446;
-5.1000;0.4347;0.0347;
-4.8000;0.4355;0.0371;
-4.5000;0.4363;0.0347;
-4.2000;0.4363;0.0396;
-3.9000;0.4363;0.0371;
-3.6000;0.4371;0.0421;
-3.3000;0.4347;0.0396;
-3.0000;0.4371;0.0421;
-2.7000;0.4371;0.0371;
-2.4000;0.4339;0.0322;
-2.1000;0.4371;0.0297;
-1.8000;0.4363;0.0297;
-1.5000;0.4363;0.0322;
-1.2000;0.4330;0.0297;
-0.9000;0.4371;0.0347;
-0.6000;0.4347;0.0322;
-0.3000;0.4371;0.0371;
0.0000;0.4371;0.0371;
0.3000;0.4355;0.0248;
0.6000;0.4412;0.0446;
0.9000;0.4485;0.0693;
1.2000;0.4510;0.0867;
1.5000;0.4526;0.1090;
1.8000;0.4583;0.1312;
2.1000;0.4583;0.1312;
2.4000;0.4558;0.1337;
2.7000;0.4599;0.1511;
3.0000;0.4615;0.1560;
3.3000;0.4624;0.1634;
3.6000;0.4640;0.1585;
3.9000;0.4640;0.1585;
4.2000;0.4615;0.1610;
4.5000;0.4640;0.1511;
4.8000;0.4713;0.1783;
5.1000;0.4624;0.1610;
5.4000;0.4656;0.1709;
5.7000;0.4656;0.1684;
6.0000;0.4672;0.1733;
6.3000;0.4656;0.1709;
6.6000;0.4664;0.1733;
6.9000;0.4681;0.1733;
7.2000;0.4737;0.1931;
7.5000;0.4656;0.1758;
7.8000;0.4681;0.1783;
8.1000;0.4713;0.1857;
8.4000;0.4746;0.1857;
8.7000;0.4713;0.1659;
9.0000;0.4697;0.1535;
9.3000;0.4681;0.1461;
9.6000;0.4705;0.1560;
9.9000;0.4713;0.1684;
10.2000;0.4794;0.1832;
10.5000;0.4721;0.1585;
10.8000;0.4721;0.1585;
11.1000;0.4746;0.1585;
11.4000;0.4729;0.1560;
11.7000;0.4729;0.1535;
12.0000;0.4746;0.1511;
12.3000;0.4754;0.1560;
12.6000;0.4737;0.1511;
12.9000;0.4754;0.1560;
13.2000;0.4737;0.1486;
13.5000;0.4746;0.1511;
13.8000;0.4762;0.1585;
14.1000;0.4729;0.1634;
14.4000;0.4786;0.1733;
14.7000;0.4778;0.1783;
15.0000;0.4778;0.1808;
15.3000;0.4778;0.1783;
15.6000;0.4754;0.1733;
15.9000;0.4778;0.1733;
16.2000;0.4762;0.1659;
16.5000;0.4786;0.1684;
16.8000;0.4794;0.1758;
17.1000;0.4778;0.1709;
17.4000;0.4843;0.1832;
17.7000;0.4803;0.1684;
18.0000;0.4778;0.1560;
18.3000;0.4803;0.1560;
18.6000;0.4794;0.1634;
18.9000;0.4778;0.1585;
19.2000;0.4794;0.1634;
19.5000;0.4803;0.1709;
19.8000;0.4811;0.1634;
20.1000;0.4811;0.1585;
20.4000;0.4803;0.1585;
20.7000;0.4811;0.1659;
21.0000;0.4794;0.1634;
21.3000;0.4803;0.1634;
21.6000;0.4827;0.1709;
21.9000;0.4803;0.1684;
22.2000;0.4794;0.1659;
22.5000;0.4786;0.1634;
22.8000;0.4827;0.1709;
23.1000;0.4835;0.1758;
23.4000;0.4827;0.1832;
23.7000;0.4835;0.1882;
24.0000;0.4835;0.1882;
24.3000;0.4827;0.1907;
24.6000;0.4778;0.1758;
24.9000;0.4835;0.1758;
25.2000;0.4843;0.1783;
25.5000;0.4843;0.1758;
25.8000;0.4860;0.1758;
26.1000;0.4827;0.1709;
26.4000;0.4843;0.1709;
26.7000;0.4851;0.1684;
27.0000;0.4876;0.1709;
27.3000;0.4851;0.1659;
27.6000;0.4835;0.1610;
27.9000;0.4860;0.1659;
28.2000;0.4843;0.1560;
28.5000;0.4843;0.1610;
28.8000;0.4851;0.1659;
29.1000;0.4851;0.1634;
29.4000;0.4860;0.1634;
29.7000;0.4843;0.1634;
30.0000;0.4860;0.1684;
30.3000;0.4860;0.1733;
30.6000;0.4900;0.1832;
30.9000;0.4827;0.1610;
31.2000;0.4803;0.1610;
31.5000;0.4835;0.1733;
31.8000;0.4860;0.1832;
32.1000;0.4851;0.1733;
32.4000;0.4851;0.1684;
32.7000;0.4851;0.1634;
33.0000;0.4843;0.1610;
33.3000;0.4917;0.1758;
33.6000;0.4860;0.1560;
33.9000;0.4892;0.1560;
34.2000;0.4900;0.1659;
34.5000;0.4876;0.1610;
34.8000;0.4851;0.1535;
35.1000;0.4876;0.1585;
35.4000;0.4868;0.1684;
35.7000;0.4860;0.1733;
36.0000;0.4876;0.1709;
36.3000;0.4868;0.1783;
36.6000;0.4860;0.1783;
36.9000;0.4860;0.1684;
37.2000;0.4868;0.1758;
37.5000;0.4876;0.1783;
37.8000;0.4876;0.1783;
38.1000;0.4860;0.1832;
38.4000;0.4851;0.1733;
38.7000;0.4868;0.1808;
39.0000;0.4917;0.1882;
39.3000;0.4884;0.1783;
39.6000;0.4884;0.1832;
39.9000;0.4876;0.1857;
40.2000;0.4892;0.1956;
40.5000;0.4868;0.1956;
40.8000;0.4868;0.1956;
41.1000;0.4884;0.1931;
41.4000;0.4835;0.1758;
41.7000;0.4892;0.1931;
42.0000;0.4892;0.1981;
42.3000;0.4868;0.1907;
42.6000;0.4835;0.1758;
42.9000;0.4884;0.1882;
43.2000;0.4868;0.1808;
43.5000;0.4868;0.1832;
43.8000;0.4892;0.1907;
44.1000;0.4884;0.1808;
44.4000;0.4917;0.1783;
44.7000;0.4908;0.1758;
45.0000;0.4892;0.1684;
45.3000;0.4925;0.1783;
45.6000;0.4892;0.1783;
45.9000;0.4900;0.1808;
46.2000;0.4908;0.1832;
46.5000;0.4892;0.1758;
46.8000;0.4933;0.1684;
47.1000;0.4892;0.1659;
47.4000;0.4876;0.1684;
47.7000;0.4892;0.1733;
48.0000;0.4884;0.1709;
48.3000;0.4917;0.1758;
48.6000;0.4892;0.1709;
48.9000;0.4900;0.1684;
49.2000;0.4884;0.1610;
49.5000;0.4908;0.1659;
49.8000;0.4900;0.1684;
50.1000;0.4908;0.1585;
50.4000;0.4917;0.1733;
50.7000;0.4884;0.1659;
51.0000;0.4908;0.1783;
51.3000;0.4908;0.1882;
51.6000;0.4892;0.1857;
51.9000;0.4884;0.1832;
52.2000;0.4925;0.1882;
52.5000;0.4908;0.1684;
52.8000;0.4908;0.1684;
53.1000;0.4900;0.1733;
53.4000;0.4884;0.1684;
53.7000;0.4900;0.1659;
54.0000;0.4876;0.1610;
54.3000;0.4892;0.1659;
54.6000;0.4876;0.1709;
54.9000;0.4900;0.1832;
55.2000;0.4908;0.1832;
55.5000;0.4908;0.1758;
55.8000;0.4892;0.1808;
56.1000;0.4892;0.1684;
56.4000;0.4900;0.1758;
56.7000;0.4908;0.1758;
57.0000;0.4908;0.1709;
57.3000;0.4908;0.1610;
57.6000;0.4925;0.1659;
57.9000;0.4917;0.1634;
58.2000;0.4900;0.1684;
58.5000;0.4933;0.1808;
58.8000;0.4908;0.1733;
59.1000;0.4917;0.1709;
59.4000;0.4917;0.1659;
59.7000;0.4925;0.1634;
60.0000;0.4941;0.1684;
60.3000;0.4925;0.1634;
60.6000;0.4933;0.1634;
60.9000;0.4925;0.1684;
61.2000;0.4900;0.1684;
61.5000;0.4876;0.1560;
61.8000;0.4908;0.1733;
62.1000;0.4900;0.1733;
62.4000;0.4917;0.1808;
62.7000;0.4884;0.1783;
63.0000;0.4917;0.1882;
63.3000;0.4933;0.1931;
63.6000;0.4908;0.1931;
63.9000;0.4917;0.1832;
64.2000;0.4917;0.1783;
64.5000;0.4917;0.1832;
64.8000;0.4933;0.1857;
65.1000;0.4884;0.1808;
65.4000;0.5031;0.2204;
65.7000;0.4925;0.1882;
66.0000;0.4965;0.1981;
66.3000;0.4925;0.1832;
66.6000;0.4949;0.1931;
66.9000;0.4933;0.1882;
67.2000;0.4908;0.1931;
67.5000;0.4957;0.2031;
67.8000;0.4925;0.1907;
68.1000;0.4933;0.1931;
68.4000;0.4884;0.1758;
68.7000;0.4908;0.1684;
69.0000;0.4908;0.1758;
69.3000;0.4917;0.1857;
69.6000;0.4917;0.1832;
69.9000;0.4892;0.1882;
70.2000;0.4900;0.1857;
70.5000;0.4925;0.1907;
70.8000;0.4925;0.1931;
71.1000;0.4917;0.1931;
71.4000;0.4900;0.1907;
71.7000;0.4974;0.2006;
72.0000;0.4933;0.1931;
72.3000;0.4925;0.1808;
72.6000;0.4917;0.1808;
72.9000;0.4917;0.1783;
73.2000;0.4933;0.1758;
73.5000;0.4908;0.1709;
73.8000;0.4941;0.1857;
74.1000;0.4917;0.1832;
74.4000;0.4933;0.1931;
74.7000;0.4933;0.1907;
75.0000;0.4949;0.1882;
75.3000;0.4917;0.1758;
75.6000;0.4941;0.1808;
75.9000;0.4908;0.1709;
76.2000;0.4908;0.1684;
76.5000;0.4908;0.1634;
76.8000;0.4908;0.1659;
77.1000;0.4933;0.1733;
77.4000;0.4892;0.1709;
77.7000;0.4933;0.1832;
78.0000;0.4917;0.1758;
78.3000;0.4917;0.1758;
78.6000;0.4917;0.1783;
78.9000;0.4884;0.1758;
79.2000;0.4900;0.1758;
79.5000;0.4884;0.1758;
79.8000;0.4933;0.1907;
80.1000;0.4900;0.1733;
80.4000;0.4925;0.1709;
80.7000;0.4933;0.1882;
81.0000;0.4900;0.1808;
81.3000;0.4908;0.1808;
81.6000;0.4917;0.1882;
81.9000;0.4917;0.1931;
82.2000;0.4868;0.1758;
82.5000;0.4949;0.1783;
82.8000;0.4892;0.1511;
83.1000;0.4917;0.1659;
83.4000;0.4925;0.1709;
83.7000;0.4974;0.1808;
84.0000;0.4925;0.1684;
84.3000;0.4957;0.1733;
84.6000;0.4917;0.1709;
84.9000;0.4933;0.1733;
85.2000;0.4917;0.1709;
85.5000;0.4876;0.1585;
85.8000;0.4917;0.1684;
86.1000;0.4941;0.1808;
86.4000;0.4917;0.1832;
86.7000;0.4884;0.1758;
87.0000;0.4884;0.1659;
87.3000;0.4917;0.1832;
87.6000;0.4892;0.1808;
87.9000;0.4884;0.1808;
88.2000;0.4949;0.1931;
88.5000;0.4933;0.1931;
88.8000;0.4957;0.1981;
89.1000;0.4908;0.1758;
89.4000;0.4949;0.1758;
89.7000;0.4933;0.1733;
90.0000;0.4949;0.1857;
90.3000;0.4917;0.1783;
90.6000;0.4949;0.1832;
90.9000;0.4908;0.1783;
91.2000;0.4908;0.1783;
91.5000;0.4917;0.1733;
91.8000;0.4925;0.1808;
92.1000;0.4908;0.1684;
92.4000;0.4900;0.1733;
92.7000;0.4900;0.1684;
93.0000;0.4925;0.1733;
93.3000;0.4908;0.1684;
93.6000;0.4917;0.1634;
93.9000;0.4925;0.1610;
94.2000;0.4917;0.1560;
94.5000;0.4957;0.1684;
94.8000;0.4933;0.1634;
95.1000;0.4933;0.1585;
95.4000;0.4933;0.1634;
95.7000;0.4925;0.1634;
96.0000;0.4900;0.1610;
96.3000;0.4933;0.1783;
96.6000;0.4925;0.1709;
96.9000;0.4884;0.1634;
97.2000;0.4941;0.1783;
97.5000;0.4949;0.1783;
97.8000;0.4917;0.1709;
98.1000;0.4851;0.1560;
98.4000;0.4908;0.1709;
98.7000;0.4917;0.1709;
99.0000;0.4908;0.1659;
99.3000;0.4900;0.1610;
99.6000;0.4965;0.1659;
99.9000;0.4917;0.1585;
100.2000;0.4957;0.1634;
100.5000;0.4941;0.1610;
100.8000;0.4884;0.1511;
101.1000;0.4900;0.1634;
101.4000;0.4933;0.1709;
101.7000;0.4933;0.1783;
102.0000;0.4933;0.1758;
102.3000;0.4933;0.1733;
102.6000;0.4900;0.1684;
102.9000;0.4933;0.1634;
103.2000;0.4933;0.1610;
103.5000;0.4892;0.1560;
103.8000;0.4908;0.1634;
104.1000;0.4949;0.1758;
104.4000;0.4917;0.1758;
104.7000;0.4908;0.1733;
105.0000;0.4900;0.1808;
105.3000;0.4925;0.1832;
105.6000;0.4917;0.1857;
105.9000;0.4925;0.1882;
106.2000;0.4900;0.1758;
106.5000;0.4941;0.1832;
106.8000;0.4900;0.1758;
107.1000;0.4941;0.1783;
107.4000;0.4933;0.1783;
107.7000;0.4949;0.1783;
108.0000;0.4925;0.1585;
108.3000;0.4925;0.1560;
108.6000;0.4925;0.1610;
108.9000;0.4884;0.1486;
109.2000;0.4941;0.1585;
109.5000;0.4917;0.1535;
109.8000;0.4925;0.1585;
110.1000;0.4925;0.1634;
110.4000;0.4917;0.1634;
110.7000;0.4925;0.1634;
111.0000;0.4925;0.1659;
111.3000;0.4949;0.1783;
111.6000;0.4925;0.1709;
111.9000;0.4941;0.1758;
112.2000;0.4917;0.1634;
112.5000;0.4925;0.1684;
112.8000;0.4908;0.1560;
113.1000;0.4941;0.1610;
113.4000;0.4925;0.1461;
113.7000;0.4917;0.1411;
114.0000;0.4925;0.1486;
114.3000;0.4908;0.1486;
114.6000;0.4917;0.1486;
114.9000;0.4917;0.1461;
115.2000;0.4925;0.1486;
115.5000;0.4925;0.1411;
115.8000;0.4933;0.1436;
116.1000;0.4925;0.1411;
116.4000;0.4925;0.1486;
116.7000;0.4933;0.1461;
117.0000;0.4941;0.1511;
117.3000;0.4917;0.1511;
117.6000;0.4908;0.1511;
117.9000;0.4917;0.1535;
118.2000;0.4908;0.1610;
118.5000;0.4933;0.1634;
118.8000;0.4933;0.1684;
119.1000;0.4925;0.1684;
119.4000;0.4925;0.1610;
119.7000;0.4884;0.1535;
120.0000;0.4949;0.1634;
120.3000;0.4908;0.1610;
120.6000;0.4933;0.1634;
120.9000;0.4917;0.1560;
121.2000;0.4908;0.1511;
121.5000;0.4917;0.1436;
121.8000;0.4908;0.1560;
122.1000;0.4908;0.1560;
122.4000;0.4933;0.1634;
122.7000;0.4933;0.1634;
123.0000;0.4949;0.1659;
123.3000;0.4965;0.1610;
123.6000;0.4925;0.1461;
123.9000;0.4835;0.1238;
124.2000;0.4884;0.1337;
124.5000;0.4925;0.1387;
124.8000;0.4933;0.1461;
125.1000;0.4908;0.1312;
125.4000;0.4933;0.1436;
125.7000;0.4908;0.1387;
126.0000;0.4917;0.1411;
126.3000;0.4933;0.1411;
126.6000;0.4933;0.1461;
126.9000;0.4933;0.1411;
127.2000;0.4949;0.1511;
127.5000;0.4908;0.1535;
127.8000;0.4925;0.1511;
128.1000;0.4925;0.1486;
128.4000;0.4933;0.1511;
128.7000;0.4933;0.1461;
129.0000;0.4917;0.1461;
129.3000;0.4925;0.1486;
129.6000;0.4917;0.1511;
129.9000;0.4925;0.1610;
130.2000;0.4933;0.1634;
130.5000;0.4957;0.1634;
130.8000;0.4925;0.1610;
131.1000;0.4900;0.1511;
131.4000;0.4933;0.1535;
131.7000;0.4925;0.1560;
132.0000;0.4917;0.1610;
132.3000;0.4925;0.1659;
132.6000;0.4933;0.1808;
132.9000;0.4998;0.1931;
133.2000;0.4957;0.1684;
133.5000;0.4941;0.1684;
133.8000;0.4941;0.1709;
134.1000;0.4933;0.1733;
134.4000;0.4941;0.1783;
134.7000;0.4917;0.1709;
135.0000;0.4941;0.1684;
135.3000;0.4949;0.1684;
135.6000;0.4925;0.1585;
135.9000;0.4925;0.1634;
136.2000;0.4941;0.1684;
136.5000;0.4933;0.1733;
136.8000;0.4925;0.1709;
137.1000;0.4917;0.1709;
137.4000;0.4949;0.1882;
137.7000;0.4860;0.1634;
138.0000;0.4925;0.1709;
138.3000;0.4941;0.1733;
138.6000;0.4925;0.1634;
138.9000;0.4917;0.1659;
139.2000;0.4941;0.1634;
139.5000;0.4933;0.1684;
139.8000;0.4925;0.1610;
140.1000;0.4908;0.1511;
140.4000;0.4868;0.1511;
140.7000;0.4917;0.1709;
141.0000;0.4908;0.1659;
141.3000;0.4892;0.1610;
141.6000;0.4925;0.1585;
141.9000;0.4957;0.1560;
142.2000;0.4908;0.1362;
142.5000;0.4917;0.1387;
142.8000;0.4933;0.1387;
143.1000;0.4925;0.1461;
143.4000;0.4917;0.1411;
143.7000;0.4925;0.1436;
144.0000;0.4941;0.1436;
144.3000;0.4933;0.1486;
144.6000;0.4925;0.1461;
144.9000;0.4957;0.1511;
145.2000;0.4892;0.1337;
145.5000;0.4933;0.1461;
145.8000;0.4925;0.1486;
146.1000;0.4925;0.1486;
146.4000;0.4900;0.1436;
146.7000;0.4917;0.1511;
147.0000;0.4908;0.1535;
147.3000;0.4908;0.1560;
147.6000;0.4925;0.1585;
147.9000;0.4892;0.1511;
148.2000;0.4925;0.1634;
148.5000;0.4925;0.1610;
148.8000;0.4982;0.1758;
149.1000;0.4908;0.1560;
149.4000;0.4949;0.1758;
149.7000;0.4917;0.1585;
150.0000;0.4908;0.1560;
150.3000;0.4908;0.1486;
150.6000;0.4925;0.1560;
150.9000;0.4957;0.1758;
151.2000;0.4917;0.1585;
151.5000;0.4917;0.1535;
151.8000;0.4917;0.1411;
152.1000;0.4933;0.1312;
152.4000;0.4917;0.1288;
152.7000;0.4908;0.1189;
153.0000;0.4917;0.1238;
153.3000;0.4941;0.1312;
153.6000;0.4908;0.1312;
153.9000;0.4900;0.1288;
154.2000;0.4925;0.1387;
154.5000;0.4925;0.1263;
154.8000;0.4933;0.1263;
155.1000;0.4925;0.1362;
155.4000;0.4917;0.1362;
155.7000;0.4933;0.1461;
156.0000;0.4941;0.1461;
156.3000;0.4933;0.1436;
156.6000;0.4949;0.1486;
156.9000;0.4933;0.1486;
157.2000;0.4941;0.1486;
157.5000;0.4933;0.1486;
157.8000;0.4917;0.1461;
158.1000;0.4917;0.1486;
158.4000;0.4925;0.1461;
158.7000;0.4925;0.1486;
159.0000;0.4860;0.1288;
159.3000;0.4933;0.1486;
159.6000;0.4933;0.1511;
159.9000;0.4843;0.1288;
160.2000;0.4925;0.1486;
160.5000;0.4892;0.1411;
160.8000;0.4941;0.1436;
161.1000;0.4925;0.1337;
161.4000;0.4941;0.1362;
161.7000;0.4941;0.1387;
162.0000;0.4941;0.1411;
162.3000;0.4933;0.1387;
162.6000;0.4933;0.1411;
162.9000;0.4908;0.1362;
163.2000;0.4933;0.1362;
163.5000;0.4925;0.1337;
163.8000;0.4900;0.1362;
164.1000;0.4917;0.1436;
164.4000;0.4917;0.1436;
164.7000;0.4917;0.1387;
165.0000;0.4917;0.1337;
165.3000;0.4925;0.1337;
165.6000;0.4933;0.1362;
165.9000;0.4925;0.1362;
166.2000;0.4917;0.1387;
166.5000;0.4900;0.1362;
166.8000;0.4933;0.1411;
167.1000;0.4917;0.1362;
167.4000;0.4941;0.1486;
167.7000;0.4933;0.1511;
168.0000;0.4941;0.1486;
168.3000;0.4908;0.1486;
168.6000;0.4933;0.1461;
168.9000;0.4965;0.1585;
169.2000;0.4933;0.1486;
169.5000;0.4925;0.1461;
169.8000;0.4917;0.1461;
170.1000;0.4925;0.1486;
170.4000;0.4933;0.1511;
170.7000;0.4917;0.1486;
171.0000;0.4933;0.1560;
171.3000;0.4917;0.1560;
171.6000;0.4925;0.1560;
171.9000;0.4843;0.1461;
172.2000;0.4917;0.1684;
172.5000;0.4908;0.1709;
172.8000;0.4917;0.1659;
173.1000;0.4974;0.1783;
173.4000;0.4917;0.1610;
173.7000;0.4917;0.1684;
174.0000;0.4925;0.1709;
174.3000;0.4900;0.1684;
174.6000;0.4949;0.1733;
174.9000;0.4933;0.1684;
175.2000;0.4917;0.1610;
175.5000;0.4917;0.1610;
175.8000;0.4933;0.1709;
176.1000;0.4908;0.1634;
176.4000;0.4900;0.1560;
176.7000;0.4917;0.1659;
177.0000;0.4917;0.1634;
177.3000;0.4908;0.1610;
177.6000;0.4917;0.1684;
177.9000;0.4925;0.1709;
178.2000;0.4917;0.1709;
178.5000;0.4908;0.1634;
178.8000;0.4925;0.1659;
179.1000;0.4892;0.1610;
179.4000;0.4933;0.1610;
179.7000;0.4925;0.1610;
180.0000;0.4892;0.1535;
180.3000;0.4933;0.1585;
180.6000;0.4941;0.1610;
180.9000;0.4917;0.1634;
181.2000;0.4925;0.1634;
181.5000;0.4917;0.1585;
181.8000;0.4917;0.1585;
182.1000;0.4933;0.1610;
182.4000;0.4933;0.1585;
182.7000;0.4908;0.1634;
183.0000;0.4933;0.1659;
183.3000;0.4908;0.1610;
183.6000;0.4917;0.1684;
183.9000;0.4933;0.1709;
184.2000;0.4925;0.1610;
184.5000;0.4908;0.1684;
184.8000;0.4908;0.1733;
185.1000;0.4925;0.1733;
185.4000;0.4917;0.1733;
185.7000;0.4933;0.1832;
186.0000;0.4900;0.1709;
186.3000;0.4925;0.1709;
186.6000;0.4933;0.1783;
186.9000;0.4933;0.1758;
187.2000;0.4917;0.1758;
187.5000;0.4925;0.1783;
187.8000;0.4917;0.1832;
188.1000;0.4908;0.1783;
188.4000;0.4917;0.1659;
188.7000;0.4876;0.1610;
189.0000;0.4876;0.1610;
189.3000;0.4925;0.1783;
189.6000;0.4908;0.1783;
189.9000;0.4900;0.1783;
190.2000;0.4917;0.1832;
190.5000;0.4917;0.1783;
190.8000;0.4925;0.1758;
191.1000;0.4925;0.1634;
191.4000;0.4917;0.1610;
191.7000;0.4892;0.1634;
192.0000;0.4917;0.1783;
192.3000;0.4925;0.1783;
192.6000;0.4990;0.1931;
192.9000;0.4917;0.1733;
193.2000;0.4900;0.1659;
193.5000;0.4925;0.1684;
193.8000;0.4965;0.1758;
194.1000;0.4908;0.1560;
194.4000;0.4876;0.1511;
194.7000;0.4925;0.1758;
195.0000;0.4917;0.1758;
195.3000;0.4843;0.1610;
195.6000;0.4835;0.1560;
195.9000;0.4925;0.1783;
196.2000;0.4933;0.1783;
196.5000;0.4917;0.1709;
196.8000;0.4908;0.1758;
197.1000;0.4925;0.1783;
197.4000;0.4933;0.1684;
197.7000;0.4908;0.1783;
198.0000;0.4933;0.1857;
198.3000;0.4884;0.1783;
198.6000;0.4917;0.1832;
198.9000;0.4908;0.1758;
199.2000;0.4900;0.1733;
199.5000;0.4908;0.1783;
199.8000;0.4917;0.1857;
200.1000;0.4925;0.1956;
200.4000;0.4917;0.1931;
200.7000;0.4957;0.1956;
201.0000;0.4925;0.1832;
201.3000;0.4925;0.1758;
201.6000;0.4908;0.1684;
201.9000;0.4860;0.1560;
202.2000;0.4908;0.1684;
202.5000;0.4900;0.1684;
202.8000;0.4925;0.1808;
203.1000;0.4884;0.1733;
203.4000;0.4941;0.1832;
203.7000;0.4917;0.1783;
204.0000;0.4957;0.1882;
204.3000;0.4900;0.1857;
204.6000;0.4908;0.1857;
204.9000;0.4900;0.1832;
205.2000;0.4941;0.1931;
205.5000;0.4925;0.1857;
205.8000;0.4917;0.1808;
206.1000;0.4908;0.1783;
206.4000;0.4933;0.1808;
206.7000;0.4917;0.1931;
207.0000;0.4974;0.2006;
207.3000;0.4957;0.1956;
207.6000;0.4900;0.1808;
207.9000;0.4908;0.1857;
208.2000;0.4917;0.1882;
208.5000;0.4917;0.1956;
208.8000;0.4917;0.1907;
209.1000;0.4908;0.1907;
209.4000;0.4900;0.1956;
209.7000;0.4900;0.1931;
210.0000;0.4925;0.1956;
210.3000;0.4917;0.1956;
210.6000;0.4941;0.1931;
210.9000;0.4933;0.1832;
211.2000;0.4917;0.1907;
211.5000;0.4933;0.1882;
211.8000;0.4925;0.1808;
212.1000;0.4917;0.1758;
212.4000;0.4900;0.1758;
212.7000;0.4908;0.1783;
213.0000;0.4925;0.1783;
213.3000;0.4917;0.1808;
213.6000;0.4908;0.1808;
213.9000;0.4982;0.1956;
214.2000;0.4933;0.1783;
214.5000;0.4933;0.1684;
214.8000;0.4917;0.1783;
215.1000;0.4908;0.1832;
215.4000;0.4892;0.1857;
215.7000;0.4917;0.1882;
216.0000;0.4941;0.1882;
216.3000;0.4917;0.1857;
216.6000;0.4925;0.1857;
216.9000;0.4933;0.1733;
217.2000;0.4949;0.1733;
217.5000;0.4851;0.1461;
217.8000;0.4917;0.1659;
218.1000;0.4917;0.1634;
218.4000;0.4925;0.1684;
218.7000;0.4908;0.1659;
219.0000;0.4917;0.1684;
219.3000;0.4908;0.1585;
219.6000;0.5014;0.1733;
219.9000;0.4868;0.1461;
220.2000;0.4917;0.1733;
220.5000;0.4941;0.1808;
220.8000;0.4925;0.1733;
221.1000;0.4908;0.1709;
221.4000;0.4908;0.1709;
221.7000;0.4917;0.1684;
222.0000;0.4917;0.1709;
222.3000;0.4917;0.1684;
222.6000;0.4908;0.1634;
222.9000;0.4917;0.1634;
223.2000;0.4925;0.1610;
223.5000;0.4917;0.1511;
223.8000;0.4900;0.1535;
224.1000;0.4925;0.1634;
224.4000;0.4908;0.1585;
224.7000;0.4908;0.1511;
225.0000;0.4917;0.1585;
225.3000;0.4925;0.1585;
225.6000;0.4900;0.1585;
225.9000;0.4900;0.1659;
226.2000;0.4917;0.1684;
226.5000;0.4925;0.1709;
226.8000;0.4908;0.1684;
227.1000;0.4917;0.1684;
227.4000;0.4941;0.1733;
227.7000;0.4908;0.1634;
228.0000;0.4917;0.1634;
228.3000;0.4925;0.1634;
228.6000;0.4908;0.1610;
228.9000;0.4908;0.1610;
229.2000;0.4900;0.1560;
229.5000;0.4933;0.1610;
229.8000;0.4925;0.1585;
230.1000;0.4900;0.1511;
230.4000;0.4884;0.1511;
230.7000;0.4917;0.1684;
231.0000;0.4917;0.1684;
231.3000;0.4917;0.1634;
231.6000;0.4925;0.1511;
231.9000;0.4949;0.1535;
232.2000;0.4925;0.1486;
232.5000;0.4851;0.1362;
232.8000;0.4908;0.1486;
233.1000;0.4900;0.1610;
233.4000;0.4917;0.1535;
233.7000;0.4868;0.1511;
234.0000;0.4908;0.1610;
234.3000;0.4925;0.1684;
234.6000;0.4876;0.1560;
234.9000;0.4933;0.1709;
235.2000;0.4908;0.1709;
235.5000;0.4917;0.1684;
235.8000;0.4917;0.1733;
236.1000;0.4917;0.1709;
236.4000;0.4941;0.1733;
236.7000;0.4965;0.1808;
237.0000;0.4908;0.1634;
237.3000;0.4941;0.1659;
237.6000;0.4908;0.1585;
237.9000;0.4949;0.1684;
238.2000;0.4908;0.1659;
238.5000;0.4925;0.1634;
238.8000;0.4917;0.1684;
239.1000;0.4917;0.1659;
239.4000;0.4917;0.1709;
239.7000;0.4917;0.1659;
240.0000;0.4925;0.1610;
240.3000;0.4933;0.1610;
240.6000;0.4949;0.1684;
240.9000;0.4941;0.1659;
241.2000;0.4941;0.1684;
241.5000;0.4917;0.1486;
241.8000;0.4917;0.1387;
242.1000;0.4876;0.1263;
242.4000;0.4925;0.1411;
242.7000;0.4917;0.1461;
243.0000;0.4925;0.1535;
243.3000;0.4933;0.1610;
243.6000;0.4933;0.1634;
243.9000;0.4974;0.1733;
244.2000;0.4925;0.1659;
244.5000;0.4917;0.1709;
244.8000;0.4908;0.1709;
245.1000;0.4925;0.1684;
245.4000;0.4917;0.1684;
245.7000;0.4900;0.1684;
246.0000;0.4917;0.1733;
246.3000;0.4908;0.1634;
246.6000;0.4908;0.1634;
246.9000;0.4900;0.1684;
247.2000;0.4925;0.1634;
247.5000;0.4900;0.1560;
247.8000;0.4925;0.1610;
248.1000;0.4908;0.1585;
248.4000;0.4908;0.1535;
248.7000;0.4933;0.1634;
249.0000;0.4908;0.1535;
249.3000;0.4908;0.1610;
249.6000;0.4908;0.1634;
249.9000;0.4908;0.1585;
250.2000;0.4917;0.1610;
250.5000;0.4949;0.1733;
250.8000;0.4917;0.1634;
251.1000;0.4908;0.1659;
251.4000;0.4925;0.1709;
251.7000;0.5014;0.1981;
252.0000;0.4933;0.1758;
252.3000;0.4982;0.1857;
252.6000;0.4933;0.1709;
252.9000;0.4933;0.1709;
253.2000;0.4925;0.1659;
253.5000;0.4933;0.1634;
253.8000;0.4933;0.1585;
254.1000;0.4933;0.1659;
254.4000;0.4917;0.1610;
254.7000;0.4908;0.1511;
255.0000;0.4908;0.1535;
255.3000;0.4900;0.1560;
255.6000;0.4900;0.1535;
255.9000;0.4917;0.1535;
256.2000;0.4900;0.1511;
256.5000;0.4941;0.1659;
256.8000;0.4917;0.1659;
257.1000;0.4925;0.1610;
257.4000;0.4925;0.1758;
257.7000;0.4925;0.1709;
258.0000;0.4917;0.1733;
258.3000;0.4949;0.1783;
258.6000;0.4908;0.1659;
258.9000;0.4933;0.1684;
259.2000;0.4917;0.1684;
259.5000;0.4933;0.1634;
259.8000;0.4908;0.1560;
260.1000;0.4908;0.1511;
260.4000;0.4908;0.1486;
260.7000;0.4917;0.1486;
261.0000;0.4925;0.1610;
261.3000;0.4917;0.1585;
261.6000;0.4925;0.1634;
261.9000;0.4917;0.1610;
262.2000;0.4908;0.1634;
262.5000;0.4892;0.1634;
262.8000;0.4917;0.1610;
263.1000;0.4908;0.1560;
263.4000;0.4917;0.1585;
263.7000;0.4876;0.1585;
264.0000;0.4892;0.1610;
264.3000;0.4908;0.1659;
264.6000;0.4925;0.1758;
264.9000;0.4925;0.1659;
265.2000;0.4974;0.1758;
265.5000;0.4917;0.1610;
265.8000;0.4908;0.1684;
266.1000;0.4908;0.1684;
266.4000;0.4917;0.1634;
266.7000;0.4933;0.1783;
267.0000;0.4941;0.1882;
267.3000;0.4917;0.1758;
267.6000;0.4843;0.1585;
267.9000;0.4957;0.1857;
268.2000;0.4917;0.1684;
268.5000;0.4933;0.1758;
268.8000;0.4925;0.1709;
269.1000;0.4917;0.1659;
269.4000;0.4917;0.1634;
269.7000;0.4925;0.1634;
270.0000;0.4925;0.1585;
270.3000;0.4900;0.1511;
270.6000;0.4900;0.1585;
270.9000;0.4941;0.1659;
271.2000;0.4933;0.1511;
271.5000;0.4925;0.1486;
271.8000;0.4933;0.1560;
272.1000;0.4917;0.1436;
272.4000;0.4925;0.1560;
272.7000;0.4925;0.1634;
273.0000;0.4917;0.1659;
273.3000;0.4925;0.1758;
273.6000;0.4908;0.1709;
273.9000;0.4908;0.1659;
274.2000;0.4908;0.1709;
274.5000;0.4917;0.1758;
274.8000;0.4900;0.1758;
275.1000;0.4917;0.1709;
275.4000;0.4933;0.1634;
275.7000;0.4908;0.1585;
276.0000;0.4974;0.1684;
276.3000;0.4925;0.1535;
276.6000;0.4908;0.1560;
276.9000;0.4941;0.1585;
277.2000;0.4941;0.1585;
277.5000;0.4908;0.1659;
277.8000;0.4917;0.1560;
278.1000;0.4892;0.1535;
278.4000;0.4908;0.1560;
278.7000;0.4925;0.1560;
279.0000;0.4908;0.1535;
279.3000;0.4925;0.1535;
279.6000;0.4900;0.1511;
279.9000;0.4933;0.1486;
280.2000;0.4933;0.1461;
280.5000;0.4917;0.1461;
280.8000;0.4868;0.1387;
281.1000;0.4917;0.1486;
281.4000;0.4933;0.1560;
281.7000;0.4925;0.1535;
282.0000;0.4908;0.1511;
282.3000;0.4917;0.1511;
282.6000;0.4892;0.1486;
282.9000;0.4900;0.1560;
283.2000;0.4917;0.1560;
283.5000;0.4900;0.1585;
283.8000;0.4917;0.1733;
284.1000;0.4917;0.1857;
284.4000;0.4908;0.1783;
284.7000;0.4982;0.1956;
285.0000;0.4908;0.1684;
285.3000;0.4933;0.1733;
285.6000;0.4900;0.1709;
285.9000;0.4998;0.2006;
286.2000;0.4908;0.1733;
286.5000;0.4933;0.1832;
286.8000;0.4925;0.1808;
287.1000;0.4908;0.1709;
287.4000;0.4941;0.1733;
287.7000;0.4925;0.1634;
288.0000;0.4917;0.1634;
288.3000;0.4925;0.1659;
288.6000;0.4876;0.1535;
288.9000;0.4990;0.1783;
289.2000;0.4876;0.1486;
289.5000;0.4900;0.1486;
289.8000;0.4908;0.1461;
290.1000;0.4908;0.1436;
290.4000;0.4998;0.1610;
290.7000;0.4917;0.1436;
291.0000;0.4925;0.1411;
291.3000;0.4908;0.1337;
291.6000;0.4917;0.1337;
291.9000;0.4925;0.1362;
292.2000;0.4908;0.1362;
292.5000;0.4908;0.1461;
292.8000;0.4908;0.1511;
293.1000;0.4925;0.1511;
293.4000;0.4917;0.1535;
293.7000;0.4908;0.1560;
294.0000;0.4892;0.1634;
294.3000;0.4908;0.1659;
294.6000;0.4908;0.1659;
294.9000;0.4925;0.1684;
295.2000;0.4917;0.1610;
295.5000;0.4933;0.1560;
295.8000;0.4908;0.1560;
296.1000;0.4949;0.1634;
296.4000;0.4925;0.1535;
296.7000;0.4933;0.1560;
297.0000;0.4884;0.1486;
297.3000;0.4908;0.1535;
297.6000;0.4908;0.1535;
297.9000;0.4933;0.1461;
298.2000;0.4917;0.1411;
298.5000;0.4908;0.1387;
298.8000;0.4925;0.1461;
299.1000;0.4876;0.1337;
299.4000;0.4908;0.1387;
299.7000;0.4917;0.1461;
300.0000;0.4949;0.1560;
300.3000;0.4876;0.1337;
300.6000;0.4917;0.1362;
300.9000;0.4843;0.1164;
301.2000;0.4851;0.1337;
301.5000;0.4917;0.1411;
301.8000;0.4933;0.1411;
302.1000;0.4917;0.1337;
302.4000;0.4925;0.1337;
302.7000;0.4908;0.1387;
303.0000;0.4925;0.1461;
303.3000;0.4933;0.1486;
303.6000;0.4917;0.1436;
303.9000;0.4868;0.1164;
304.2000;0.4917;0.1312;
304.5000;0.4925;0.1362;
304.8000;0.4835;0.1139;
305.1000;0.4908;0.1486;
305.4000;0.4925;0.1560;
305.7000;0.4908;0.1560;
306.0000;0.4900;0.1659;
306.3000;0.4835;0.1511;
306.6000;0.4917;0.1610;
306.9000;0.4900;0.1610;
307.2000;0.4908;0.1610;
307.5000;0.4900;0.1560;
307.8000;0.4900;0.1585;
308.1000;0.4917;0.1659;
308.4000;0.4949;0.1709;
308.7000;0.4917;0.1585;
309.0000;0.4925;0.1634;
309.3000;0.4908;0.1511;
309.6000;0.4917;0.1486;
309.9000;0.4949;0.1610;
310.2000;0.4925;0.1610;
310.5000;0.4900;0.1486;
310.8000;0.4908;0.1486;
311.1000;0.4917;0.1535;
311.4000;0.4851;0.1411;
311.7000;0.4925;0.1461;
312.0000;0.4908;0.1461;
312.3000;0.4933;0.1535;
312.6000;0.4933;0.1659;
312.9000;0.4908;0.1684;
313.2000;0.4860;0.1560;
313.5000;0.4917;0.1709;
313.8000;0.4933;0.1709;
314.1000;0.4860;0.1585;
314.4000;0.4917;0.1684;
314.7000;0.4917;0.1684;
315.0000;0.4917;0.1758;
315.3000;0.4917;0.1783;
315.6000;0.4925;0.1684;
315.9000;0.4900;0.1709;
316.2000;0.4900;0.1733;
316.5000;0.4908;0.1709;
316.8000;0.4900;0.1684;
317.1000;0.4900;0.1634;
317.4000;0.4925;0.1659;
317.7000;0.4892;0.1560;
318.0000;0.4925;0.1634;
318.3000;0.4908;0.1511;
318.6000;0.4917;0.1560;
318.9000;0.4908;0.1461;
319.2000;0.4908;0.1486;
319.5000;0.4900;0.1511;
319.8000;0.4917;0.1560;
320.1000;0.4908;0.1610;
320.4000;0.4925;0.1535;
320.7000;0.4908;0.1535;
321.0000;0.4908;0.1486;
321.3000;0.4908;0.1535;
321.6000;0.4876;0.1486;
321.9000;0.4917;0.1634;
322.2000;0.4868;0.1511;
322.5000;0.4917;0.1684;
322.8000;0.4917;0.1733;
323.1000;0.4908;0.1684;
323.4000;0.4900;0.1684;
323.7000;0.4941;0.1808;
324.0000;0.4892;0.1684;
324.3000;0.4900;0.1684;
324.6000;0.4917;0.1659;
324.9000;0.4892;0.1585;
325.2000;0.4941;0.1758;
325.5000;0.4925;0.1733;
325.8000;0.4868;0.1585;
326.1000;0.4941;0.1733;
326.4000;0.4925;0.1783;
326.7000;0.4908;0.1783;
327.0000;0.4892;0.1783;
327.3000;0.4908;0.1857;
327.6000;0.4900;0.1808;
327.9000;0.4925;0.1907;
328.2000;0.4925;0.1857;
328.5000;0.4925;0.1981;
328.8000;0.4974;0.2006;
329.1000;0.4933;0.1857;
329.4000;0.4908;0.1907;
329.7000;0.5006;0.2130;
330.0000;0.4884;0.1783;
330.3000;0.4908;0.1783;
330.6000;0.4925;0.1857;
330.9000;0.4917;0.1832;
331.2000;0.4917;0.1832;
331.5000;0.4941;0.1882;
331.8000;0.4933;0.1882;
332.1000;0.4941;0.1907;
332.4000;0.4908;0.1808;
332.7000;0.4900;0.1783;
333.0000;0.4908;0.1832;
333.3000;0.4917;0.1808;
333.6000;0.4900;0.1783;
333.9000;0.4917;0.1832;
334.2000;0.4925;0.1808;
334.5000;0.4917;0.1758;
334.8000;0.4908;0.1857;
335.1000;0.4925;0.1907;
335.4000;0.4917;0.1733;
335.7000;0.4925;0.1709;
336.0000;0.4917;0.1684;
336.3000;0.4908;0.1733;
336.6000;0.4941;0.1709;
336.9000;0.4925;0.1758;
337.2000;0.4908;0.1709;
337.5000;0.4925;0.1783;
337.8000;0.4892;0.1684;
338.1000;0.4908;0.1758;
338.4000;0.4900;0.1709;
338.7000;0.4908;0.1709;
339.0000;0.4892;0.1709;
339.3000;0.4892;0.1783;
339.6000;0.4917;0.1758;
339.9000;0.4908;0.1733;
340.2000;0.4908;0.1758;
340.5000;0.4908;0.1733;
340.8000;0.4957;0.1907;
341.1000;0.4908;0.1783;
341.4000;0.4917;0.1758;
341.7000;0.4933;0.1709;
342.0000;0.4917;0.1684;
342.3000;0.4908;0.1634;
342.6000;0.4908;0.1610;
342.9000;0.4908;0.1659;
343.2000;0.4917;0.1684;
343.5000;0.4917;0.1659;
343.8000;0.4908;0.1585;
344.1000;0.4900;0.1535;
344.4000;0.4941;0.1610;
344.7000;0.4925;0.1585;
345.0000;0.4933;0.1585;
345.3000;0.4908;0.1585;
345.6000;0.4900;0.1560;
345.9000;0.4925;0.1684;
346.2000;0.4900;0.1585;
346.5000;0.4892;0.1610;
346.8000;0.4933;0.1684;
347.1000;0.4908;0.1659;
347.4000;0.4900;0.1659;
347.7000;0.4868;0.1535;
348.0000;0.4908;0.1585;
348.3000;0.4949;0.1634;
348.6000;0.4908;0.1585;
348.9000;0.4892;0.1634;
349.2000;0.4900;0.1709;
349.5000;0.4876;0.1610;
349.8000;0.4860;0.1411;
350.1000;0.4900;0.1560;
350.4000;0.4917;0.1535;
350.7000;0.4917;0.1560;
351.0000;0.4900;0.1560;
351.3000;0.4933;0.1511;
351.6000;0.4925;0.1461;
351.9000;0.4925;0.1535;
352.2000;0.4917;0.1585;
352.5000;0.4917;0.1560;
352.8000;0.4860;0.1511;
353.1000;0.4917;0.1634;
353.4000;0.4917;0.1659;
353.7000;0.4908;0.1659;
354.0000;0.4908;0.1709;
354.3000;0.4900;0.1634;
354.6000;0.4908;0.1634;
354.9000;0.4908;0.1709;
355.2000;0.4917;0.1684;
355.5000;0.4917;0.1684;
355.8000;0.4941;0.1808;
356.1000;0.4917;0.1709;
356.4000;0.4933;0.1882;
356.7000;0.4908;0.1832;
357.0000;0.4925;0.1832;
357.3000;0.4933;0.1808;
357.6000;0.4917;0.1783;
357.9000;0.4908;0.1783;
358.2000;0.4908;0.1733;
358.5000;0.4900;0.1783;
358.8000;0.4917;0.1758;
359.1000;0.4917;0.1659;
359.4000;0.4892;0.1560;
359.7000;0.4917;0.1610;
360.0000;0.4900;0.1486;
360.3000;0.4884;0.1511;
360.6000;0.4892;0.1511;
360.9000;0.4908;0.1659;
361.2000;0.4933;0.1758;
361.5000;0.4925;0.1659;
361.8000;0.4884;0.1585;
362.1000;0.4900;0.1610;
362.4000;0.4892;0.1659;
362.7000;0.4908;0.1733;
363.0000;0.4900;0.1659;
363.3000;0.4900;0.1709;
363.6000;0.4892;0.1758;
363.9000;0.4900;0.1857;
364.2000;0.4908;0.1832;
364.5000;0.4917;0.1832;
364.8000;0.4908;0.1709;
365.1000;0.4917;0.1758;
365.4000;0.4908;0.1808;
365.7000;0.4925;0.1783;
366.0000;0.4908;0.1832;
366.3000;0.4884;0.1783;
366.6000;0.4892;0.1758;
366.9000;0.4941;0.1783;
367.2000;0.4908;0.1585;
367.5000;0.4917;0.1535;
367.8000;0.4917;0.1511;
368.1000;0.4941;0.1511;
368.4000;0.4925;0.1511;
368.7000;0.4949;0.1511;
369.0000;0.4917;0.1411;
369.3000;0.4908;0.1387;
369.6000;0.4941;0.1263;
369.9000;0.4917;0.1312;
370.2000;0.4908;0.1288;
370.5000;0.4933;0.1411;
370.8000;0.4900;0.1362;
371.1000;0.4908;0.1511;
371.4000;0.4908;0.1585;
371.7000;0.4908;0.1560;
372.0000;0.4925;0.1585;
372.3000;0.4965;0.1733;
372.6000;0.4974;0.1684;
372.9000;0.4933;0.1610;
373.2000;0.4900;0.1535;
373.5000;0.4892;0.1461;
373.8000;0.4908;0.1461;
374.1000;0.4900;0.1535;
374.4000;0.4908;0.1535;
374.7000;0.4900;0.1560;
375.0000;0.4900;0.1610;
375.3000;0.4957;0.1808;
375.6000;0.4908;0.1610;
375.9000;0.4900;0.1610;
376.2000;0.4900;0.1684;
376.5000;0.4892;0.1659;
376.8000;0.4908;0.1634;
377.1000;0.4925;0.1610;
377.4000;0.4900;0.1585;
377.7000;0.4933;0.1634;
378.0000;0.4908;0.1610;
378.3000;0.4908;0.1560;
378.6000;0.4925;0.1486;
378.9000;0.4917;0.1535;
379.2000;0.4892;0.1486;
379.5000;0.4917;0.1560;
379.8000;0.4917;0.1585;
380.1000;0.4917;0.1585;
380.4000;0.4908;0.1560;
380.7000;0.4917;0.1709;
381.0000;0.4917;0.1684;
381.3000;0.4941;0.1709;
381.6000;0.4892;0.1585;
381.9000;0.4908;0.1634;
382.2000;0.4933;0.1733;
382.5000;0.4925;0.1783;
382.8000;0.4900;0.1758;
383.1000;0.4908;0.1733;
383.4000;0.4908;0.1733;
383.7000;0.4908;0.1709;
384.0000;0.4900;0.1758;
384.3000;0.4917;0.1684;
384.6000;0.4900;0.1634;
384.9000;0.4933;0.1758;
385.2000;0.4900;0.1758;
385.5000;0.4900;0.1783;
385.8000;0.4957;0.1956;
386.1000;0.4908;0.1832;
386.4000;0.4908;0.1808;
386.7000;0.4908;0.1758;
387.0000;0.4917;0.1659;
387.3000;0.4965;0.1808;
387.6000;0.4908;0.1733;
387.9000;0.4925;0.1783;
388.2000;0.4900;0.1733;
388.5000;0.4900;0.1709;
388.8000;0.4908;0.1709;
389.1000;0.4925;0.1733;
389.4000;0.4900;0.1634;
389.7000;0.4900;0.1659;
390.0000;0.4908;0.1758;
390.3000;0.4933;0.1832;
390.6000;0.4876;0.1709;
390.9000;0.4917;0.1832;
391.2000;0.4917;0.1758;
391.5000;0.4941;0.1783;
391.8000;0.4843;0.1560;
392.1000;0.4949;0.1832;
392.4000;0.4908;0.1758;
392.7000;0.4908;0.1709;
393.0000;0.4925;0.1758;
393.3000;0.4908;0.1733;
393.6000;0.4917;0.1733;
393.9000;0.4925;0.1634;
394.2000;0.4917;0.1585;
394.5000;0.4917;0.1560;
394.8000;0.4884;0.1511;
395.1000;0.4835;0.1387;
395.4000;0.4917;0.1634;
395.7000;0.4908;0.1634;
396.0000;0.4900;0.1634;
396.3000;0.4917;0.1733;
396.6000;0.4941;0.1832;
396.9000;0.4908;0.1758;
397.2000;0.4900;0.1783;
397.5000;0.4892;0.1783;
397.8000;0.4900;0.1808;
398.1000;0.4908;0.1783;
398.4000;0.4900;0.1758;
398.7000;0.4884;0.1659;
399.0000;0.4835;0.1535;
399.3000;0.4860;0.1585;
399.6000;0.4892;0.1709;
399.9000;0.4892;0.1733;
400.2000;0.4908;0.1709;
400.5000;0.4892;0.1808;
400.8000;0.4908;0.1808;
401.1000;0.4900;0.1857;
401.4000;0.4908;0.1882;
401.7000;0.4925;0.1882;
402.0000;0.4917;0.1808;
402.3000;0.4908;0.1659;
402.6000;0.4892;0.1585;
402.9000;0.4892;0.1634;
403.2000;0.4941;0.1758;
403.5000;0.4892;0.1634;
403.8000;0.4900;0.1684;
404.1000;0.4925;0.1634;
404.4000;0.4933;0.1733;
404.7000;0.4908;0.1634;
405.0000;0.4925;0.1733;
405.3000;0.4933;0.1808;
405.6000;0.4990;0.1956;
405.9000;0.4925;0.1808;
406.2000;0.4892;0.1832;
406.5000;0.4876;0.1758;
406.8000;0.4908;0.1832;
407.1000;0.4900;0.1907;
407.4000;0.4851;0.1758;
407.7000;0.4917;0.1832;
408.0000;0.4908;0.1758;
408.3000;0.4892;0.1659;
408.6000;0.4892;0.1585;
408.9000;0.4900;0.1610;
409.2000;0.4917;0.1733;
409.5000;0.4917;0.1857;
409.8000;0.4900;0.1808;
410.1000;0.4908;0.1783;
410.4000;0.4917;0.1931;
410.7000;0.4974;0.2006;
411.0000;0.4892;0.1733;
411.3000;0.4892;0.1684;
411.6000;0.4908;0.1684;
411.9000;0.4892;0.1709;
412.2000;0.4900;0.1733;
412.5000;0.4908;0.1832;
412.8000;0.4900;0.1758;
413.1000;0.4917;0.1808;
413.4000;0.4917;0.1882;
413.7000;0.4908;0.1857;
414.0000;0.4908;0.1882;
414.3000;0.4908;0.1931;
414.6000;0.4925;0.2006;
414.9000;0.4884;0.1907;
415.2000;0.4917;0.2006;
415.5000;0.4900;0.2006;
415.8000;0.4917;0.1981;
416.1000;0.4933;0.2055;
416.4000;0.4908;0.1907;
416.7000;0.4965;0.2055;
417.0000;0.4892;0.1832;
417.3000;0.4892;0.1857;
417.6000;0.4908;0.1882;
417.9000;0.4908;0.1882;
418.2000;0.4957;0.2055;
418.5000;0.4908;0.1981;
418.8000;0.4908;0.1931;
419.1000;0.4949;0.1981;
419.4000;0.4908;0.1857;
419.7000;0.4908;0.1857;
420.0000;0.4917;0.1808;
420.3000;0.4908;0.1808;
420.6000;0.4908;0.1882;
420.9000;0.4974;0.2179;
421.2000;0.4941;0.2006;
421.5000;0.4835;0.1733;
421.8000;0.4884;0.1857;
422.1000;0.4892;0.1758;
422.4000;0.4917;0.1758;
422.7000;0.4908;0.1808;
423.0000;0.4892;0.1733;
423.3000;0.4827;0.1535;
423.6000;0.4933;0.1783;
423.9000;0.4908;0.1733;
424.2000;0.4908;0.1758;
424.5000;0.4884;0.1684;
424.8000;0.4917;0.1857;
425.1000;0.4925;0.1882;
425.4000;0.4933;0.1857;
425.7000;0.4925;0.1857;
426.0000;0.4908;0.1758;
426.3000;0.4908;0.1733;
426.6000;0.4917;0.1684;
426.9000;0.4892;0.1733;
427.2000;0.4892;0.1733;
427.5000;0.4884;0.1758;
427.8000;0.4908;0.1733;
428.1000;0.4908;0.1783;
428.4000;0.4917;0.1832;
428.7000;0.4900;0.1783;
429.0000;0.4925;0.1733;
429.3000;0.4949;0.1857;
429.6000;0.4917;0.1733;
429.9000;0.4900;0.1709;
430.2000;0.4908;0.1783;
430.5000;0.4900;0.1783;
430.8000;0.4900;0.1758;
431.1000;0.4892;0.1733;
431.4000;0.4868;0.1783;
431.7000;0.4892;0.1857;
432.0000;0.4908;0.1882;
432.3000;0.4908;0.1882;
432.6000;0.4908;0.1882;
432.9000;0.4900;0.1857;
433.2000;0.4908;0.1783;
433.5000;0.4892;0.1758;
433.8000;0.4900;0.1907;
434.1000;0.4917;0.1931;
434.4000;0.4908;0.1956;
434.7000;0.4917;0.1956;
435.0000;0.4908;0.1956;
435.3000;0.4933;0.1981;
435.6000;0.4900;0.1981;
435.9000;0.4917;0.1981;
436.2000;0.4908;0.1931;
436.5000;0.4917;0.1931;
436.8000;0.4908;0.1907;
437.1000;0.4908;0.1857;
437.4000;0.4908;0.1931;
437.7000;0.4908;0.1733;
438.0000;0.4917;0.1758;
438.3000;0.4982;0.1907;
438.6000;0.4908;0.1783;
438.9000;0.4900;0.1832;
439.2000;0.4917;0.1956;
439.5000;0.4933;0.1907;
439.8000;0.4860;0.1758;
440.1000;0.4908;0.1783;
440.4000;0.4892;0.1758;
440.7000;0.4908;0.1808;
441.0000;0.4900;0.1783;
441.3000;0.4917;0.1808;
441.6000;0.4843;0.1659;
441.9000;0.4900;0.1857;
442.2000;0.4892;0.1808;
442.5000;0.4892;0.1684;
442.8000;0.4900;0.1684;
443.1000;0.4908;0.1758;
443.4000;0.4925;0.1808;
443.7000;0.4908;0.1783;
444.0000;0.4868;0.1709;
444.3000;0.4925;0.1882;
444.6000;0.4900;0.1610;
444.9000;0.4917;0.1560;
445.2000;0.4957;0.1560;
445.5000;0.4908;0.1511;
445.8000;0.4941;0.1684;
446.1000;0.4908;0.1684;
446.4000;0.4908;0.1733;
446.7000;0.4900;0.1758;
447.0000;0.4900;0.1808;
447.3000;0.4908;0.1758;
447.6000;0.4908;0.1733;
447.9000;0.4900;0.1783;
448.2000;0.4908;0.1832;
448.5000;0.4917;0.1857;
448.8000;0.4925;0.1907;
449.1000;0.4925;0.1956;
449.4000;0.4892;0.1907;
449.7000;0.4900;0.1832;
450.0000;0.4908;0.1832;
450.3000;0.4917;0.1783;
450.6000;0.4908;0.1832;
450.9000;0.4941;0.1981;
451.2000;0.4917;0.1907;
451.5000;0.4917;0.1832;
451.8000;0.4925;0.1857;
452.1000;0.4908;0.1783;
452.4000;0.4908;0.1783;
452.7000;0.4900;0.1783;
453.0000;0.4917;0.1684;
453.3000;0.4917;0.1659;
453.6000;0.4900;0.1733;
453.9000;0.4908;0.1709;
454.2000;0.4941;0.1783;
454.5000;0.4908;0.1659;
454.8000;0.4908;0.1659;
455.1000;0.4892;0.1585;
455.4000;0.4917;0.1659;
455.7000;0.4908;0.1684;
456.0000;0.4917;0.1783;
456.3000;0.4917;0.1808;
456.6000;0.4892;0.1832;
456.9000;0.4876;0.1709;
457.2000;0.4908;0.1659;
457.5000;0.4892;0.1535;
457.8000;0.4827;0.1461;
458.1000;0.4892;0.1733;
458.4000;0.4900;0.1857;
458.7000;0.4908;0.1931;
459.0000;0.4908;0.1832;
459.3000;0.4908;0.1857;
459.6000;0.4900;0.1808;
459.9000;0.4917;0.1857;
460.2000;0.4900;0.1907;
460.5000;0.4892;0.1931;
460.8000;0.4908;0.1956;
461.1000;0.4917;0.1956;
461.4000;0.4933;0.1981;
461.7000;0.4900;0.1808;
462.0000;0.4908;0.1832;
462.3000;0.4843;0.1634;
462.6000;0.4900;0.1733;
462.9000;0.4900;0.1684;
463.2000;0.4884;0.1684;
463.5000;0.4917;0.1758;
463.8000;0.4933;0.1783;
464.1000;0.4908;0.1783;
464.4000;0.4868;0.1659;
464.7000;0.4900;0.1832;
465.0000;0.4908;0.1882;
465.3000;0.4892;0.1857;
465.6000;0.4908;0.1956;
465.9000;0.4908;0.1931;
466.2000;0.4876;0.1931;
466.5000;0.4925;0.2031;
466.8000;0.4892;0.1882;
467.1000;0.4892;0.1907;
467.4000;0.4917;0.2006;
467.7000;0.4917;0.2055;
468.0000;0.4908;0.2080;
468.3000;0.4908;0.2080;
468.6000;0.4925;0.2130;
468.9000;0.4933;0.2130;
469.2000;0.4917;0.2055;
469.5000;0.4876;0.1857;
469.8000;0.4827;0.1659;
470.1000;0.4908;0.1931;
470.4000;0.4908;0.1857;
470.7000;0.4900;0.1907;
471.0000;0.4900;0.1857;
471.3000;0.4892;0.1931;
471.6000;0.4884;0.1882;
471.9000;0.4933;0.1931;
472.2000;0.4908;0.1907;
472.5000;0.4917;0.1808;
472.8000;0.4933;0.1832;
473.1000;0.4917;0.1832;
473.4000;0.4917;0.1783;
473.7000;0.4884;0.1758;
474.0000;0.4925;0.1832;
474.3000;0.4949;0.1931;
474.6000;0.4900;0.1758;
474.9000;0.4892;0.1808;
475.2000;0.4917;0.1882;
475.5000;0.4908;0.1758;
475.8000;0.4917;0.1733;
476.1000;0.4949;0.1758;
476.4000;0.4908;0.1709;
476.7000;0.4908;0.1709;
477.0000;0.4900;0.1684;
477.3000;0.4900;0.1709;
477.6000;0.4908;0.1758;
477.9000;0.4925;0.1857;
478.2000;0.4917;0.1857;
478.5000;0.4908;0.1783;
478.8000;0.4892;0.1808;
479.1000;0.4917;0.1783;
479.4000;0.4900;0.1709;
479.7000;0.4917;0.1758;
480.0000;0.4892;0.1709;
480.3000;0.4892;0.1659;
480.6000;0.4900;0.1634;
480.9000;0.4908;0.1585;
481.2000;0.4884;0.1535;
481.5000;0.4900;0.1585;
481.8000;0.4941;0.1783;
482.1000;0.4892;0.1783;
482.4000;0.4908;0.1758;
482.7000;0.4908;0.1758;
483.0000;0.4900;0.1808;
483.3000;0.4892;0.1709;
483.6000;0.4900;0.1659;
483.9000;0.4908;0.1733;
484.2000;0.4908;0.1783;
484.5000;0.4933;0.1783;
484.8000;0.4900;0.1783;
485.1000;0.4900;0.1758;
485.4000;0.4925;0.1907;
485.7000;0.4908;0.1832;
486.0000;0.4925;0.1808;
486.3000;0.4900;0.1709;
486.6000;0.4933;0.1758;
486.9000;0.4908;0.1684;
487.2000;0.4908;0.1733;
487.5000;0.4908;0.1733;
487.8000;0.4900;0.1684;
488.1000;0.4908;0.1758;
488.4000;0.4925;0.1808;
488.7000;0.4908;0.1907;
489.0000;0.4908;0.1956;
489.3000;0.4860;0.1832;
489.6000;0.4900;0.1981;
489.9000;0.4908;0.2055;
490.2000;0.4900;0.2031;
490.5000;0.4908;0.1931;
490.8000;0.4884;0.1857;
491.1000;0.4900;0.1907;
491.4000;0.4900;0.1857;
491.7000;0.4884;0.1783;
492.0000;0.4892;0.1758;
492.3000;0.4908;0.1733;
492.6000;0.4892;0.1709;
492.9000;0.4884;0.1733;
493.2000;0.4884;0.1783;
493.5000;0.4900;0.1832;
493.8000;0.4917;0.1907;
494.1000;0.4892;0.1882;
494.4000;0.4925;0.1882;
494.7000;0.4917;0.1832;
495.0000;0.4900;0.1808;
495.3000;0.4900;0.1783;
495.6000;0.4876;0.1808;
495.9000;0.4908;0.1907;
496.2000;0.4892;0.1882;
496.5000;0.4892;0.1907;
496.8000;0.4868;0.1808;
497.1000;0.4884;0.1808;
497.4000;0.4892;0.1684;
497.7000;0.4900;0.1659;
498.0000;0.4876;0.1585;
498.3000;0.4908;0.1634;
498.6000;0.4949;0.1758;
498.9000;0.4900;0.1585;
499.2000;0.4892;0.1659;
499.5000;0.4900;0.1733;
499.8000;0.4892;0.1733;
500.1000;0.4892;0.1659;
500.4000;0.4892;0.1634;
500.7000;0.4843;0.1585;
501.0000;0.4908;0.1733;
501.3000;0.4917;0.1758;
501.6000;0.4900;0.1709;
501.9000;0.4917;0.1808;
502.2000;0.4892;0.1659;
502.5000;0.4908;0.1709;
502.8000;0.4892;0.1610;
503.1000;0.4900;0.1585;
503.4000;0.4884;0.1659;
503.7000;0.4925;0.1758;
504.0000;0.4908;0.1659;
504.3000;0.4900;0.1610;
504.6000;0.4908;0.1610;
504.9000;0.4900;0.1610;
505.2000;0.4900;0.1684;
505.5000;0.4900;0.1733;
505.8000;0.4892;0.1882;
506.1000;0.4860;0.1659;
506.4000;0.4892;0.1758;
506.7000;0.4917;0.1783;
507.0000;0.4900;0.1684;
507.3000;0.4900;0.1684;
507.6000;0.4908;0.1733;
507.9000;0.4900;0.1659;
508.2000;0.4908;0.1684;
508.5000;0.4925;0.1684;
508.8000;0.4892;0.1684;
509.1000;0.4900;0.1758;
509.4000;0.4884;0.1684;
509.7000;0.4892;0.1709;
510.0000;0.4892;0.1709;
510.3000;0.4892;0.1758;
510.6000;0.4908;0.1684;
510.9000;0.4892;0.1709;
511.2000;0.4884;0.1610;
511.5000;0.4900;0.1709;
511.8000;0.4925;0.1733;
512.1000;0.4908;0.1684;
512.4000;0.4925;0.1733;
512.7000;0.4917;0.1808;
513.0000;0.4908;0.1709;
513.3000;0.4908;0.1634;
513.6000;0.4925;0.1758;
513.9000;0.4876;0.1634;
514.2000;0.4900;0.1733;
514.5000;0.4900;0.1733;
514.8000;0.4908;0.1758;
515.1000;0.4908;0.1783;
515.4000;0.4892;0.1733;
515.7000;0.4868;0.1709;
516.0000;0.4843;0.1634;
516.3000;0.4900;0.1808;
516.6000;0.4892;0.1808;
516.9000;0.4892;0.1882;
517.2000;0.4908;0.1907;
517.5000;0.4998;0.2154;
517.8000;0.4908;0.1832;
518.1000;0.4917;0.1857;
518.4000;0.4933;0.1907;
518.7000;0.4949;0.1857;
519.0000;0.4982;0.1931;
519.3000;0.4892;0.1709;
519.6000;0.4892;0.1684;
519.9000;0.4892;0.1634;
520.2000;0.4892;0.1585;
520.5000;0.4860;0.1585;
520.8000;0.4900;0.1709;
521.1000;0.4908;0.1733;
521.4000;0.4884;0.1684;
521.7000;0.4900;0.1684;
522.0000;0.4908;0.1659;
522.3000;0.4892;0.1634;
522.6000;0.4884;0.1560;
522.9000;0.4892;0.1560;
523.2000;0.4998;0.1832;
523.5000;0.4917;0.1610;
523.8000;0.4933;0.1610;
524.1000;0.4900;0.1486;
524.4000;0.4900;0.1535;
524.7000;0.4917;0.1585;
525.0000;0.4892;0.1585;
525.3000;0.4908;0.1535;
525.6000;0.4884;0.1535;
525.9000;0.4908;0.1634;
526.2000;0.4892;0.1585;
526.5000;0.4908;0.1610;
526.8000;0.4908;0.1585;
527.1000;0.4908;0.1585;
527.4000;0.4900;0.1535;
527.7000;0.4900;0.1585;
528.0000;0.4908;0.1684;
528.3000;0.4908;0.1684;
528.6000;0.4908;0.1684;
528.9000;0.4900;0.1610;
529.2000;0.4900;0.1634;
529.5000;0.4892;0.1560;
529.8000;0.4892;0.1560;
530.1000;0.4908;0.1560;
530.4000;0.4876;0.1511;
530.7000;0.4908;0.1511;
531.0000;0.4900;0.1486;
531.3000;0.4908;0.1436;
531.6000;0.4876;0.1436;
531.9000;0.4884;0.1511;
532.2000;0.4900;0.1659;
532.5000;0.4892;0.1560;
532.8000;0.4900;0.1560;
533.1000;0.4900;0.1436;
533.4000;0.4908;0.1461;
533.7000;0.4884;0.1362;
534.0000;0.4917;0.1411;
534.3000;0.4908;0.1362;
534.6000;0.4900;0.1387;
534.9000;0.4998;0.1659;
535.2000;0.4908;0.1411;
535.5000;0.4941;0.1535;
535.8000;0.4900;0.1486;
536.1000;0.4908;0.1486;
536.4000;0.4892;0.1411;
536.7000;0.4908;0.1511;
537.0000;0.4900;0.1535;
537.3000;0.4892;0.1461;
537.6000;0.4908;0.1411;
537.9000;0.4892;0.1362;
538.2000;0.4892;0.1288;
538.5000;0.4884;0.1288;
538.8000;0.4900;0.1461;
539.1000;0.4900;0.1511;
539.4000;0.4892;0.1535;
539.7000;0.4900;0.1511;
540.0000;0.4892;0.1560;
540.3000;0.4900;0.1560;
540.6000;0.4884;0.1511;
540.9000;0.4892;0.1461;
541.2000;0.4892;0.1535;
541.5000;0.4908;0.1560;
541.8000;0.4892;0.1610;
542.1000;0.4876;0.1610;
542.4000;0.4900;0.1634;
542.7000;0.4884;0.1634;
543.0000;0.4892;0.1585;
543.3000;0.4900;0.1535;
543.6000;0.4900;0.1486;
543.9000;0.4900;0.1511;
544.2000;0.4908;0.1486;
544.5000;0.4819;0.1288;
544.8000;0.4917;0.1535;
545.1000;0.4908;0.1511;
545.4000;0.4900;0.1535;
545.7000;0.4925;0.1610;
546.0000;0.4917;0.1684;
546.3000;0.4908;0.1733;
546.6000;0.4884;0.1610;
546.9000;0.4900;0.1733;
547.2000;0.4892;0.1709;
547.5000;0.4900;0.1709;
547.8000;0.4908;0.1634;
548.1000;0.4900;0.1634;
548.4000;0.4900;0.1634;
548.7000;0.4892;0.1659;
549.0000;0.4900;0.1684;
549.3000;0.4892;0.1659;
549.6000;0.4851;0.1535;
549.9000;0.4900;0.1634;
550.2000;0.4843;0.1486;
550.5000;0.4900;0.1684;
550.8000;0.4892;0.1659;
551.1000;0.4900;0.1634;
551.4000;0.4900;0.1610;
551.7000;0.4900;0.1585;
552.0000;0.4908;0.1461;
552.3000;0.4892;0.1436;
552.6000;0.4900;0.1411;
552.9000;0.4908;0.1486;
553.2000;0.4884;0.1337;
553.5000;0.4892;0.1362;
553.8000;0.4900;0.1387;
554.1000;0.4892;0.1362;
554.4000;0.4900;0.1337;
554.7000;0.4876;0.1337;
555.0000;0.4892;0.1585;
555.3000;0.4917;0.1659;
555.6000;0.4884;0.1560;
555.9000;0.4884;0.1511;
556.2000;0.4908;0.1585;
556.5000;0.4884;0.1634;
556.8000;0.4803;0.1387;
557.1000;0.4917;0.1709;
557.4000;0.4868;0.1684;
557.7000;0.4900;0.1709;
558.0000;0.4900;0.1684;
558.3000;0.4917;0.1610;
558.6000;0.4900;0.1585;
558.9000;0.4884;0.1560;
559.2000;0.4908;0.1684;
559.5000;0.4900;0.1659;
559.8000;0.4892;0.1659;
560.1000;0.4908;0.1684;
560.4000;0.4949;0.1684;
560.7000;0.4908;0.1684;
561.0000;0.4876;0.1585;
561.3000;0.4900;0.1684;
561.6000;0.4900;0.1659;
561.9000;0.4917;0.1709;
562.2000;0.4900;0.1709;
562.5000;0.4900;0.1684;
562.8000;0.4900;0.1733;
563.1000;0.4892;0.1733;
563.4000;0.4900;0.1808;
563.7000;0.4892;0.1783;
564.0000;0.4868;0.1733;
564.3000;0.4941;0.1882;
564.6000;0.4876;0.1634;
564.9000;0.4843;0.1585;
565.2000;0.4900;0.1733;
565.5000;0.4933;0.1882;
565.8000;0.4843;0.1659;
566.1000;0.4892;0.1783;
566.4000;0.4998;0.2031;
566.7000;0.4884;0.1733;
567.0000;0.4876;0.1709;
567.3000;0.4884;0.1709;
567.6000;0.4908;0.1709;
567.9000;0.4900;0.1733;
568.2000;0.4876;0.1659;
568.5000;0.4900;0.1684;
568.8000;0.4908;0.1733;
569.1000;0.4900;0.1832;
569.4000;0.4900;0.1857;
569.7000;0.4900;0.1931;
570.0000;0.4892;0.2006;
570.3000;0.4925;0.2055;
570.6000;0.4876;0.1931;
570.9000;0.4908;0.1907;
571.2000;0.4900;0.1783;
571.5000;0.4908;0.1733;
571.8000;0.4884;0.1684;
572.1000;0.4917;0.1684;
572.4000;0.4917;0.1610;
572.7000;0.4900;0.1560;
573.0000;0.4892;0.1560;
573.3000;0.4933;0.1733;
573.6000;0.4900;0.1634;
573.9000;0.4917;0.1634;
574.2000;0.4933;0.1659;
574.5000;0.4941;0.1783;
574.8000;0.4900;0.1709;
575.1000;0.4900;0.1733;
575.4000;0.4917;0.1758;
575.7000;0.4884;0.1709;
576.0000;0.4917;0.1758;
576.3000;0.4900;0.1758;
576.6000;0.4892;0.1634;
576.9000;0.4884;0.1684;
577.2000;0.4908;0.1783;
577.5000;0.4892;0.1733;
577.8000;0.4982;0.2006;
578.1000;0.4900;0.1783;
578.4000;0.4868;0.1659;
578.7000;0.4884;0.1659;
579.0000;0.4884;0.1610;
579.3000;0.4892;0.1634;
579.6000;0.4876;0.1634;
579.9000;0.4868;0.1585;
580.2000;0.4884;0.1610;
580.5000;0.4819;0.1411;
580.8000;0.4884;0.1535;
581.1000;0.4892;0.1709;
581.4000;0.4908;0.1733;
581.7000;0.4851;0.1634;
582.0000;0.4884;0.1659;
582.3000;0.4884;0.1684;
582.6000;0.4917;0.1709;
582.9000;0.4843;0.1486;
583.2000;0.4957;0.1783;
583.5000;0.4892;0.1684;
583.8000;0.4908;0.1709;
584.1000;0.4917;0.1709;
584.4000;0.4884;0.1610;
584.7000;0.4892;0.1610;
585.0000;0.4908;0.1560;
585.3000;0.4892;0.1585;
585.6000;0.4933;0.1659;
585.9000;0.4900;0.1659;
586.2000;0.4908;0.1659;
586.5000;0.4900;0.1659;
586.8000;0.4900;0.1610;
587.1000;0.4892;0.1560;
587.4000;0.4892;0.1535;
587.7000;0.4949;0.1610;
588.0000;0.4868;0.1288;
588.3000;0.4917;0.1560;
588.6000;0.4876;0.1486;
588.9000;0.4925;0.1436;
589.2000;0.4908;0.1436;
589.5000;0.4900;0.1387;
589.8000;0.4892;0.1387;
590.1000;0.4892;0.1411;
590.4000;0.4900;0.1535;
590.7000;0.4876;0.1535;
591.0000;0.4868;0.1511;
591.3000;0.4876;0.1535;
591.6000;0.4876;0.1634;
591.9000;0.4892;0.1610;
592.2000;0.4892;0.1560;
592.5000;0.4900;0.1535;
592.8000;0.4900;0.1585;
593.1000;0.4900;0.1610;
593.4000;0.4900;0.1610;
593.7000;0.4941;0.1659;
594.0000;0.4900;0.1511;
594.3000;0.4908;0.1511;
594.6000;0.4843;0.1362;
594.9000;0.4900;0.1461;
595.2000;0.4851;0.1337;
595.5000;0.4900;0.1511;
595.8000;0.4908;0.1585;
596.1000;0.4900;0.1511;
596.4000;0.4917;0.1560;
596.7000;0.4884;0.1486;
597.0000;0.4900;0.1486;
597.3000;0.4892;0.1461;
597.6000;0.4908;0.1535;
597.9000;0.4892;0.1461;
598.2000;0.4900;0.1436;
598.5000;0.4917;0.1461;
598.8000;0.4908;0.1486;
599.1000;0.4884;0.1436;
599.4000;0.4908;0.1585;
599.7000;0.4900;0.1535;
600.0000;0.4868;0.1535;
600.3000;0.4884;0.1560;
600.6000;0.4900;0.1535;
600.9000;0.4900;0.1411;
601.2000;0.4884;0.1312;
601.5000;0.4851;0.1288;
601.8000;0.4827;0.1164;
602.1000;0.4803;0.1015;
602.4000;0.4770;0.0867;
602.7000;0.4770;0.0792;
603.0000;0.4713;0.0743;
603.3000;0.4713;0.0768;
603.6000;0.4664;0.0693;
603.9000;0.4591;0.0470;
604.2000;0.4624;0.0520;
604.5000;0.4607;0.0570;
604.8000;0.4599;0.0545;
605.1000;0.4575;0.0495;
605.4000;0.4534;0.0470;
605.7000;0.4550;0.0570;
606.0000;0.4526;0.0545;
606.3000;0.4501;0.0396;
606.6000;0.4485;0.0223;
606.9000;0.4436;0.0198;
607.2000;0.4436;0.0149;
607.5000;0.4461;0.0223;
607.8000;0.4428;0.0149;
608.1000;0.4404;0.0198;
608.4000;0.4404;0.0124;
608.7000;0.4387;0.0149;
609.0000;0.4379;0.0074;
609.3000;0.4371;0.0074;
609.6000;0.4355;0.0000;
609.9000;0.4339;-0.0074;
610.2000;0.4339;-0.0099;
610.5000;0.4314;-0.0173;
610.8000;0.4306;-0.0050;
611.1000;0.4306;0.0000;
611.4000;0.4274;-0.0050;
611.7000;0.4282;0.0000;
612.0000;0.4265;0.0000;
612.3000;0.4257;0.0000;
612.6000;0.4257;0.0099;
612.9000;0.4225;0.0124;
613.2000;0.4225;0.0124;
613.5000;0.4225;0.0149;
613.8000;0.4225;0.0149;
614.1000;0.4192;0.0074;
614.4000;0.4217;0.0000;
614.7000;0.4208;0.0000;
615.0000;0.4192;0.0000;
615.3000;0.4192;-0.0025;
615.6000;0.4168;-0.0099;
615.9000;0.4168;-0.0050;
616.2000;0.4168;-0.0025;
616.5000;0.4176;-0.0099;
616.8000;0.4127;-0.0272;
617.1000;0.4111;-0.0248;
617.4000;0.4127;-0.0272;
617.7000;0.4119;-0.0297;
618.0000;0.4103;-0.0446;
618.3000;0.4094;-0.0446;
618.6000;0.4070;-0.0520;
618.9000;0.4094;-0.0421;
619.2000;0.4078;-0.0470;
619.5000;0.4135;-0.0297;
619.8000;0.4086;-0.0173;
620.1000;0.4005;-0.0297;
620.4000;0.4054;-0.0149;
620.7000;0.4046;-0.0099;
621.0000;0.4046;-0.0124;
621.3000;0.4103;0.0025;
621.6000;0.4029;-0.0099;
621.9000;0.4013;-0.0025;
622.2000;0.4013;-0.0074;
622.5000;0.4029;-0.0124;
622.8000;0.4029;0.0050;
623.1000;0.4013;0.0074;
623.4000;0.3997;0.0173;
623.7000;0.3980;0.0173;
624.0000;0.3980;0.0248;
624.3000;0.3964;0.0223;
624.6000;0.3956;0.0297;
624.9000;0.3964;0.0272;
625.2000;0.3972;0.0248;
625.5000;0.3956;0.0124;
625.8000;0.3923;0.0000;
626.1000;0.3940;0.0099;
626.4000;0.3956;0.0074;
626.7000;0.3932;-0.0025;
627.0000;0.3899;-0.0025;
627.3000;0.3899;-0.0025;
627.6000;0.3923;-0.0074;
627.9000;0.3891;-0.0149;
628.2000;0.3899;-0.0149;
628.5000;0.3867;-0.0223;
628.8000;0.3875;-0.0124;
629.1000;0.3858;-0.0074;
629.4000;0.3883;0.0000;
629.7000;0.3875;-0.0050;
630.0000;0.3875;0.0000;
630.3000;0.3867;0.0074;
630.6000;0.3932;0.0198;
630.9000;0.3858;0.0099;
631.2000;0.3850;0.0050;
631.5000;0.3834;-0.0050;
631.8000;0.3834;-0.0124;
632.1000;0.3842;-0.0173;
632.4000;0.3834;-0.0223;
632.7000;0.3810;-0.0248;
633.0000;0.3777;-0.0371;
633.3000;0.3801;-0.0248;
633.6000;0.3793;-0.0297;
633.9000;0.3826;-0.0198;
634.2000;0.3801;-0.0248;
634.5000;0.3826;-0.0173;
634.8000;0.3761;-0.0272;
635.1000;0.3769;-0.0173;
635.4000;0.3704;-0.0248;
635.7000;0.3801;-0.0025;
636.0000;0.3785;-0.0074;
636.3000;0.3785;-0.0050;
636.6000;0.3769;-0.0074;
636.9000;0.3777;-0.0025;
637.2000;0.3769;-0.0025;
637.5000;0.3753;-0.0099;
637.8000;0.3818;0.0149;
638.1000;0.3761;-0.0124;
638.4000;0.3801;0.0025;
638.7000;0.3736;-0.0099;
639.0000;0.3720;0.0025;
639.3000;0.3728;0.0000;
639.6000;0.3712;0.0000;
639.9000;0.3736;-0.0050;
640.2000;0.3687;-0.0198;
640.5000;0.3704;-0.0248;
640.8000;0.3712;-0.0322;
641.1000;0.3712;-0.0322;
641.4000;0.3712;-0.0297;
641.7000;0.3704;-0.0173;
642.0000;0.3704;-0.0099;
642.3000;0.3720;-0.0173;
642.6000;0.3712;-0.0322;
642.9000;0.3704;-0.0272;
643.2000;0.3687;-0.0248;
643.5000;0.3696;-0.0248;
643.8000;0.3679;-0.0248;
644.1000;0.3679;-0.0149;
644.4000;0.3671;-0.0198;
644.7000;0.3687;-0.0223;
645.0000;0.3679;-0.0173;
645.3000;0.3630;-0.0198;
645.6000;0.3655;-0.0124;
645.9000;0.3671;-0.0074;
646.2000;0.3663;-0.0050;
646.5000;0.3647;-0.0124;
646.8000;0.3655;-0.0025;
647.1000;0.3647;-0.0124;
647.4000;0.3647;-0.0050;
647.7000;0.3630;-0.0099;
648.0000;0.3606;-0.0099;
648.3000;0.3639;0.0050;
648.6000;0.3639;-0.0025;
648.9000;0.3639;-0.0099;
649.2000;0.3614;-0.0173;
649.5000;0.3606;-0.0074;
649.8000;0.3622;-0.0050;
650.1000;0.3614;-0.0124;
650.4000;0.3598;-0.0050;
650.7000;0.3622;0.0074;
651.0000;0.3590;0.0025;
651.3000;0.3598;-0.0025;
651.6000;0.3590;-0.0074;
651.9000;0.3630;-0.0050;
652.2000;0.3614;-0.0074;
652.5000;0.3582;-0.0173;
652.8000;0.3606;-0.0223;
653.1000;0.3582;-0.0322;
653.4000;0.3614;-0.0198;
653.7000;0.3590;-0.0198;
654.0000;0.3606;-0.0074;
654.3000;0.3598;-0.0074;
654.6000;0.3590;-0.0074;
654.9000;0.3590;-0.0050;
655.2000;0.3573;-0.0099;
655.5000;0.3557;-0.0173;
655.8000;0.3533;-0.0322;
656.1000;0.3573;-0.0173;
656.4000;0.3573;-0.0149;
656.7000;0.3549;-0.0124;
657.0000;0.3492;-0.0149;
657.3000;0.3525;0.0050;
657.6000;0.3557;0.0025;
657.9000;0.3549;-0.0074;
658.2000;0.3549;-0.0074;
658.5000;0.3549;-0.0099;
658.8000;0.3508;-0.0198;
659.1000;0.3549;-0.0074;
659.4000;0.3549;-0.0124;
659.7000;0.3541;-0.0149;
660.0000;0.3573;0.0025;
660.3000;0.3582;0.0099;
660.6000;0.3533;-0.0050;
660.9000;0.3500;-0.0099;
661.2000;0.3508;-0.0050;
661.5000;0.3573;0.0025;
661.8000;0.3525;-0.0025;
662.1000;0.3516;-0.0050;
662.4000;0.3508;-0.0124;
662.7000;0.3549;-0.0050;
663.0000;0.3516;-0.0099;
663.3000;0.3500;-0.0074;
663.6000;0.3500;-0.0050;
663.9000;0.3492;-0.0124;
664.2000;0.3508;0.0000;
664.5000;0.3484;-0.0074;
664.8000;0.3500;-0.0124;
665.1000;0.3500;-0.0149;
665.4000;0.3492;-0.0099;
665.7000;0.3468;-0.0124;
666.0000;0.3476;-0.0074;
666.3000;0.3516;-0.0025;
666.6000;0.3492;-0.0025;
666.9000;0.3492;0.0025;
667.2000;0.3476;-0.0050;
667.5000;0.3451;-0.0074;
667.8000;0.3451;-0.0198;
668.1000;0.3476;-0.0124;
668.4000;0.3451;-0.0124;
668.7000;0.3476;-0.0173;
669.0000;0.3476;-0.0223;
669.3000;0.3484;-0.0272;
669.6000;0.3484;-0.0248;
669.9000;0.3460;-0.0272;
670.2000;0.3451;-0.0297;
670.5000;0.3451;-0.0371;
670.8000;0.3476;-0.0371;
671.1000;0.3443;-0.0421;
671.4000;0.3443;-0.0396;
671.7000;0.3435;-0.0396;
672.0000;0.3451;-0.0347;
672.3000;0.3443;-0.0347;
672.6000;0.3451;-0.0322;
672.9000;0.3484;-0.0297;
673.2000;0.3468;-0.0371;
673.5000;0.3443;-0.0446;
673.8000;0.3394;-0.0446;
674.1000;0.3419;-0.0347;
674.4000;0.3427;-0.0297;
674.7000;0.3411;-0.0347;
675.0000;0.3370;-0.0421;
675.3000;0.3394;-0.0347;
675.6000;0.3435;-0.0198;
675.9000;0.3443;-0.0149;
676.2000;0.3435;-0.0099;
676.5000;0.3435;-0.0149;
676.8000;0.3476;-0.0099;
677.1000;0.3443;-0.0198;
677.4000;0.3411;-0.0198;
677.7000;0.3451;-0.0074;
678.0000;0.3386;-0.0198;
678.3000;0.3411;-0.0124;
678.6000;0.3403;-0.0198;
678.9000;0.3411;-0.0198;
679.2000;0.3378;-0.0223;
679.5000;0.3411;-0.0198;
679.8000;0.3427;-0.0099;
680.1000;0.3403;-0.0173;
680.4000;0.3419;-0.0124;
680.7000;0.3419;-0.0149;
681.0000;0.3403;-0.0149;
681.3000;0.3403;-0.0074;
681.6000;0.3403;-0.0124;
681.9000;0.3386;-0.0149;
682.2000;0.3403;-0.0074;
682.5000;0.3394;-0.0099;
682.8000;0.3378;-0.0124;
683.1000;0.3403;-0.0050;
683.4000;0.3386;-0.0198;
683.7000;0.3419;-0.0099;
684.0000;0.3378;-0.0173;
684.3000;0.3362;-0.0149;
684.6000;0.3378;-0.0124;
684.9000;0.3386;-0.0149;
685.2000;0.3386;-0.0149;
685.5000;0.3394;-0.0198;
685.8000;0.3378;-0.0198;
686.1000;0.3386;-0.0248;
686.4000;0.3394;-0.0223;
686.7000;0.3394;-0.0297;
687.0000;0.3378;-0.0371;
687.3000;0.3403;-0.0322;
687.6000;0.3386;-0.0297;
687.9000;0.3378;-0.0223;
688.2000;0.3346;-0.0297;
688.5000;0.3362;-0.0149;
688.8000;0.3354;-0.0173;
689.1000;0.3427;0.0099;
689.4000;0.3337;-0.0074;
689.7000;0.3370;0.0000;
690.0000;0.3362;-0.0050;
690.3000;0.3362;-0.0099;
690.6000;0.3289;-0.0347;
690.9000;0.3354;-0.0198;
691.2000;0.3370;-0.0124;
691.5000;0.3362;-0.0198;
691.8000;0.3346;-0.0223;
692.1000;0.3354;-0.0124;
692.4000;0.3346;-0.0149;
692.7000;0.3370;-0.0149;
693.0000;0.3354;-0.0198;
693.3000;0.3337;-0.0248;
693.6000;0.3362;-0.0248;
693.9000;0.3305;-0.0396;
694.2000;0.3337;-0.0297;
694.5000;0.3337;-0.0322;
694.8000;0.3305;-0.0371;
695.1000;0.3305;-0.0396;
695.4000;0.3346;-0.0322;
695.7000;0.3313;-0.0470;
696.0000;0.3370;-0.0322;
696.3000;0.3346;-0.0396;
696.6000;0.3354;-0.0297;
696.9000;0.3313;-0.0347;
697.2000;0.3329;-0.0272;
697.5000;0.3329;-0.0297;
697.8000;0.3386;-0.0173;
698.1000;0.3354;-0.0223;
698.4000;0.3337;-0.0272;
698.7000;0.3346;-0.0223;
699.0000;0.3346;-0.0149;
699.3000;0.3321;-0.0149;
699.6000;0.3354;-0.0124;
699.9000;0.3321;-0.0149;
700.2000;0.3329;-0.0124;
700.5000;0.3329;-0.0074;
700.8000;0.3329;0.0025;
701.1000;0.3329;0.0000;
701.4000;0.3346;-0.0025;
701.7000;0.3313;-0.0025;
702.0000;0.3321;-0.0050;
702.3000;0.3313;-0.0099;
702.6000;0.3329;-0.0099;
702.9000;0.3305;-0.0074;
703.2000;0.3394;0.0074;
703.5000;0.3321;-0.0099;
703.8000;0.3329;-0.0124;
704.1000;0.3321;-0.0223;
704.4000;0.3313;-0.0223;
704.7000;0.3305;-0.0173;
705.0000;0.3297;-0.0223;
705.3000;0.3313;-0.0149;
705.6000;0.3305;-0.0223;
705.9000;0.3297;-0.0297;
706.2000;0.3289;-0.0322;
706.5000;0.3297;-0.0198;
706.8000;0.3297;-0.0124;
707.1000;0.3313;-0.0124;
707.4000;0.3313;-0.0124;
707.7000;0.3305;-0.0124;
708.0000;0.3305;-0.0099;
708.3000;0.3297;-0.0025;
708.6000;0.3289;-0.0025;
708.9000;0.3329;-0.0025;
709.2000;0.3297;-0.0099;
709.5000;0.3289;0.0000;
709.8000;0.3289;0.0000;
710.1000;0.3305;-0.0025;
710.4000;0.3280;-0.0050;
710.7000;0.3305;-0.0025;
711.0000;0.3280;-0.0149;
711.3000;0.3297;-0.0248;
711.6000;0.3280;-0.0272;
711.9000;0.3313;-0.0248;
712.2000;0.3289;-0.0322;
712.5000;0.3305;-0.0272;
712.8000;0.3272;-0.0223;
713.1000;0.3289;-0.0248;
713.4000;0.3305;-0.0223;
713.7000;0.3280;-0.0322;
714.0000;0.3297;-0.0322;
714.3000;0.3313;-0.0272;
714.6000;0.3289;-0.0272;
714.9000;0.3305;-0.0149;
715.2000;0.3280;-0.0223;
715.5000;0.3289;-0.0297;
715.8000;0.3272;-0.0347;
716.1000;0.3280;-0.0248;
716.4000;0.3280;-0.0272;
716.7000;0.3272;-0.0248;
717.0000;0.3248;-0.0272;
717.3000;0.3280;-0.0124;
717.6000;0.3272;-0.0099;
717.9000;0.3248;-0.0025;
718.2000;0.3280;0.0050;
718.5000;0.3289;0.0074;
718.8000;0.3272;-0.0025;
719.1000;0.3272;-0.0050;
719.4000;0.3280;0.0000;
719.7000;0.3272;0.0050;
720.0000;0.3256;0.0074;
720.3000;0.3272;0.0000;
720.6000;0.3248;-0.0050;
720.9000;0.3248;-0.0050;
721.2000;0.3272;0.0099;
721.5000;0.3264;-0.0025;
721.8000;0.3280;-0.0025;
722.1000;0.3272;-0.0099;
722.4000;0.3256;-0.0124;
722.7000;0.3256;-0.0025;
723.0000;0.3272;0.0124;
723.3000;0.3280;0.0149;
723.6000;0.3313;0.0248;
723.9000;0.3272;0.0149;
724.2000;0.3248;0.0099;
724.5000;0.3264;0.0099;
724.8000;0.3264;0.0198;
725.1000;0.3272;0.0248;
725.4000;0.3256;0.0124;
725.7000;0.3240;0.0025;
726.0000;0.3264;0.0124;
726.3000;0.3256;0.0149;
726.6000;0.3264;0.0173;
726.9000;0.3248;0.0198;
727.2000;0.3346;0.0446;
727.5000;0.3240;0.0099;
727.8000;0.3223;0.0050;
728.1000;0.3248;0.0074;
728.4000;0.3232;0.0000;
728.7000;0.3240;-0.0050;
729.0000;0.3248;-0.0099;
729.3000;0.3240;-0.0173;
729.6000;0.3240;-0.0173;
729.9000;0.3248;-0.0173;
730.2000;0.3256;-0.0198;
730.5000;0.3256;-0.0248;
730.8000;0.3272;-0.0124;
731.1000;0.3223;-0.0149;
731.4000;0.3280;0.0000;
731.7000;0.3248;-0.0050;
732.0000;0.3256;-0.0074;
732.3000;0.3223;-0.0099;
732.6000;0.3240;-0.0099;
732.9000;0.3240;-0.0124;
733.2000;0.3223;-0.0025;
733.5000;0.3248;0.0050;
733.8000;0.3223;0.0025;
734.1000;0.3248;0.0074;
734.4000;0.3297;0.0149;
734.7000;0.3240;-0.0025;
735.0000;0.3248;0.0099;
735.3000;0.3232;0.0050;
735.6000;0.3223;-0.0050;
735.9000;0.3240;0.0124;
736.2000;0.3329;0.0371;
736.5000;0.3248;0.0173;
736.8000;0.3248;0.0124;
737.1000;0.3256;0.0173;
737.4000;0.3248;-0.0074;
737.7000;0.3240;-0.0099;
738.0000;0.3256;-0.0099;
738.3000;0.3248;-0.0074;
738.6000;0.3199;-0.0173;
738.9000;0.3232;-0.0099;
739.2000;0.3232;-0.0050;
739.5000;0.3248;-0.0074;
739.8000;0.3240;-0.0025;
740.1000;0.3240;0.0000;
740.4000;0.3240;0.0074;
740.7000;0.3223;0.0074;
741.0000;0.3223;0.0099;
741.3000;0.3223;0.0074;
741.6000;0.3240;0.0050;
741.9000;0.3223;0.0025;
742.2000;0.3215;-0.0124;
742.5000;0.3240;-0.0050;
742.8000;0.3207;-0.0149;
743.1000;0.3223;-0.0050;
743.4000;0.3232;-0.0099;
743.7000;0.3248;0.0050;
744.0000;0.3215;0.0025;
744.3000;0.3207;0.0025;
744.6000;0.3223;0.0124;
744.9000;0.3215;0.0124;
745.2000;0.3199;0.0000;
745.5000;0.3240;0.0025;
745.8000;0.3215;-0.0074;
746.1000;0.3199;-0.0050;
746.4000;0.3175;-0.0124;
746.7000;0.3215;0.0000;
747.0000;0.3232;-0.0025;
747.3000;0.3215;-0.0099;
747.6000;0.3199;-0.0099;
747.9000;0.3215;-0.0074;
748.2000;0.3223;-0.0050;
748.5000;0.3215;0.0000;
748.8000;0.3232;0.0173;
749.1000;0.3223;0.0074;
749.4000;0.3207;0.0000;
749.7000;0.3223;0.0050;
750.0000;0.3158;-0.0149;
750.3000;0.3207;0.0050;
750.6000;0.3199;0.0050;
750.9000;0.3232;0.0223;
751.2000;0.3215;0.0198;
751.5000;0.3207;0.0198;
751.8000;0.3126;0.0074;
752.1000;0.3223;0.0322;
752.4000;0.3199;0.0297;
752.7000;0.3215;0.0347;
753.0000;0.3142;0.0074;
753.3000;0.3207;0.0272;
753.6000;0.3207;0.0297;
753.9000;0.3223;0.0322;
754.2000;0.3215;0.0272;
754.5000;0.3207;0.0248;
754.8000;0.3207;0.0099;
755.1000;0.3215;0.0124;
755.4000;0.3223;0.0198;
755.7000;0.3207;0.0149;
756.0000;0.3191;0.0124;
756.3000;0.3207;0.0223;
756.6000;0.3199;0.0297;
756.9000;0.3199;0.0223;
757.2000;0.3183;0.0198;
757.5000;0.3207;0.0248;
757.8000;0.3207;0.0198;
758.1000;0.3207;0.0149;
758.4000;0.3215;0.0124;
758.7000;0.3215;0.0173;
759.0000;0.3207;0.0124;
759.3000;0.3191;0.0173;
759.6000;0.3207;0.0198;
759.9000;0.3207;0.0198;
760.2000;0.3207;0.0149;
760.5000;0.3183;0.0025;
760.8000;0.3199;0.0099;
761.1000;0.3183;0.0025;
761.4000;0.3199;0.0074;
761.7000;0.3207;0.0050;
762.0000;0.3191;0.0074;
762.3000;0.3142;-0.0050;
762.6000;0.3207;0.0099;
762.9000;0.3199;0.0025;
763.2000;0.3191;-0.0050;
763.5000;0.3207;0.0025;
763.8000;0.3240;0.0000;
764.1000;0.3191;-0.0099;
764.4000;0.3175;-0.0198;
764.7000;0.3191;-0.0173;
765.0000;0.3199;-0.0124;
765.3000;0.3191;-0.0050;
765.6000;0.3191;-0.0050;
765.9000;0.3158;-0.0124;
766.2000;0.3158;-0.0025;
766.5000;0.3175;0.0025;
766.8000;0.3191;0.0050;
767.1000;0.3207;0.0025;
767.4000;0.3183;-0.0074;
767.7000;0.3199;0.0074;
768.0000;0.3215;0.0099;
768.3000;0.3191;-0.0025;
768.6000;0.3166;-0.0074;
768.9000;0.3077;-0.0272;
769.2000;0.3207;-0.0050;
769.5000;0.3207;-0.0050;
769.8000;0.3191;-0.0025;
770.1000;0.3191;-0.0050;
770.4000;0.3158;-0.0124;
770.7000;0.3175;-0.0074;
771.0000;0.3175;-0.0025;
771.3000;0.3215;0.0074;
771.6000;0.3183;-0.0050;
771.9000;0.3158;-0.0124;
772.2000;0.3183;-0.0050;
772.5000;0.3150;-0.0074;
772.8000;0.3150;-0.0050;
773.1000;0.3158;0.0050;
773.4000;0.3158;0.0124;
773.7000;0.3175;0.0198;
774.0000;0.3240;0.0322;
774.3000;0.3207;0.0198;
774.6000;0.3183;0.0099;
774.9000;0.3191;0.0223;
775.2000;0.3191;0.0124;
775.5000;0.3166;0.0050;
775.8000;0.3150;0.0000;
776.1000;0.3158;-0.0025;
776.4000;0.3175;-0.0074;
776.7000;0.3166;-0.0124;
777.0000;0.3166;-0.0198;
777.3000;0.3199;-0.0223;
777.6000;0.3175;-0.0124;
777.9000;0.3175;-0.0074;
778.2000;0.3183;-0.0124;
778.5000;0.3142;-0.0173;
778.8000;0.3199;-0.0074;
779.1000;0.3199;-0.0074;
779.4000;0.3183;-0.0198;
779.7000;0.3158;-0.0198;
780.0000;0.3175;-0.0099;
780.3000;0.3191;-0.0124;
780.6000;0.3191;-0.0074;
780.9000;0.3191;-0.0025;
781.2000;0.3191;0.0025;
781.5000;0.3199;0.0025;
781.8000;0.3191;0.0050;
782.1000;0.3191;-0.0074;
782.4000;0.3142;-0.0149;
782.7000;0.3166;-0.0198;
783.0000;0.3183;-0.0198;
783.3000;0.3183;-0.0248;
783.6000;0.3126;-0.0322;
783.9000;0.3166;-0.0198;
784.2000;0.3175;-0.0149;
784.5000;0.3158;-0.0050;
784.8000;0.3175;-0.0050;
785.1000;0.3166;-0.0074;
785.4000;0.3142;-0.0124;
785.7000;0.3134;-0.0198;
786.0000;0.3158;-0.0248;
786.3000;0.3158;-0.0347;
786.6000;0.3126;-0.0347;
786.9000;0.3150;-0.0297;
787.2000;0.3150;-0.0322;
787.5000;0.3175;-0.0223;
787.8000;0.3166;-0.0173;
788.1000;0.3150;-0.0050;
788.4000;0.3150;0.0050;
788.7000;0.3158;0.0099;
789.0000;0.3175;0.0173;
789.3000;0.3175;0.0099;
789.6000;0.3166;0.0074;
789.9000;0.3101;-0.0099;
790.2000;0.3175;0.0149;
790.5000;0.3158;0.0074;
790.8000;0.3175;0.0050;
791.1000;0.3175;0.0025;
791.4000;0.3142;-0.0050;
791.7000;0.3150;-0.0025;
792.0000;0.3150;-0.0050;
792.3000;0.3166;-0.0074;
792.6000;0.3142;-0.0173;
792.9000;0.3142;-0.0173;
793.2000;0.3158;-0.0099;
793.5000;0.3134;-0.0198;
793.8000;0.3150;-0.0124;
794.1000;0.3150;-0.0050;
794.4000;0.3150;-0.0074;
794.7000;0.3118;-0.0099;
795.0000;0.3175;-0.0025;
795.3000;0.3199;0.0050;
795.6000;0.3166;-0.0025;
795.9000;0.3134;-0.0149;
796.2000;0.3085;-0.0347;
796.5000;0.3142;-0.0124;
796.8000;0.3166;-0.0025;
797.1000;0.3166;-0.0074;
797.4000;0.3175;0.0000;
797.7000;0.3150;-0.0025;
798.0000;0.3166;0.0050;
798.3000;0.3175;0.0124;
798.6000;0.3191;0.0173;
798.9000;0.3158;0.0198;
799.2000;0.3142;0.0074;
799.5000;0.3150;0.0074;
799.8000;0.3158;0.0000;
800.1000;0.3150;-0.0050;
800.4000;0.3150;0.0025;
800.7000;0.3142;-0.0025;
801.0000;0.3150;-0.0124;
801.3000;0.3207;-0.0025;
801.6000;0.3150;-0.0149;
801.9000;0.3134;-0.0124;
802.2000;0.3158;-0.0074;
802.5000;0.3150;-0.0099;
802.8000;0.3134;-0.0074;
803.1000;0.3158;-0.0025;
803.4000;0.3158;0.0074;
803.7000;0.3158;0.0074;
804.0000;0.3175;0.0173;
804.3000;0.3126;0.0074;
804.6000;0.3142;0.0149;
804.9000;0.3142;0.0248;
805.2000;0.3158;0.0347;
805.5000;0.3240;0.0545;
805.8000;0.3142;0.0272;
806.1000;0.3118;0.0223;
806.4000;0.3158;0.0223;
806.7000;0.3158;0.0223;
807.0000;0.3158;0.0223;
807.3000;0.3150;0.0223;
807.6000;0.3101;0.0149;
807.9000;0.3166;0.0272;
808.2000;0.3109;0.0099;
808.5000;0.3150;0.0173;
808.8000;0.3150;0.0124;
809.1000;0.3158;0.0223;
809.4000;0.3134;0.0173;
809.7000;0.3126;0.0173;
810.0000;0.3126;0.0149;
810.3000;0.3134;0.0173;
810.6000;0.3248;0.0470;
810.9000;0.3142;0.0124;
811.2000;0.3126;0.0124;
811.5000;0.3134;0.0173;
811.8000;0.3118;-0.0050;
812.1000;0.3150;0.0000;
812.4000;0.3134;-0.0099;
812.7000;0.3150;0.0025;
813.0000;0.3134;0.0025;
813.3000;0.3134;0.0025;
813.6000;0.3175;0.0099;
813.9000;0.3150;0.0099;
814.2000;0.3150;0.0173;
814.5000;0.3199;0.0223;
814.8000;0.3158;0.0099;
815.1000;0.3134;-0.0025;
815.4000;0.3142;-0.0050;
815.7000;0.3101;-0.0173;
816.0000;0.3126;-0.0099;
816.3000;0.3142;-0.0050;
816.6000;0.3126;-0.0025;
816.9000;0.3134;0.0000;
817.2000;0.3126;-0.0025;
817.5000;0.3134;-0.0074;
817.8000;0.3134;-0.0099;
818.1000;0.3134;-0.0074;
818.4000;0.3175;0.0074;
818.7000;0.3134;-0.0050;
819.0000;0.3126;-0.0074;
819.3000;0.3150;0.0000;
819.6000;0.3150;-0.0050;
819.9000;0.3126;-0.0025;
820.2000;0.3118;-0.0050;
820.5000;0.3142;-0.0050;
820.8000;0.3150;-0.0050;
821.1000;0.3158;-0.0050;
821.4000;0.3134;0.0000;
821.7000;0.3126;0.0000;
822.0000;0.3158;0.0050;
822.3000;0.3142;0.0000;
822.6000;0.3126;-0.0025;
822.9000;0.3142;0.0025;
823.2000;0.3142;0.0025;
823.5000;0.3126;0.0000;
823.8000;0.3134;0.0050;
824.1000;0.3142;0.0050;
824.4000;0.3118;-0.0025;
824.7000;0.3126;-0.0025;
825.0000;0.3134;-0.0025;
825.3000;0.3118;0.0050;
825.6000;0.3134;0.0074;
825.9000;0.3118;0.0124;
826.2000;0.3126;0.0173;
826.5000;0.3126;0.0173;
826.8000;0.3134;0.0173;
827.1000;0.3134;0.0149;
827.4000;0.3142;0.0173;
827.7000;0.3118;0.0074;
828.0000;0.3118;0.0074;
828.3000;0.3142;0.0124;
828.6000;0.3166;0.0198;
828.9000;0.3142;0.0124;
829.2000;0.3126;0.0099;
829.5000;0.3142;0.0099;
829.8000;0.3142;0.0099;
830.1000;0.3126;-0.0050;
830.4000;0.3118;-0.0074;
830.7000;0.3101;0.0000;
831.0000;0.3134;0.0025;
831.3000;0.3109;-0.0025;
831.6000;0.3101;-0.0099;
831.9000;0.3134;-0.0099;
832.2000;0.3134;-0.0074;
832.5000;0.3118;-0.0124;
832.8000;0.3109;-0.0099;
833.1000;0.3118;0.0000;
833.4000;0.3126;0.0025;
833.7000;0.3126;0.0124;
834.0000;0.3126;0.0149;
834.3000;0.3109;0.0099;
834.6000;0.3158;0.0248;
834.9000;0.3118;0.0173;
835.2000;0.3109;0.0149;
835.5000;0.3109;0.0173;
835.8000;0.3134;0.0173;
836.1000;0.3085;0.0149;
836.4000;0.3126;0.0272;
836.7000;0.3134;0.0297;
837.0000;0.3109;0.0149;
837.3000;0.3109;0.0124;
837.6000;0.3109;0.0124;
837.9000;0.3118;0.0149;
838.2000;0.3109;0.0050;
838.5000;0.3126;0.0025;
838.8000;0.3101;-0.0074;
839.1000;0.3109;-0.0149;
839.4000;0.3134;0.0000;
839.7000;0.3134;0.0000;
840.0000;0.3118;0.0074;
840.3000;0.3118;0.0074;
840.6000;0.3109;-0.0025;
840.9000;0.3126;-0.0099;
841.2000;0.3109;-0.0223;
841.5000;0.3109;-0.0173;
841.8000;0.3118;-0.0050;
842.1000;0.3109;-0.0074;
842.4000;0.3191;0.0124;
842.7000;0.3158;0.0025;
843.0000;0.3126;0.0050;
843.3000;0.3118;-0.0025;
843.6000;0.3126;0.0025;
843.9000;0.3109;0.0099;
844.2000;0.3223;0.0396;
844.5000;0.3109;0.0149;
844.8000;0.3142;0.0248;
845.1000;0.3150;0.0198;
845.4000;0.3109;0.0198;
845.7000;0.3093;0.0223;
846.0000;0.3118;0.0272;
846.3000;0.3118;0.0322;
846.6000;0.3126;0.0322;
846.9000;0.3109;0.0248;
847.2000;0.3109;0.0173;
847.5000;0.3126;0.0198;
847.8000;0.3109;0.0124;
848.1000;0.3109;0.0124;
848.4000;0.3118;0.0124;
848.7000;0.3109;0.0074;
849.0000;0.3134;0.0074;
849.3000;0.3134;0.0074;
849.6000;0.3118;0.0000;
849.9000;0.3126;0.0025;
850.2000;0.3126;0.0025;
850.5000;0.3126;0.0000;
850.8000;0.3101;0.0050;
851.1000;0.3101;0.0025;
851.4000;0.3118;0.0000;
851.7000;0.3093;-0.0025;
852.0000;0.3109;0.0050;
852.3000;0.3077;-0.0050;
852.6000;0.3109;0.0050;
852.9000;0.3069;-0.0050;
853.2000;0.3109;0.0099;
853.5000;0.3101;0.0074;
853.8000;0.3101;0.0000;
854.1000;0.3118;0.0000;
854.4000;0.3109;-0.0099;
854.7000;0.3101;-0.0050;
855.0000;0.3069;-0.0124;
855.3000;0.3101;-0.0025;
855.6000;0.3069;-0.0173;
855.9000;0.3109;-0.0074;
856.2000;0.3126;0.0025;
856.5000;0.3109;0.0000;
856.8000;0.3101;-0.0050;
857.1000;0.3093;-0.0025;
857.4000;0.3109;0.0074;
857.7000;0.3109;0.0124;
858.0000;0.3101;0.0099;
858.3000;0.3101;0.0074;
858.6000;0.3085;0.0000;
858.9000;0.3028;-0.0124;
859.2000;0.3109;0.0124;
859.5000;0.3101;0.0050;
859.8000;0.3061;-0.0099;
860.1000;0.3093;0.0000;
860.4000;0.3109;0.0050;
860.7000;0.3134;0.0124;
861.0000;0.3118;0.0025;
861.3000;0.3109;0.0025;
861.6000;0.3118;-0.0025;
861.9000;0.3101;-0.0074;
862.2000;0.3036;-0.0223;
862.5000;0.3085;-0.0025;
862.8000;0.3093;0.0074;
863.1000;0.3101;0.0124;
863.4000;0.3118;0.0149;
863.7000;0.3118;0.0124;
864.0000;0.3109;0.0149;
864.3000;0.3101;0.0124;
864.6000;0.3118;0.0173;
864.9000;0.3101;0.0124;
865.2000;0.3093;0.0099;
865.5000;0.3101;0.0198;
865.8000;0.3093;0.0297;
866.1000;0.3109;0.0272;
866.4000;0.3150;0.0371;
866.7000;0.3036;0.0050;
867.0000;0.3101;0.0149;
867.3000;0.3093;0.0099;
867.6000;0.3101;0.0124;
867.9000;0.3093;0.0198;
868.2000;0.3093;0.0149;
868.5000;0.3093;0.0149;
868.8000;0.3077;0.0099;
869.1000;0.3077;0.0074;
869.4000;0.3109;0.0173;
869.7000;0.3077;0.0149;
870.0000;0.3101;0.0173;
870.3000;0.3093;0.0223;
870.6000;0.3109;0.0149;
870.9000;0.3101;0.0173;
871.2000;0.3101;0.0173;
871.5000;0.3093;0.0025;
871.8000;0.3126;0.0050;
872.1000;0.3109;0.0025;
872.4000;0.3101;-0.0025;
872.7000;0.3118;-0.0074;
873.0000;0.3126;-0.0099;
873.3000;0.3109;-0.0124;
873.6000;0.3109;-0.0074;
873.9000;0.3101;-0.0124;
874.2000;0.3109;-0.0025;
874.5000;0.3093;0.0025;
874.8000;0.3118;0.0025;
875.1000;0.3093;0.0025;
875.4000;0.3109;0.0124;
875.7000;0.3093;0.0149;
876.0000;0.3101;0.0173;
876.3000;0.3118;0.0223;
876.6000;0.3069;0.0173;
876.9000;0.3053;0.0223;
877.2000;0.3101;0.0322;
877.5000;0.3175;0.0371;
877.8000;0.3093;0.0248;
878.1000;0.3085;0.0248;
878.4000;0.2996;-0.0074;
878.7000;0.3077;0.0074;
879.0000;0.3118;0.0124;
879.3000;0.3085;0.0074;
879.6000;0.3085;0.0074;
879.9000;0.3085;0.0025;
880.2000;0.3085;0.0050;
880.5000;0.3085;0.0099;
880.8000;0.3085;0.0099;
881.1000;0.3093;0.0099;
881.4000;0.3093;0.0149;
881.7000;0.3077;0.0099;
882.0000;0.3109;0.0124;
882.3000;0.3093;0.0050;
882.6000;0.3150;0.0173;
882.9000;0.3101;0.0124;
883.2000;0.3109;0.0124;
883.5000;0.3085;0.0124;
883.8000;0.3142;0.0347;
884.1000;0.3093;0.0297;
884.4000;0.3093;0.0149;
884.7000;0.3085;0.0099;
885.0000;0.3077;0.0074;
885.3000;0.3109;0.0099;
885.6000;0.3077;0.0000;
885.9000;0.3101;-0.0025;
886.2000;0.3093;-0.0025;
886.5000;0.3109;0.0025;
886.8000;0.3126;0.0050;
887.1000;0.3069;-0.0025;
887.4000;0.3077;0.0074;
887.7000;0.3166;0.0322;
888.0000;0.3028;-0.0050;
888.3000;0.3118;0.0149;
888.6000;0.3101;0.0124;
888.9000;0.3101;0.0074;
889.2000;0.3093;0.0025;
889.5000;0.3093;0.0000;
889.8000;0.3085;0.0025;
890.1000;0.3101;0.0149;
890.4000;0.3093;0.0099;
890.7000;0.3158;0.0173;
891.0000;0.3085;0.0050;
891.3000;0.3093;0.0074;
891.6000;0.3101;0.0099;
891.9000;0.3093;0.0074;
892.2000;0.3085;0.0074;
892.5000;0.3061;0.0025;
892.8000;0.3085;0.0099;
893.1000;0.3085;0.0074;
893.4000;0.3077;-0.0050;
893.7000;0.3101;0.0025;
894.0000;0.3085;-0.0025;
894.3000;0.3101;0.0000;
894.6000;0.3044;-0.0099;
894.9000;0.3069;-0.0050;
895.2000;0.3093;-0.0025;
895.5000;0.3118;0.0025;
895.8000;0.3101;-0.0074;
896.1000;0.3085;-0.0099;
896.4000;0.3085;-0.0074;
896.7000;0.3101;-0.0050;
897.0000;0.3093;0.0000;
897.3000;0.3093;-0.0074;
897.6000;0.3093;-0.0099;
897.9000;0.3109;-0.0099;
898.2000;0.3077;-0.0173;
898.5000;0.3101;-0.0074;
898.8000;0.3077;-0.0074;
899.1000;0.3077;0.0000;
899.4000;0.3093;0.0025;
899.7000;0.3101;0.0050;
900.0000;0.3077;0.0074;
900.3000;0.3069;0.0124;
900.6000;0.3069;0.0099;
900.9000;0.3085;0.0173;
901.2000;0.3085;0.0149;
901.5000;0.3077;0.0248;
901.8000;0.3134;0.0396;
902.1000;0.3085;0.0223;
902.4000;0.3069;0.0223;
902.7000;0.3085;0.0248;
903.0000;0.3109;0.0347;
903.3000;0.3166;0.0396;
903.6000;0.3053;0.0050;
903.9000;0.3069;0.0149;
904.2000;0.3085;0.0272;
904.5000;0.3069;0.0124;
904.8000;0.3085;0.0099;
905.1000;0.3077;0.0074;
905.4000;0.3077;0.0050;
905.7000;0.3077;0.0074;
906.0000;0.3109;0.0198;
906.3000;0.3093;0.0149;
906.6000;0.3093;0.0025;
906.9000;0.3085;0.0000;
907.2000;0.3101;0.0025;
907.5000;0.3085;-0.0050;
907.8000;0.3126;0.0124;
908.1000;0.3077;-0.0050;
908.4000;0.3093;-0.0050;
908.7000;0.3077;-0.0050;
909.0000;0.3093;0.0050;
909.3000;0.3077;-0.0050;
909.6000;0.3109;0.0050;
909.9000;0.3093;0.0050;
910.2000;0.3077;0.0025;
910.5000;0.3085;-0.0025;
910.8000;0.3101;0.0000;
911.1000;0.3093;0.0050;
911.4000;0.3093;0.0050;
911.7000;0.3085;0.0050;
912.0000;0.3077;0.0025;
912.3000;0.3134;0.0099;
912.6000;0.3085;0.0099;
912.9000;0.3109;0.0173;
913.2000;0.3077;0.0149;
913.5000;0.3061;0.0124;
913.8000;0.3093;0.0198;
914.1000;0.3077;0.0198;
914.4000;0.3069;0.0149;
914.7000;0.3061;0.0223;
915.0000;0.3077;0.0297;
915.3000;0.3085;0.0272;
915.6000;0.2996;0.0050;
915.9000;0.3085;0.0223;
916.2000;0.3077;0.0248;
916.5000;0.3085;0.0248;
916.8000;0.3101;0.0272;
917.1000;0.3077;0.0124;
917.4000;0.3069;0.0149;
917.7000;0.3101;0.0149;
918.0000;0.3077;0.0124;
918.3000;0.3109;0.0124;
918.6000;0.3077;0.0025;
918.9000;0.3053;0.0025;
919.2000;0.3061;0.0050;
919.5000;0.3053;0.0025;
919.8000;0.3053;-0.0025;
920.1000;0.3093;0.0074;
920.4000;0.3191;0.0322;
920.7000;0.3093;0.0025;
921.0000;0.3077;0.0025;
921.3000;0.3093;0.0124;
921.6000;0.3101;0.0099;
921.9000;0.3069;0.0099;
922.2000;0.3077;0.0124;
922.5000;0.3093;0.0000;
922.8000;0.3085;0.0000;
923.1000;0.3077;0.0000;
923.4000;0.3093;0.0050;
923.7000;0.3077;-0.0025;
924.0000;0.3077;0.0050;
924.3000;0.3158;0.0272;
924.6000;0.3053;-0.0025;
924.9000;0.3069;0.0025;
925.2000;0.3093;0.0074;
925.5000;0.3053;0.0074;
925.8000;0.3069;0.0000;
926.1000;0.3069;0.0050;
926.4000;0.3077;0.0149;
926.7000;0.3126;0.0322;
927.0000;0.3118;0.0272;
927.3000;0.3077;0.0248;
927.6000;0.3069;0.0272;
927.9000;0.3093;0.0297;
928.2000;0.3093;0.0173;
928.5000;0.3061;0.0025;
928.8000;0.3077;0.0025;
929.1000;0.3061;-0.0050;
929.4000;0.3093;-0.0050;
929.7000;0.3093;0.0000;
930.0000;0.3134;0.0173;
930.3000;0.3085;0.0074;
930.6000;0.3093;0.0074;
930.9000;0.3093;0.0124;
931.2000;0.3077;0.0025;
931.5000;0.3077;0.0000;
931.8000;0.3077;0.0050;
932.1000;0.3061;0.0050;
932.4000;0.3101;0.0050;
932.7000;0.3085;-0.0050;
933.0000;0.3101;-0.0074;
933.3000;0.3077;-0.0099;
933.6000;0.3101;-0.0149;
933.9000;0.3069;-0.0297;
934.2000;0.3061;-0.0297;
934.5000;0.3077;-0.0248;
934.8000;0.3077;-0.0223;
935.1000;0.3069;-0.0272;
935.4000;0.3077;-0.0223;
935.7000;0.3093;-0.0223;
936.0000;0.3093;-0.0149;
936.3000;0.3061;-0.0198;
936.6000;0.3077;-0.0149;
936.9000;0.3077;-0.0149;
937.2000;0.3069;-0.0198;
937.5000;0.3093;-0.0198;
937.8000;0.3077;-0.0223;
938.1000;0.3069;-0.0173;
938.4000;0.3109;-0.0099;
938.7000;0.3069;-0.0173;
939.0000;0.3085;-0.0198;
939.3000;0.3061;-0.0223;
939.6000;0.3053;-0.0099;
939.9000;0.3061;-0.0099;
940.2000;0.3069;-0.0124;
940.5000;0.3077;-0.0025;
940.8000;0.3085;0.0050;
941.1000;0.3077;-0.0025;
941.4000;0.3101;0.0074;
941.7000;0.3085;0.0074;
942.0000;0.3069;0.0050;
942.3000;0.3077;0.0050;
942.6000;0.3061;-0.0074;
942.9000;0.3085;-0.0074;
943.2000;0.3069;-0.0050;
943.5000;0.3093;-0.0074;
943.8000;0.3093;-0.0025;
944.1000;0.3077;-0.0025;
944.4000;0.3158;0.0223;
944.7000;0.3126;0.0124;
945.0000;0.3069;-0.0074;
945.3000;0.3053;-0.0099;
945.6000;0.3109;0.0074;
945.9000;0.3109;0.0074;
946.2000;0.3069;0.0000;
946.5000;0.3077;0.0000;
946.8000;0.3077;0.0025;
947.1000;0.3061;0.0000;
947.4000;0.3093;0.0074;
947.7000;0.3085;0.0124;
948.0000;0.3053;0.0099;
948.3000;0.3061;0.0149;
948.6000;0.3077;0.0198;
948.9000;0.3061;0.0173;
949.2000;0.3118;0.0272;
949.5000;0.3061;0.0074;
949.8000;0.3077;0.0099;
950.1000;0.3061;0.0099;
950.4000;0.3061;0.0000;
950.7000;0.3044;-0.0124;
951.0000;0.3053;-0.0099;
951.3000;0.3118;-0.0025;
951.6000;0.3053;-0.0223;
951.9000;0.3069;-0.0149;
952.2000;0.3077;-0.0050;
952.5000;0.3069;-0.0050;
952.8000;0.3093;0.0000;
953.1000;0.3069;-0.0099;
953.4000;0.3069;-0.0124;
953.7000;0.3126;0.0124;
954.0000;0.3069;-0.0074;
954.3000;0.3085;-0.0050;
954.6000;0.3053;0.0050;
954.9000;0.3036;-0.0050;
955.2000;0.3077;0.0149;
955.5000;0.3069;0.0198;
955.8000;0.3069;0.0248;
956.1000;0.3061;0.0223;
956.4000;0.3077;0.0223;
956.7000;0.3069;0.0198;
957.0000;0.3061;0.0149;
957.3000;0.3069;0.0099;
957.6000;0.3085;0.0050;
957.9000;0.3061;-0.0025;
958.2000;0.3061;-0.0025;
958.5000;0.3069;0.0050;
958.8000;0.3061;0.0124;
959.1000;0.3061;0.0149;
959.4000;0.3044;0.0050;
959.7000;0.3069;0.0025;
960.0000;0.3061;0.0025;
960.3000;0.3069;0.0050;
960.6000;0.3061;0.0074;
960.9000;0.3069;0.0099;
961.2000;0.3061;0.0074;
961.5000;0.3061;0.0099;
961.8000;0.3061;0.0000;
962.1000;0.3053;0.0074;
962.4000;0.3077;0.0099;
962.7000;0.3077;0.0025;
963.0000;0.3077;0.0074;
963.3000;0.3077;0.0074;
963.6000;0.3077;0.0025;
963.9000;0.3085;0.0074;
964.2000;0.3077;0.0000;
964.5000;0.3053;-0.0050;
964.8000;0.3069;-0.0124;
965.1000;0.3069;-0.0074;
965.4000;0.3077;-0.0050;
965.7000;0.3085;-0.0050;
966.0000;0.3069;-0.0099;
966.3000;0.3069;-0.0124;
966.6000;0.3069;-0.0099;
966.9000;0.3085;-0.0050;
967.2000;0.3077;-0.0149;
967.5000;0.3069;-0.0124;
967.8000;0.3053;-0.0124;
968.1000;0.3069;-0.0074;
968.4000;0.3069;-0.0124;
968.7000;0.3061;-0.0149;
969.0000;0.3085;-0.0074;
969.3000;0.3077;-0.0074;
969.6000;0.3085;-0.0099;
969.9000;0.3061;-0.0099;
970.2000;0.3093;0.0074;
970.5000;0.3069;0.0099;
970.8000;0.3077;0.0124;
971.1000;0.3077;0.0198;
971.4000;0.3061;0.0099;
971.7000;0.3069;0.0000;
972.0000;0.3061;-0.0050;
972.3000;0.3069;-0.0074;
972.6000;0.3044;-0.0050;
972.9000;0.3069;0.0050;
973.2000;0.3069;0.0099;
973.5000;0.3069;0.0050;
973.8000;0.3069;0.0099;
974.1000;0.3053;0.0124;
974.4000;0.3069;0.0198;
974.7000;0.3053;0.0223;
975.0000;0.3020;0.0198;
975.3000;0.3061;0.0173;
975.6000;0.3069;0.0198;
975.9000;0.3085;0.0223;
976.2000;0.3061;0.0099;
976.5000;0.3061;0.0025;
976.8000;0.3061;0.0050;
977.1000;0.3069;0.0050;
977.4000;0.3069;0.0050;
977.7000;0.3069;-0.0025;
978.0000;0.3061;-0.0099;
978.3000;0.3061;-0.0099;
978.6000;0.3061;-0.0149;
978.9000;0.3085;-0.0025;
979.2000;0.3061;-0.0025;
979.5000;0.3061;0.0025;
979.8000;0.3028;-0.0124;
980.1000;0.3053;0.0025;
980.4000;0.3044;-0.0025;
980.7000;0.3069;0.0099;
981.0000;0.3077;0.0099;
981.3000;0.3077;0.0124;
981.6000;0.3069;0.0099;
981.9000;0.3061;0.0223;
982.2000;0.3077;0.0297;
982.5000;0.3085;0.0297;
982.8000;0.3069;0.0272;
983.1000;0.3069;0.0322;
983.4000;0.3061;0.0272;
983.7000;0.3069;0.0272;
984.0000;0.3053;0.0198;
984.3000;0.3061;0.0198;
984.6000;0.3061;0.0173;
984.9000;0.3061;0.0149;
985.2000;0.3061;0.0050;
985.5000;0.3053;0.0099;
985.8000;0.3069;0.0149;
986.1000;0.3069;0.0149;
986.4000;0.3069;0.0173;
986.7000;0.3085;0.0173;
987.0000;0.3061;0.0198;
987.3000;0.3085;0.0124;
987.6000;0.3069;0.0099;
987.9000;0.3077;0.0050;
988.2000;0.3077;0.0099;
988.5000;0.3061;0.0124;
988.8000;0.3069;0.0099;
989.1000;0.3069;0.0025;
989.4000;0.3069;0.0025;
989.7000;0.3061;0.0000;
990.0000;0.3085;0.0074;
990.3000;0.3085;0.0124;
990.6000;0.3118;0.0272;
990.9000;0.3069;0.0074;
991.2000;0.3069;0.0074;
991.5000;0.3069;0.0000;
991.8000;0.3077;0.0000;
992.1000;0.3085;0.0050;
992.4000;0.3069;0.0074;
992.7000;0.3061;0.0099;
993.0000;0.3069;0.0173;
993.3000;0.3069;0.0248;
993.6000;0.3069;0.0173;
993.9000;0.3004;-0.0050;
994.2000;0.3061;0.0099;
994.5000;0.3028;0.0074;
994.8000;0.3093;0.0248;
995.1000;0.3069;0.0149;
995.4000;0.3061;0.0124;
995.7000;0.3044;0.0050;
996.0000;0.3061;0.0025;
996.3000;0.3053;0.0074;
996.6000;0.3077;0.0074;
996.9000;0.3044;0.0050;
997.2000;0.3053;0.0050;
997.5000;0.3053;0.0050;
997.8000;0.3053;-0.0025;
998.1000;0.3069;0.0025;
998.4000;0.3053;0.0074;
998.7000;0.3069;0.0124;
999.0000;0.3142;0.0322;
999.3000;0.3085;0.0149;
999.6000;0.3069;0.0099;
999.9000;0.3069;0.0099;
1000.2000;0.3061;0.0074;
1000.5000;0.3061;0.0124;
1000.8000;0.3044;0.0000;
1001.1000;0.3093;0.0149;
1001.4000;0.3069;0.0074;
1001.7000;0.3109;0.0099;
1002.0000;0.3118;0.0074;
1002.3000;0.3061;-0.0050;
1002.6000;0.3053;-0.0025;
1002.9000;0.3085;0.0099;
1003.2000;0.3061;0.0074;
1003.5000;0.3069;0.0099;
1003.8000;0.3069;0.0198;
1004.1000;0.3061;0.0149;
1004.4000;0.3044;0.0099;
1004.7000;0.3061;0.0050;
1005.0000;0.3061;0.0000;
1005.3000;0.3077;0.0124;
1005.6000;0.3061;0.0223;
1005.9000;0.3044;0.0272;
1006.2000;0.3061;0.0297;
1006.5000;0.3101;0.0446;
1006.8000;0.3044;0.0371;
1007.1000;0.3044;0.0322;
1007.4000;0.3053;0.0297;
1007.7000;0.3053;0.0198;
1008.0000;0.3069;0.0149;
1008.3000;0.3085;0.0173;
1008.6000;0.3061;0.0124;
1008.9000;0.3053;0.0099;
1009.2000;0.3069;0.0149;
1009.5000;0.3069;0.0099;
1009.8000;0.3061;0.0124;
1010.1000;0.3053;0.0050;
1010.4000;0.3061;0.0050;
1010.7000;0.3077;0.0124;
1011.0000;0.3053;0.0074;
1011.3000;0.3061;0.0025;
1011.6000;0.3053;0.0050;
1011.9000;0.3077;0.0074;
1012.2000;0.3061;0.0050;
1012.5000;0.3036;-0.0074;
1012.8000;0.3069;0.0074;
1013.1000;0.3053;0.0124;
1013.4000;0.3061;0.0074;
1013.7000;0.3044;0.0099;
1014.0000;0.3028;0.0050;
1014.3000;0.3053;0.0099;
1014.6000;0.3053;0.0099;
1014.9000;0.3044;0.0149;
1015.2000;0.3053;0.0223;
1015.5000;0.3044;0.0297;
1015.8000;0.3069;0.0347;
1016.1000;0.3069;0.0322;
1016.4000;0.3053;0.0198;
1016.7000;0.3061;0.0272;
1017.0000;0.3044;0.0173;
1017.3000;0.3044;0.0050;
1017.6000;0.3012;0.0050;
1017.9000;0.3044;0.0050;
1018.2000;0.3036;0.0050;
1018.5000;0.3069;0.0000;
1018.8000;0.3061;-0.0025;
1019.1000;0.2971;-0.0248;
1019.4000;0.3036;-0.0099;
1019.7000;0.3061;-0.0025;
1020.0000;0.3069;0.0000;
1020.3000;0.3077;0.0025;
1020.6000;0.3044;0.0000;
1020.9000;0.3061;0.0000;
1021.2000;0.3077;-0.0050;
1021.5000;0.3053;-0.0099;
1021.8000;0.3077;0.0074;
1022.1000;0.3061;0.0025;
1022.4000;0.3093;0.0000;
1022.7000;0.3044;-0.0074;
1023.0000;0.3061;-0.0099;
1023.3000;0.3061;-0.0074;
1023.6000;0.3077;0.0000;
1023.9000;0.3061;0.0099;
1024.2000;0.3053;-0.0025;
1024.5000;0.3053;0.0025;
1024.8000;0.3020;-0.0050;
1025.1000;0.3077;0.0074;
1025.4000;0.2979;-0.0124;
1025.7000;0.3044;0.0025;
1026.0000;0.3077;0.0074;
1026.3000;0.3053;0.0050;
1026.6000;0.3061;0.0149;
1026.9000;0.3012;0.0000;
1027.2000;0.3061;0.0198;
1027.5000;0.3077;0.0272;
1027.8000;0.3061;0.0223;
1028.1000;0.3044;0.0223;
1028.4000;0.3077;0.0371;
1028.7000;0.3069;0.0371;
1029.0000;0.3061;0.0347;
1029.3000;0.3061;0.0322;
1029.6000;0.3061;0.0322;
1029.9000;0.3061;0.0297;
1030.2000;0.3069;0.0248;
1030.5000;0.3077;0.0297;
1030.8000;0.3053;0.0149;
1031.1000;0.3069;0.0173;
1031.4000;0.3061;0.0173;
1031.7000;0.3069;0.0124;
1032.0000;0.3061;0.0173;
1032.3000;0.3109;0.0347;
1032.6000;0.3142;0.0446;
1032.9000;0.3069;0.0297;
1033.2000;0.3069;0.0223;
1033.5000;0.3053;0.0272;
1033.8000;0.3044;0.0223;
1034.1000;0.3053;0.0371;
1034.4000;0.3061;0.0347;
1034.7000;0.3036;0.0322;
1035.0000;0.3077;0.0371;
1035.3000;0.3061;0.0248;
1035.6000;0.3077;0.0223;
1035.9000;0.3028;0.0124;
1036.2000;0.3069;0.0272;
1036.5000;0.3061;0.0322;
1036.8000;0.3053;0.0371;
1037.1000;0.3053;0.0470;
1037.4000;0.3077;0.0446;
1037.7000;0.3061;0.0421;
1038.0000;0.3053;0.0322;
1038.3000;0.2996;0.0099;
1038.6000;0.3036;0.0074;
1038.9000;0.3069;0.0124;
1039.2000;0.3044;-0.0050;
1039.5000;0.3061;-0.0074;
1039.8000;0.3004;-0.0198;
1040.1000;0.3044;-0.0025;
1040.4000;0.3061;0.0099;
1040.7000;0.3085;0.0198;
1041.0000;0.3053;0.0223;
1041.3000;0.3085;0.0347;
1041.6000;0.3069;0.0272;
1041.9000;0.3061;0.0198;
1042.2000;0.3028;0.0099;
1042.5000;0.3053;0.0149;
1042.8000;0.3077;0.0173;
1043.1000;0.3053;0.0173;
1043.4000;0.3044;0.0297;
1043.7000;0.3044;0.0173;
1044.0000;0.3044;0.0173;
1044.3000;0.3036;0.0050;
1044.6000;0.3053;0.0099;
1044.9000;0.3036;0.0025;
1045.2000;0.3061;0.0124;
1045.5000;0.3036;0.0025;
1045.8000;0.3028;0.0099;
1046.1000;0.3036;0.0099;
1046.4000;0.3069;0.0198;
1046.7000;0.3069;0.0173;
1047.0000;0.3061;0.0099;
1047.3000;0.2971;-0.0099;
1047.6000;0.3036;0.0149;
1047.9000;0.3061;0.0173;
1048.2000;0.3053;0.0099;
1048.5000;0.3061;0.0050;
1048.8000;0.3053;0.0050;
1049.1000;0.3061;0.0074;
1049.4000;0.3044;0.0198;
1049.7000;0.3036;0.0272;
1050.0000;0.3036;0.0297;
1050.3000;0.3044;0.0322;
1050.6000;0.3012;0.0297;
1050.9000;0.3012;0.0272;
1051.2000;0.3044;0.0347;
1051.5000;0.3044;0.0396;
1051.8000;0.3061;0.0421;
1052.1000;0.3061;0.0347;
1052.4000;0.3069;0.0396;
1052.7000;0.3053;0.0347;
1053.0000;0.3069;0.0347;
1053.3000;0.3053;0.0272;
1053.6000;0.3053;0.0173;
1053.9000;0.3053;0.0149;
1054.2000;0.3061;0.0099;
1054.5000;0.3012;-0.0025;
1054.8000;0.3069;0.0173;
1055.1000;0.3036;0.0099;
1055.4000;0.3020;0.0000;
1055.7000;0.3044;0.0050;
1056.0000;0.3044;0.0025;
1056.3000;0.3101;0.0198;
1056.6000;0.3053;0.0149;
1056.9000;0.3053;0.0198;
1057.2000;0.3061;0.0198;
1057.5000;0.3044;0.0149;
1057.8000;0.3036;0.0173;
1058.1000;0.3061;0.0124;
1058.4000;0.3044;0.0124;
1058.7000;0.3077;0.0297;
1059.0000;0.3061;0.0248;
1059.3000;0.3053;0.0149;
1059.6000;0.3093;0.0272;
1059.9000;0.3077;0.0248;
1060.2000;0.3028;0.0124;
1060.5000;0.3069;0.0124;
1060.8000;0.3044;0.0074;
1061.1000;0.3085;0.0248;
1061.4000;0.3044;0.0149;
1061.7000;0.3036;0.0149;
1062.0000;0.3044;0.0149;
1062.3000;0.3061;0.0149;
1062.6000;0.3085;0.0198;
1062.9000;0.3053;0.0149;
1063.2000;0.3044;0.0124;
1063.5000;0.3061;0.0198;
1063.8000;0.3061;0.0248;
1064.1000;0.3044;0.0173;
1064.4000;0.3028;0.0198;
1064.7000;0.3053;0.0272;
1065.0000;0.3028;0.0173;
1065.3000;0.3077;0.0198;
1065.6000;0.3036;0.0149;
1065.9000;0.3044;0.0173;
1066.2000;0.3101;0.0173;
1066.5000;0.3036;0.0000;
1066.8000;0.3036;0.0025;
1067.1000;0.3020;-0.0074;
1067.4000;0.3061;0.0050;
1067.7000;0.3061;0.0025;
1068.0000;0.3093;0.0099;
1068.3000;0.3004;-0.0074;
1068.6000;0.3061;0.0074;
1068.9000;0.3061;0.0149;
1069.2000;0.3069;0.0248;
1069.5000;0.3061;0.0223;
1069.8000;0.3069;0.0322;
1070.1000;0.3053;0.0396;
1070.4000;0.3077;0.0347;
1070.7000;0.3053;0.0297;
1071.0000;0.3085;0.0272;
1071.3000;0.3069;0.0173;
1071.6000;0.3069;0.0223;
1071.9000;0.3036;0.0149;
1072.2000;0.3044;0.0223;
1072.5000;0.3077;0.0272;
1072.8000;0.3061;0.0223;
1073.1000;0.3061;0.0124;
1073.4000;0.3053;0.0173;
1073.7000;0.3069;0.0322;
1074.0000;0.3069;0.0322;
1074.3000;0.3077;0.0297;
1074.6000;0.3020;0.0198;
1074.9000;0.3175;0.0545;
1075.2000;0.3069;0.0272;
1075.5000;0.3077;0.0322;
1075.8000;0.3061;0.0198;
1076.1000;0.3061;0.0248;
1076.4000;0.3061;0.0297;
1076.7000;0.3044;0.0272;
1077.0000;0.3061;0.0347;
1077.3000;0.3053;0.0347;
1077.6000;0.3036;0.0421;
1077.9000;0.3036;0.0470;
1078.2000;0.3036;0.0421;
1078.5000;0.3028;0.0297;
1078.8000;0.3053;0.0322;
1079.1000;0.3044;0.0347;
1079.4000;0.3044;0.0198;
1079.7000;0.3044;0.0248;
1080.0000;0.3044;0.0223;
1080.3000;0.3044;0.0124;
1080.6000;0.3069;0.0149;
1080.9000;0.3053;0.0074;
1081.2000;0.3036;-0.0025;
1081.5000;0.3061;0.0050;
1081.8000;0.3044;0.0000;
1082.1000;0.3061;0.0074;
1082.4000;0.3053;0.0099;
1082.7000;0.3036;0.0025;
1083.0000;0.3053;0.0124;
1083.3000;0.3036;0.0074;
1083.6000;0.3036;0.0050;
1083.9000;0.3053;0.0050;
1084.2000;0.3069;0.0099;
1084.5000;0.3077;0.0124;
1084.8000;0.3069;0.0149;
1085.1000;0.3053;0.0198;
1085.4000;0.3069;0.0272;
1085.7000;0.3069;0.0322;
1086.0000;0.3053;0.0297;
1086.3000;0.3061;0.0297;
1086.6000;0.3053;0.0371;
1086.9000;0.3061;0.0322;
1087.2000;0.3053;0.0322;
1087.5000;0.3053;0.0223;
1087.8000;0.3036;0.0149;
1088.1000;0.3044;0.0124;
1088.4000;0.3053;0.0074;
1088.7000;0.3061;-0.0025;
1089.0000;0.3053;0.0050;
1089.3000;0.3044;0.0000;
1089.6000;0.3061;0.0050;
1089.9000;0.3053;-0.0050;
1090.2000;0.3020;-0.0025;
1090.5000;0.3053;0.0050;
1090.8000;0.3085;0.0198;
1091.1000;0.3044;0.0124;
1091.4000;0.3053;0.0198;
1091.7000;0.3036;0.0297;
1092.0000;0.3053;0.0322;
1092.3000;0.3036;0.0198;
1092.6000;0.3053;0.0173;
1092.9000;0.3004;0.0025;
1093.2000;0.2987;0.0074;
1093.5000;0.3053;0.0248;
1093.8000;0.3061;0.0297;
1094.1000;0.3028;0.0272;
1094.4000;0.3036;0.0396;
1094.7000;0.3053;0.0347;
1095.0000;0.3020;0.0248;
1095.3000;0.3044;0.0272;
1095.6000;0.3036;0.0248;
1095.9000;0.2971;0.0099;
1096.2000;0.3069;0.0248;
1096.5000;0.3109;0.0347;
1096.8000;0.2963;-0.0025;
1097.1000;0.3044;0.0248;
1097.4000;0.2987;0.0149;
1097.7000;0.2979;0.0149;
1098.0000;0.3053;0.0446;
1098.3000;0.3069;0.0446;
1098.6000;0.3069;0.0347;
1098.9000;0.3061;0.0223;
1099.2000;0.3069;0.0149;
1099.5000;0.3053;0.0025;
1099.8000;0.3053;0.0000;
1100.1000;0.3028;-0.0025;
1100.4000;0.3093;0.0099;
1100.7000;0.3036;0.0000;
1101.0000;0.3061;0.0124;
1101.3000;0.3061;0.0272;
1101.6000;0.3101;0.0446;
1101.9000;0.3044;0.0322;
1102.2000;0.3044;0.0272;
1102.5000;0.3077;0.0297;
1102.8000;0.3101;0.0371;
1103.1000;0.3069;0.0248;
1103.4000;0.3069;0.0297;
1103.7000;0.3061;0.0371;
1104.0000;0.3061;0.0272;
1104.3000;0.3061;0.0322;
1104.6000;0.3053;0.0272;
1104.9000;0.3069;0.0297;
1105.2000;0.3061;0.0297;
1105.5000;0.3061;0.0248;
1105.8000;0.3053;0.0297;
1106.1000;0.3044;0.0322;
1106.4000;0.3093;0.0520;
1106.7000;0.3036;0.0446;
1107.0000;0.3044;0.0495;
1107.3000;0.3077;0.0495;
1107.6000;0.3061;0.0421;
1107.9000;0.3044;0.0297;
1108.2000;0.3069;0.0248;
1108.5000;0.3069;0.0272;
1108.8000;0.3093;0.0297;
1109.1000;0.3061;0.0198;
1109.4000;0.3053;0.0124;
1109.7000;0.3069;0.0124;
1110.0000;0.3053;0.0173;
1110.3000;0.3077;0.0248;
1110.6000;0.3053;0.0198;
1110.9000;0.3053;0.0248;
1111.2000;0.3061;0.0223;
1111.5000;0.3061;0.0223;
1111.8000;0.3053;0.0149;
1112.1000;0.3109;0.0297;
1112.4000;0.3053;0.0124;
1112.7000;0.3036;0.0149;
1113.0000;0.3069;0.0198;
1113.3000;0.3061;0.0198;
1113.6000;0.3053;0.0173;
1113.9000;0.3061;0.0223;
1114.2000;0.3077;0.0297;
1114.5000;0.3069;0.0322;
1114.8000;0.3012;0.0173;
1115.1000;0.3036;0.0198;
1115.4000;0.3053;0.0223;
1115.7000;0.3061;0.0248;
1116.0000;0.3077;0.0223;
1116.3000;0.3044;0.0198;
1116.6000;0.3061;0.0248;
1116.9000;0.3077;0.0297;
1117.2000;0.3020;0.0149;
1117.5000;0.3044;0.0272;
1117.8000;0.3028;0.0223;
1118.1000;0.3044;0.0223;
1118.4000;0.3053;0.0198;
1118.7000;0.3044;0.0223;
1119.0000;0.3044;0.0322;
1119.3000;0.3053;0.0297;
1119.6000;0.3053;0.0322;
1119.9000;0.3036;0.0248;
1120.2000;0.3061;0.0272;
1120.5000;0.3053;0.0272;
1120.8000;0.3020;0.0124;
1121.1000;0.3053;0.0198;
1121.4000;0.3044;0.0173;
1121.7000;0.3044;0.0099;
1122.0000;0.3053;0.0099;
1122.3000;0.3036;0.0025;
1122.6000;0.3028;0.0025;
1122.9000;0.3036;0.0074;
1123.2000;0.3069;0.0223;
1123.5000;0.3053;0.0173;
1123.8000;0.3044;0.0099;
1124.1000;0.3069;0.0198;
1124.4000;0.3069;0.0297;
1124.7000;0.3077;0.0173;
1125.0000;0.3061;0.0149;
1125.3000;0.3036;0.0074;
1125.6000;0.3044;0.0149;
1125.9000;0.3044;0.0124;
1126.2000;0.3053;0.0050;
1126.5000;0.3012;-0.0074;
1126.8000;0.3044;-0.0074;
1127.1000;0.3053;-0.0124;
1127.4000;0.3069;-0.0050;
1127.7000;0.3004;-0.0124;
1128.0000;0.3044;0.0025;
1128.3000;0.3044;0.0074;
1128.6000;0.3044;0.0124;
1128.9000;0.3036;0.0099;
1129.2000;0.3044;0.0074;
1129.5000;0.3053;0.0124;
1129.8000;0.3069;0.0198;
1130.1000;0.3004;0.0000;
1130.4000;0.3053;0.0074;
1130.7000;0.3044;0.0074;
1131.0000;0.3036;0.0099;
1131.3000;0.3028;0.0149;
1131.6000;0.3053;0.0248;
1131.9000;0.3044;0.0173;
1132.2000;0.3044;0.0149;
1132.5000;0.3020;0.0050;
1132.8000;0.3085;0.0149;
1133.1000;0.3069;0.0099;
1133.4000;0.3028;-0.0074;
1133.7000;0.3028;-0.0149;
1134.0000;0.3044;-0.0025;
1134.3000;0.3036;-0.0074;
1134.6000;0.3061;-0.0074;
1134.9000;0.3028;-0.0050;
1135.2000;0.3093;0.0173;
1135.5000;0.3053;-0.0025;
1135.8000;0.3036;-0.0050;
1136.1000;0.3077;0.0124;
1136.4000;0.3085;0.0248;
1136.7000;0.3028;0.0074;
1137.0000;0.2963;-0.0099;
1137.3000;0.3012;-0.0025;
1137.6000;0.3085;0.0149;
1137.9000;0.3069;0.0099;
1138.2000;0.3044;0.0000;
1138.5000;0.3053;-0.0050;
1138.8000;0.3077;0.0000;
1139.1000;0.3069;0.0000;
1139.4000;0.3028;-0.0050;
1139.7000;0.3044;0.0000;
1140.0000;0.3044;0.0000;
1140.3000;0.3036;-0.0050;
1140.6000;0.3044;0.0025;
1140.9000;0.3053;0.0124;
1141.2000;0.3069;0.0124;
1141.5000;0.3061;0.0074;
1141.8000;0.3053;0.0050;
1142.1000;0.3053;0.0099;
1142.4000;0.3053;0.0050;
1142.7000;0.3053;-0.0050;
1143.0000;0.3036;-0.0025;
1143.3000;0.3044;0.0000;
1143.6000;0.3036;0.0050;
1143.9000;0.3069;0.0173;
1144.2000;0.3044;0.0124;
1144.5000;0.3044;0.0099;
1144.8000;0.3036;0.0074;
1145.1000;0.3069;0.0149;
1145.4000;0.3044;0.0050;
1145.7000;0.3069;0.0149;
1146.0000;0.3044;0.0099;
1146.3000;0.3044;0.0099;
1146.6000;0.3044;0.0099;
1146.9000;0.3036;0.0124;
1147.2000;0.3044;0.0074;
1147.5000;0.3061;0.0099;
1147.8000;0.3053;0.0124;
1148.1000;0.3036;0.0050;
1148.4000;0.3053;0.0149;
1148.7000;0.3069;0.0099;
1149.0000;0.3044;0.0025;
1149.3000;0.3061;0.0099;
1149.6000;0.3004;0.0050;
1149.9000;0.3044;0.0198;
1150.2000;0.3069;0.0198;
1150.5000;0.3044;0.0149;
1150.8000;0.3053;0.0099;
1151.1000;0.3069;0.0149;
1151.4000;0.3053;0.0099;
1151.7000;0.3036;-0.0050;
1152.0000;0.3028;-0.0074;
1152.3000;0.3044;-0.0025;
1152.6000;0.3036;-0.0074;
1152.9000;0.3053;-0.0025;
1153.2000;0.3061;0.0074;
1153.5000;0.3134;0.0272;
1153.8000;0.3044;0.0050;
1154.1000;0.3109;0.0223;
1154.4000;0.3053;0.0050;
1154.7000;0.3061;0.0099;
1155.0000;0.3053;0.0050;
1155.3000;0.3044;0.0025;
1155.6000;0.3077;0.0099;
1155.9000;0.3093;0.0050;
1156.2000;0.3077;-0.0050;
1156.5000;0.3044;-0.0124;
1156.8000;0.3028;-0.0223;
1157.1000;0.3069;-0.0099;
1157.4000;0.3044;-0.0198;
1157.7000;0.3077;-0.0099;
1158.0000;0.3077;-0.0050;
1158.3000;0.3044;-0.0050;
1158.6000;0.3061;-0.0149;
1158.9000;0.3093;-0.0173;
1159.2000;0.3061;-0.0223;
1159.5000;0.3036;-0.0272;
1159.8000;0.3028;-0.0297;
1160.1000;0.3028;-0.0272;
1160.4000;0.3053;-0.0124;
1160.7000;0.3044;0.0000;
1161.0000;0.3101;0.0050;
1161.3000;0.3012;-0.0198;
1161.6000;0.3093;-0.0050;
1161.9000;0.3069;-0.0025;
1162.2000;0.3053;-0.0124;
1162.5000;0.3053;-0.0149;
1162.8000;0.3028;-0.0124;
1163.1000;0.3012;-0.0124;
1163.4000;0.3061;0.0099;
1163.7000;0.3036;0.0099;
1164.0000;0.3061;0.0099;
1164.3000;0.3053;0.0000;
1164.6000;0.3044;-0.0099;
1164.9000;0.3036;-0.0074;
1165.2000;0.3044;-0.0099;
1165.5000;0.3020;-0.0124;
1165.8000;0.3044;-0.0050;
1166.1000;0.3118;0.0173;
1166.4000;0.3028;-0.0074;
1166.7000;0.3028;0.0000;
1167.0000;0.3053;-0.0050;
1167.3000;0.3036;-0.0050;
1167.6000;0.3028;-0.0173;
1167.9000;0.3044;-0.0248;
1168.2000;0.3036;-0.0248;
1168.5000;0.3061;-0.0173;
1168.8000;0.3053;-0.0124;
1169.1000;0.3028;-0.0099;
1169.4000;0.3053;-0.0025;
1169.7000;0.3036;-0.0050;
1170.0000;0.3053;-0.0099;
1170.3000;0.3118;0.0000;
1170.6000;0.3028;-0.0223;
1170.9000;0.3028;-0.0099;
1171.2000;0.3044;-0.0050;
1171.5000;0.3044;-0.0223;
1171.8000;0.3053;-0.0272;
1172.1000;0.3061;-0.0272;
1172.4000;0.3036;-0.0347;
1172.7000;0.3036;-0.0371;
1173.0000;0.3036;-0.0322;
1173.3000;0.3053;-0.0223;
1173.6000;0.2987;-0.0272;
1173.9000;0.3061;-0.0074;
1174.2000;0.3044;-0.0149;
1174.5000;0.3077;0.0000;
1174.8000;0.3069;-0.0074;
1175.1000;0.3036;-0.0149;
1175.4000;0.3044;-0.0173;
1175.7000;0.3020;-0.0272;
1176.0000;0.3061;-0.0149;
1176.3000;0.3053;-0.0198;
1176.6000;0.3044;-0.0099;
1176.9000;0.3036;-0.0173;
1177.2000;0.3061;-0.0173;
1177.5000;0.3069;-0.0173;
1177.8000;0.3036;-0.0198;
1178.1000;0.3053;-0.0124;
1178.4000;0.3044;-0.0099;
1178.7000;0.3044;-0.0099;
1179.0000;0.3036;-0.0173;
1179.3000;0.3044;-0.0124;
1179.6000;0.3036;-0.0173;
1179.9000;0.3069;-0.0050;
1180.2000;0.3061;-0.0074;
1180.5000;0.3053;-0.0025;
1180.8000;0.3069;0.0025;
1181.1000;0.3069;0.0074;
1181.4000;0.3044;0.0050;
1181.7000;0.3028;0.0074;
1182.0000;0.3053;0.0124;
1182.3000;0.3053;0.0124;
1182.6000;0.3053;0.0124;
1182.9000;0.3053;0.0074;
1183.2000;0.3036;0.0050;
1183.5000;0.3044;0.0099;
1183.8000;0.3044;0.0223;
1184.1000;0.3069;0.0322;
1184.4000;0.3101;0.0421;
1184.7000;0.3053;0.0371;
1185.0000;0.3053;0.0396;
1185.3000;0.3004;0.0198;
1185.6000;0.3044;0.0322;
1185.9000;0.3053;0.0347;
1186.2000;0.3053;0.0396;
1186.5000;0.3044;0.0297;
1186.8000;0.3028;0.0124;
1187.1000;0.2947;-0.0050;
1187.4000;0.3061;0.0223;
1187.7000;0.3044;0.0248;
1188.0000;0.3053;0.0198;
1188.3000;0.3036;0.0124;
1188.6000;0.3036;0.0124;
1188.9000;0.2996;0.0000;
1189.2000;0.3044;0.0149;
1189.5000;0.3053;0.0099;
1189.8000;0.3044;0.0173;
1190.1000;0.3044;0.0248;
1190.4000;0.3036;0.0223;
1190.7000;0.3044;0.0248;
1191.0000;0.3044;0.0421;
1191.3000;0.3044;0.0520;
1191.6000;0.3044;0.0495;
1191.9000;0.3044;0.0495;
1192.2000;0.3044;0.0446;
1192.5000;0.3028;0.0297;
1192.8000;0.3036;0.0272;
1193.1000;0.3044;0.0223;
1193.4000;0.3028;0.0223;
1193.7000;0.3036;0.0074;
1194.0000;0.3020;0.0074;
1194.3000;0.3061;0.0074;
1194.6000;0.3044;0.0099;
1194.9000;0.3061;0.0149;
1195.2000;0.3101;0.0223;
1195.5000;0.3036;0.0025;
1195.8000;0.3012;-0.0173;
1196.1000;0.3044;-0.0099;
1196.4000;0.3061;-0.0074;
1196.7000;0.3191;0.0272;
1197.0000;0.3061;-0.0099;
1197.3000;0.3061;-0.0149;
1197.6000;0.3069;-0.0099;
1197.9000;0.3044;-0.0149;
1198.2000;0.3053;-0.0124;
1198.5000;0.3020;-0.0173;
1198.8000;0.3044;-0.0074;
1199.1000;0.3044;-0.0074;
1199.4000;0.3053;-0.0074;
1199.7000;0.3061;-0.0025;
1200.0000;0.3044;-0.0099;
1200.3000;0.3069;-0.0124;
1200.6000;0.3053;-0.0149;
1200.9000;0.3053;-0.0223;
1201.2000;0.3069;-0.0099;
1201.5000;0.3061;-0.0099;
1201.8000;0.3053;-0.0124;
1202.1000;0.3142;0.0124;
1202.4000;0.3109;0.0099;
1202.7000;0.3044;-0.0050;
1203.0000;0.3053;0.0050;
1203.3000;0.3044;0.0000;
1203.6000;0.3020;-0.0050;
1203.9000;0.3044;-0.0050;
1204.2000;0.3053;-0.0025;
1204.5000;0.3053;-0.0074;
1204.8000;0.3044;-0.0050;
1205.1000;0.3061;0.0000;
1205.4000;0.3044;-0.0099;
1205.7000;0.3069;0.0000;
1206.0000;0.3085;0.0124;
1206.3000;0.3061;0.0074;
1206.6000;0.3044;0.0025;
1206.9000;0.3077;0.0025;
1207.2000;0.3069;0.0050;
1207.5000;0.3053;0.0099;
1207.8000;0.3044;0.0050;
1208.1000;0.3044;0.0074;
1208.4000;0.3020;0.0099;
1208.7000;0.3044;0.0223;
1209.0000;0.3036;0.0173;
1209.3000;0.3044;0.0149;
1209.6000;0.3053;0.0173;
1209.9000;0.3036;0.0149;
1210.2000;0.3044;0.0173;
1210.5000;0.3044;0.0173;
1210.8000;0.3028;0.0198;
1211.1000;0.3069;0.0347;
1211.4000;0.3012;0.0173;
1211.7000;0.3036;0.0124;
1212.0000;0.3069;0.0124;
1212.3000;0.3036;0.0025;
1212.6000;0.3053;0.0025;
1212.9000;0.3053;-0.0050;
1213.2000;0.3036;-0.0050;
1213.5000;0.3044;0.0025;
1213.8000;0.3036;0.0025;
1214.1000;0.3020;0.0050;
1214.4000;0.3028;0.0099;
1214.7000;0.3061;0.0272;
1215.0000;0.3101;0.0322;
1215.3000;0.3036;0.0149;
1215.6000;0.3044;0.0025;
1215.9000;0.3036;-0.0149;
1216.2000;0.3053;-0.0074;
1216.5000;0.3036;-0.0149;
1216.8000;0.3028;-0.0124;
1217.1000;0.3028;-0.0050;
1217.4000;0.3085;0.0149;
1217.7000;0.3069;0.0050;
1218.0000;0.3053;-0.0050;
1218.3000;0.3044;0.0025;
1218.6000;0.3053;0.0025;
1218.9000;0.3061;0.0074;
1219.2000;0.3044;0.0124;
1219.5000;0.3036;0.0025;
1219.8000;0.3028;-0.0074;
1220.1000;0.3044;0.0074;
1220.4000;0.3036;0.0074;
1220.7000;0.3020;0.0099;
1221.0000;0.3020;0.0074;
1221.3000;0.3053;0.0124;
1221.6000;0.3044;0.0050;
1221.9000;0.3020;-0.0050;
1222.2000;0.3053;0.0099;
1222.5000;0.3004;0.0050;
1222.8000;0.3061;0.0248;
1223.1000;0.3044;0.0173;
1223.4000;0.3061;0.0173;
1223.7000;0.3036;0.0050;
1224.0000;0.3061;0.0025;
1224.3000;0.3053;-0.0050;
1224.6000;0.3134;0.0173;
1224.9000;0.3028;-0.0124;
1225.2000;0.3053;-0.0124;
1225.5000;0.3036;-0.0099;
1225.8000;0.3053;-0.0025;
1226.1000;0.3053;0.0000;
1226.4000;0.3053;0.0050;
1226.7000;0.3036;0.0050;
1227.0000;0.3053;0.0050;
1227.3000;0.3053;0.0074;
1227.6000;0.2987;-0.0050;
1227.9000;0.3061;0.0074;
1228.2000;0.3036;-0.0025;
1228.5000;0.3012;0.0000;
1228.8000;0.3109;0.0223;
1229.1000;0.3044;0.0074;
1229.4000;0.3069;0.0124;
1229.7000;0.3077;0.0149;
1230.0000;0.3020;0.0025;
1230.3000;0.3053;0.0000;
1230.6000;0.3012;-0.0074;
1230.9000;0.3020;-0.0099;
1231.2000;0.3020;-0.0050;
1231.5000;0.3028;0.0000;
1231.8000;0.3036;0.0099;
1232.1000;0.3044;0.0074;
1232.4000;0.3020;0.0074;
1232.7000;0.3028;0.0124;
1233.0000;0.3028;0.0025;
1233.3000;0.3036;0.0074;
1233.6000;0.3053;0.0074;
1233.9000;0.3028;0.0000;
1234.2000;0.3053;0.0025;
1234.5000;0.3061;0.0025;
1234.8000;0.3077;0.0025;
1235.1000;0.3036;-0.0025;
1235.4000;0.3028;-0.0050;
1235.7000;0.3061;0.0050;
1236.0000;0.3061;0.0050;
1236.3000;0.3044;-0.0025;
1236.6000;0.3044;0.0000;
1236.9000;0.2979;-0.0099;
1237.2000;0.3053;0.0025;
1237.5000;0.3036;-0.0050;
1237.8000;0.3028;-0.0149;
1238.1000;0.3053;-0.0025;
1238.4000;0.3061;0.0050;
1238.7000;0.3044;-0.0050;
1239.0000;0.2979;-0.0124;
1239.3000;0.3069;0.0074;
1239.6000;0.3053;-0.0050;
1239.9000;0.3053;-0.0124;
1240.2000;0.3036;-0.0173;
1240.5000;0.3044;-0.0149;
1240.8000;0.3053;-0.0124;
1241.1000;0.3044;-0.0099;
1241.4000;0.3036;-0.0149;
1241.7000;0.3061;-0.0025;
1242.0000;0.3028;0.0000;
1242.3000;0.3053;0.0000;
1242.6000;0.3053;-0.0025;
1242.9000;0.3036;0.0025;
1243.2000;0.3044;-0.0025;
1243.5000;0.3044;-0.0074;
1243.8000;0.3061;-0.0124;
1244.1000;0.3053;-0.0124;
1244.4000;0.3036;-0.0050;
1244.7000;0.3126;0.0173;
1245.0000;0.3061;-0.0025;
1245.3000;0.3044;-0.0025;
1245.6000;0.3044;0.0000;
1245.9000;0.3020;-0.0099;
1246.2000;0.3044;0.0025;
1246.5000;0.3036;0.0000;
1246.8000;0.3028;0.0000;
1247.1000;0.3028;0.0074;
1247.4000;0.3044;0.0074;
1247.7000;0.3036;0.0149;
1248.0000;0.3036;0.0124;
1248.3000;0.3028;0.0173;
1248.6000;0.3028;0.0124;
1248.9000;0.3028;0.0074;
1249.2000;0.3020;0.0050;
1249.5000;0.3028;0.0099;
1249.8000;0.3020;0.0074;
1250.1000;0.3028;0.0000;
1250.4000;0.3061;0.0050;
1250.7000;0.3134;0.0248;
1251.0000;0.3044;0.0149;
1251.3000;0.3053;0.0149;
1251.6000;0.3053;0.0149;
1251.9000;0.3085;0.0149;
1252.2000;0.3044;0.0099;
1252.5000;0.3012;0.0050;
1252.8000;0.3028;0.0198;
1253.1000;0.3028;0.0149;
1253.4000;0.3093;0.0248;
1253.7000;0.3012;0.0050;
1254.0000;0.2955;-0.0025;
1254.3000;0.3028;0.0124;
1254.6000;0.3036;0.0248;
1254.9000;0.3053;0.0322;
1255.2000;0.3061;0.0396;
1255.5000;0.3028;0.0198;
1255.8000;0.3077;0.0248;
1256.1000;0.3004;0.0025;
1256.4000;0.3036;-0.0025;
1256.7000;0.3044;0.0000;
1257.0000;0.3020;0.0050;
1257.3000;0.3053;0.0050;
1257.6000;0.3036;0.0050;
1257.9000;0.3044;0.0099;
1258.2000;0.3012;-0.0025;
1258.5000;0.3028;-0.0025;
1258.8000;0.3069;0.0099;
1259.1000;0.3053;0.0000;
1259.4000;0.3028;0.0000;
1259.7000;0.3036;0.0025;
1260.0000;0.3077;0.0099;
1260.3000;0.3053;0.0025;
1260.6000;0.3044;0.0000;
1260.9000;0.3036;0.0000;
1261.2000;0.3044;0.0050;
1261.5000;0.3069;-0.0025;
1261.8000;0.3061;0.0025;
1262.1000;0.3069;0.0025;
1262.4000;0.3036;0.0000;
1262.7000;0.3044;0.0074;
1263.0000;0.3077;0.0173;
1263.3000;0.3044;0.0074;
1263.6000;0.3044;0.0099;
1263.9000;0.3069;0.0124;
1264.2000;0.3061;0.0050;
1264.5000;0.3044;-0.0099;
1264.8000;0.3044;-0.0198;
1265.1000;0.3044;-0.0149;
1265.4000;0.3053;-0.0074;
1265.7000;0.3028;-0.0050;
1266.0000;0.3044;0.0000;
1266.3000;0.3053;0.0074;
1266.6000;0.3036;0.0099;
1266.9000;0.3044;0.0025;
1267.2000;0.3028;0.0000;
1267.5000;0.3126;0.0223;
1267.8000;0.3044;0.0000;
1268.1000;0.3077;-0.0074;
1268.4000;0.3044;-0.0099;
1268.7000;0.2963;-0.0495;
1269.0000;0.3053;-0.0322;
1269.3000;0.3036;-0.0297;
1269.6000;0.3028;-0.0297;
1269.9000;0.3044;-0.0272;
1270.2000;0.3044;-0.0173;
1270.5000;0.3053;-0.0198;
1270.8000;0.3004;-0.0272;
1271.1000;0.3044;-0.0173;
1271.4000;0.3036;-0.0173;
1271.7000;0.3028;-0.0149;
1272.0000;0.3053;-0.0124;
1272.3000;0.3028;-0.0149;
1272.6000;0.3069;0.0000;
1272.9000;0.3053;0.0050;
1273.2000;0.3069;0.0099;
1273.5000;0.3044;-0.0025;
1273.8000;0.3036;-0.0074;
1274.1000;0.3061;0.0025;
1274.4000;0.3044;-0.0050;
1274.7000;0.3061;-0.0124;
1275.0000;0.3012;-0.0223;
1275.3000;0.3036;-0.0198;
1275.6000;0.3085;-0.0074;
1275.9000;0.3069;-0.0074;
1276.2000;0.3053;-0.0025;
1276.5000;0.3053;-0.0173;
1276.8000;0.3053;-0.0198;
1277.1000;0.3061;-0.0248;
1277.4000;0.3053;-0.0223;
1277.7000;0.3012;-0.0248;
1278.0000;0.3036;-0.0124;
1278.3000;0.3061;-0.0124;
1278.6000;0.3036;-0.0149;
1278.9000;0.3053;-0.0025;
1279.2000;0.3061;-0.0025;
1279.5000;0.3053;0.0000;
1279.8000;0.3044;-0.0025;
1280.1000;0.3028;-0.0050;
1280.4000;0.3126;0.0248;
1280.7000;0.3036;0.0000;
1281.0000;0.3028;-0.0050;
1281.3000;0.2979;-0.0322;
1281.6000;0.3053;-0.0050;
1281.9000;0.3036;-0.0050;
1282.2000;0.3036;-0.0099;
1282.5000;0.3053;-0.0074;
1282.8000;0.3020;-0.0198;
1283.1000;0.3004;-0.0198;
1283.4000;0.3036;-0.0173;
1283.7000;0.3028;-0.0099;
1284.0000;0.3028;-0.0149;
1284.3000;0.3085;0.0025;
1284.6000;0.3044;0.0025;
1284.9000;0.3069;0.0124;
1285.2000;0.3036;-0.0099;
1285.5000;0.3044;-0.0173;
1285.8000;0.3053;-0.0099;
1286.1000;0.3036;-0.0198;
1286.4000;0.3044;-0.0099;
1286.7000;0.3061;-0.0124;
1287.0000;0.3044;-0.0173;
1287.3000;0.3053;-0.0198;
1287.6000;0.3069;-0.0173;
1287.9000;0.3053;-0.0198;
1288.2000;0.3044;-0.0297;
1288.5000;0.3069;-0.0322;
1288.8000;0.3061;-0.0297;
1289.1000;0.3061;-0.0272;
1289.4000;0.3061;-0.0272;
1289.7000;0.3028;-0.0371;
1290.0000;0.3061;-0.0297;
1290.3000;0.3061;-0.0272;
1290.6000;0.3020;-0.0421;
1290.9000;0.3036;-0.0396;
1291.2000;0.3061;-0.0347;
1291.5000;0.3085;-0.0297;
1291.8000;0.3020;-0.0421;
1292.1000;0.3020;-0.0396;
1292.4000;0.3036;-0.0322;
1292.7000;0.3028;-0.0297;
1293.0000;0.3020;-0.0297;
1293.3000;0.3028;-0.0198;
1293.6000;0.3036;-0.0099;
1293.9000;0.3036;0.0000;
1294.2000;0.3036;0.0025;
1294.5000;0.3036;0.0050;
1294.8000;0.3053;0.0050;
1295.1000;0.3053;0.0000;
1295.4000;0.3044;-0.0074;
1295.7000;0.3036;-0.0025;
1296.0000;0.3044;0.0050;
1296.3000;0.3044;0.0074;
1296.6000;0.3061;0.0099;
1296.9000;0.3036;0.0000;
1297.2000;0.3020;0.0025;
1297.5000;0.3028;0.0050;
1297.8000;0.3061;0.0025;
1298.1000;0.3053;0.0074;
1298.4000;0.3036;-0.0074;
1298.7000;0.3053;-0.0074;
1299.0000;0.3012;-0.0149;
1299.3000;0.3053;-0.0099;
1299.6000;0.3044;-0.0173;
1299.9000;0.3036;-0.0198;
1300.2000;0.3036;-0.0099;
1300.5000;0.3036;-0.0099;
1300.8000;0.3020;-0.0124;
1301.1000;0.3061;-0.0099;
1301.4000;0.3061;-0.0074;
1301.7000;0.3061;-0.0149;
1302.0000;0.3053;-0.0198;
1302.3000;0.3036;-0.0248;
1302.6000;0.2979;-0.0396;
1302.9000;0.3101;0.0000;
1303.2000;0.3044;-0.0149;
1303.5000;0.3028;-0.0124;
1303.8000;0.3036;-0.0099;
1304.1000;0.3028;-0.0099;
1304.4000;0.3036;-0.0050;
1304.7000;0.3053;-0.0050;
1305.0000;0.3036;0.0000;
1305.3000;0.3053;0.0074;
1305.6000;0.3053;0.0025;
1305.9000;0.3044;-0.0099;
1306.2000;0.3053;-0.0099;
1306.5000;0.3044;-0.0124;
1306.8000;0.3053;-0.0074;
1307.1000;0.3101;0.0074;
1307.4000;0.3053;0.0000;
1307.7000;0.3053;0.0000;
1308.0000;0.3044;-0.0050;
1308.3000;0.3069;0.0074;
1308.6000;0.3036;-0.0149;
1308.9000;0.3004;-0.0149;
1309.2000;0.3061;-0.0050;
1309.5000;0.3061;-0.0050;
1309.8000;0.3053;-0.0124;
1310.1000;0.3036;-0.0124;
1310.4000;0.3012;-0.0124;
1310.7000;0.3061;0.0074;
1311.0000;0.3036;0.0050;
1311.3000;0.3126;0.0173;
1311.6000;0.3061;0.0099;
1311.9000;0.3061;0.0074;
1312.2000;0.3061;0.0050;
1312.5000;0.3028;0.0000;
1312.8000;0.3053;0.0124;
1313.1000;0.3044;0.0074;
1313.4000;0.3044;0.0074;
1313.7000;0.3028;-0.0074;
1314.0000;0.3061;-0.0074;
1314.3000;0.3085;-0.0025;
1314.6000;0.3069;-0.0149;
1314.9000;0.3036;-0.0124;
1315.2000;0.3053;-0.0074;
1315.5000;0.3061;-0.0025;
1315.8000;0.3126;0.0050;
1316.1000;0.3061;-0.0149;
1316.4000;0.3061;-0.0050;
1316.7000;0.3101;0.0000;
1317.0000;0.3044;-0.0149;
1317.3000;0.3053;-0.0050;
1317.6000;0.3069;-0.0099;
1317.9000;0.3085;0.0025;
1318.2000;0.3053;-0.0099;
1318.5000;0.3012;-0.0149;
1318.8000;0.3028;-0.0124;
1319.1000;0.3020;-0.0173;
1319.4000;0.3044;-0.0173;
1319.7000;0.3044;-0.0099;
1320.0000;0.3036;-0.0124;
1320.3000;0.3036;-0.0149;
1320.6000;0.3053;-0.0173;
1320.9000;0.3028;-0.0149;
1321.2000;0.3053;-0.0074;
1321.5000;0.3053;-0.0074;
1321.8000;0.3044;-0.0050;
1322.1000;0.3053;0.0025;
1322.4000;0.3044;0.0000;
1322.7000;0.3053;0.0025;
1323.0000;0.3028;-0.0025;
1323.3000;0.3036;0.0074;
1323.6000;0.3036;0.0074;
1323.9000;0.3061;0.0050;
1324.2000;0.3101;0.0099;
1324.5000;0.2987;-0.0198;
1324.8000;0.3053;-0.0050;
1325.1000;0.3044;-0.0124;
1325.4000;0.3044;-0.0099;
1325.7000;0.3036;0.0000;
1326.0000;0.3061;0.0025;
1326.3000;0.3036;-0.0050;
1326.6000;0.3077;0.0074;
1326.9000;0.3044;-0.0074;
1327.2000;0.3004;-0.0173;
1327.5000;0.3069;-0.0050;
1327.8000;0.3053;-0.0198;
1328.1000;0.2979;-0.0371;
1328.4000;0.3028;-0.0248;
1328.7000;0.3061;-0.0223;
1329.0000;0.3044;-0.0223;
1329.3000;0.3028;-0.0198;
1329.6000;0.3020;-0.0223;
1329.9000;0.3044;-0.0074;
1330.2000;0.3036;-0.0149;
1330.5000;0.3061;-0.0124;
1330.8000;0.3012;-0.0272;
1331.1000;0.3020;-0.0272;
1331.4000;0.3044;-0.0173;
1331.7000;0.3044;-0.0099;
1332.0000;0.3020;-0.0025;
1332.3000;0.3020;-0.0074;
1332.6000;0.3044;0.0074;
1332.9000;0.3036;0.0050;
1333.2000;0.3044;0.0000;
1333.5000;0.2955;-0.0223;
1333.8000;0.3053;0.0025;
1334.1000;0.3044;0.0000;
1334.4000;0.3036;-0.0050;
1334.7000;0.3036;0.0025;
1335.0000;0.3020;0.0025;
1335.3000;0.3053;0.0050;
1335.6000;0.3028;0.0050;
1335.9000;0.3044;-0.0025;
1336.2000;0.3028;-0.0074;
1336.5000;0.3044;0.0000;
1336.8000;0.3036;0.0099;
1337.1000;0.3036;0.0050;
1337.4000;0.3044;0.0025;
1337.7000;0.3020;-0.0025;
1338.0000;0.3061;0.0099;
1338.3000;0.3028;0.0124;
1338.6000;0.3053;0.0050;
1338.9000;0.3036;0.0000;
1339.2000;0.3044;0.0050;
1339.5000;0.3036;0.0025;
1339.8000;0.3020;0.0050;
1340.1000;0.3036;0.0074;
1340.4000;0.3036;-0.0025;
1340.7000;0.3028;-0.0074;
1341.0000;0.3053;-0.0025;
1341.3000;0.3044;-0.0050;
1341.6000;0.2955;-0.0272;
1341.9000;0.3053;0.0025;
1342.2000;0.3044;-0.0050;
1342.5000;0.3028;-0.0074;
1342.8000;0.3020;-0.0025;
1343.1000;0.3044;0.0025;
1343.4000;0.3036;-0.0025;
1343.7000;0.3053;-0.0124;
1344.0000;0.3044;-0.0099;
1344.3000;0.3053;-0.0099;
1344.6000;0.3053;-0.0149;
1344.9000;0.3036;-0.0173;
1345.2000;0.3036;-0.0248;
1345.5000;0.3053;-0.0099;
1345.8000;0.3109;0.0050;
1346.1000;0.3053;-0.0050;
1346.4000;0.3044;0.0000;
1346.7000;0.3061;0.0074;
1347.0000;0.3028;-0.0025;
1347.3000;0.2996;-0.0149;
1347.6000;0.2979;-0.0149;
1347.9000;0.3012;-0.0099;
1348.2000;0.3183;0.0322;
1348.5000;0.3061;-0.0025;
1348.8000;0.3028;0.0074;
1349.1000;0.2987;0.0000;
1349.4000;0.3061;0.0248;
1349.7000;0.3061;0.0149;
1350.0000;0.3028;0.0124;
1350.3000;0.3044;0.0099;
1350.6000;0.3036;0.0025;
1350.9000;0.3028;0.0050;
1351.2000;0.3004;0.0000;
1351.5000;0.3044;0.0050;
1351.8000;0.3044;0.0124;
1352.1000;0.3004;0.0025;
1352.4000;0.3044;0.0099;
1352.7000;0.3020;0.0124;
1353.0000;0.3036;0.0099;
1353.3000;0.3036;0.0074;
1353.6000;0.3069;0.0173;
1353.9000;0.3044;0.0173;
1354.2000;0.3053;0.0198;
1354.5000;0.3061;0.0248;
1354.8000;0.3036;0.0000;
1355.1000;0.3093;0.0050;
1355.4000;0.3004;-0.0124;
1355.7000;0.3053;-0.0025;
1356.0000;0.3044;-0.0025;
1356.3000;0.3044;-0.0050;
1356.6000;0.3044;-0.0074;
1356.9000;0.3044;-0.0074;
1357.2000;0.3044;-0.0025;
1357.5000;0.3044;0.0000;
1357.8000;0.3028;0.0025;
1358.1000;0.3036;0.0000;
1358.4000;0.3044;0.0050;
1358.7000;0.3036;0.0000;
1359.0000;0.3053;-0.0025;
1359.3000;0.3053;-0.0025;
1359.6000;0.3044;0.0025;
1359.9000;0.3044;0.0025;
1360.2000;0.3061;0.0050;
1360.5000;0.3044;0.0074;
1360.8000;0.3061;0.0149;
1361.1000;0.3053;0.0074;
1361.4000;0.3044;-0.0025;
1361.7000;0.3044;0.0099;
1362.0000;0.3036;0.0149;
1362.3000;0.3044;0.0124;
1362.6000;0.3069;0.0074;
1362.9000;0.3077;0.0074;
1363.2000;0.3053;0.0124;
1363.5000;0.3004;0.0050;
1363.8000;0.3061;0.0099;
1364.1000;0.3061;0.0198;
1364.4000;0.3036;0.0149;
1364.7000;0.3044;0.0149;
1365.0000;0.3061;0.0025;
1365.3000;0.3044;-0.0050;
1365.6000;0.3053;-0.0025;
1365.9000;0.3036;0.0074;
1366.2000;0.3061;0.0149;
1366.5000;0.3085;0.0173;
1366.8000;0.3093;0.0297;
1367.1000;0.3012;0.0025;
1367.4000;0.3036;0.0099;
1367.7000;0.3028;0.0173;
1368.0000;0.3044;0.0149;
1368.3000;0.3061;0.0198;
1368.6000;0.3053;0.0099;
1368.9000;0.3036;0.0000;
1369.2000;0.3101;0.0099;
1369.5000;0.3020;-0.0124;
1369.8000;0.3036;-0.0149;
1370.1000;0.3020;-0.0173;
1370.4000;0.3012;-0.0173;
1370.7000;0.3044;-0.0099;
1371.0000;0.3053;-0.0124;
1371.3000;0.3028;-0.0198;
1371.6000;0.2987;-0.0272;
1371.9000;0.2979;-0.0198;
1372.2000;0.3044;0.0050;
1372.5000;0.3028;-0.0025;
1372.8000;0.3101;0.0149;
1373.1000;0.3053;0.0074;
1373.4000;0.3028;0.0074;
1373.7000;0.3020;0.0025;
1374.0000;0.3020;0.0074;
1374.3000;0.3028;0.0074;
1374.6000;0.3028;0.0000;
1374.9000;0.3053;0.0050;
1375.2000;0.3028;-0.0074;
1375.5000;0.3044;-0.0025;
1375.8000;0.3028;-0.0050;
1376.1000;0.3044;0.0025;
1376.4000;0.2963;-0.0149;
1376.7000;0.3044;0.0000;
1377.0000;0.3036;0.0025;
1377.3000;0.3044;0.0124;
1377.6000;0.3044;0.0074;
1377.9000;0.3044;0.0124;
1378.2000;0.3028;0.0074;
1378.5000;0.3061;0.0099;
1378.8000;0.3077;0.0124;
1379.1000;0.3053;0.0050;
1379.4000;0.3044;0.0050;
1379.7000;0.3028;0.0025;
1380.0000;0.3028;-0.0050;
1380.3000;0.3044;-0.0050;
1380.6000;0.3044;-0.0025;
1380.9000;0.3020;0.0000;
1381.2000;0.3053;0.0149;
1381.5000;0.3053;0.0099;
1381.8000;0.3053;0.0099;
1382.1000;0.3061;0.0050;
1382.4000;0.3036;0.0025;
1382.7000;0.3053;0.0099;
1383.0000;0.3061;0.0124;
1383.3000;0.3053;0.0198;
1383.6000;0.3028;0.0173;
1383.9000;0.3053;0.0223;
1384.2000;0.3036;0.0173;
1384.5000;0.3020;0.0149;
1384.8000;0.2979;-0.0099;
1385.1000;0.3044;0.0000;
1385.4000;0.3044;0.0074;
1385.7000;0.3093;0.0223;
1386.0000;0.3036;0.0149;
1386.3000;0.3077;0.0297;
1386.6000;0.3044;0.0223;
1386.9000;0.3036;0.0272;
1387.2000;0.3020;0.0248;
1387.5000;0.3044;0.0124;
1387.8000;0.3053;0.0050;
1388.1000;0.3061;0.0025;
1388.4000;0.3044;-0.0074;
1388.7000;0.3044;-0.0050;
1389.0000;0.3028;-0.0050;
1389.3000;0.3044;0.0025;
1389.6000;0.3061;0.0000;
1389.9000;0.3028;-0.0149;
1390.2000;0.3069;-0.0099;
1390.5000;0.3036;-0.0074;
1390.8000;0.3036;-0.0050;
1391.1000;0.3053;0.0000;
1391.4000;0.3044;0.0000;
1391.7000;0.3036;0.0000;
1392.0000;0.3044;-0.0050;
1392.3000;0.3036;-0.0074;
1392.6000;0.3036;-0.0173;
1392.9000;0.3044;-0.0198;
1393.2000;0.3069;-0.0173;
1393.5000;0.3044;-0.0074;
1393.8000;0.3044;-0.0050;
1394.1000;0.3044;-0.0074;
1394.4000;0.3028;-0.0025;
1394.7000;0.3053;-0.0050;
1395.0000;0.3044;-0.0099;
1395.3000;0.3069;0.0000;
1395.6000;0.3036;-0.0099;
1395.9000;0.3085;0.0074;
1396.2000;0.3053;-0.0050;
1396.5000;0.3036;0.0025;
1396.8000;0.2971;-0.0074;
1397.1000;0.3044;0.0124;
1397.4000;0.3044;0.0050;
1397.7000;0.2971;-0.0099;
1398.0000;0.3044;0.0025;
1398.3000;0.3044;0.0050;
1398.6000;0.3053;0.0099;
1398.9000;0.3053;-0.0025;
1399.2000;0.3028;-0.0099;
1399.5000;0.3053;-0.0050;
1399.8000;0.3028;-0.0099;
