time/ms;Fluo/V;P700 deltaI/I x10³;
-199.8000;0.1530;-0.1314;
-199.5000;0.1498;-0.1410;
-199.2000;0.1490;-0.1362;
-198.9000;0.1498;-0.1266;
-198.6000;0.1481;-0.1362;
-198.3000;0.1481;-0.1362;
-198.0000;0.1481;-0.1338;
-197.7000;0.1490;-0.1314;
-197.4000;0.1473;-0.1410;
-197.1000;0.1498;-0.1386;
-196.8000;0.1498;-0.1362;
-196.5000;0.1514;-0.1410;
-196.2000;0.1490;-0.1505;
-195.9000;0.1498;-0.1529;
-195.6000;0.1514;-0.1410;
-195.3000;0.1498;-0.1458;
-195.0000;0.1506;-0.1386;
-194.7000;0.1465;-0.1458;
-194.4000;0.1481;-0.1434;
-194.1000;0.1498;-0.1410;
-193.8000;0.1490;-0.1410;
-193.5000;0.1473;-0.1362;
-193.2000;0.1481;-0.1458;
-192.9000;0.1481;-0.1410;
-192.6000;0.1481;-0.1386;
-192.3000;0.1473;-0.1314;
-192.0000;0.1490;-0.1314;
-191.7000;0.1498;-0.1362;
-191.4000;0.1498;-0.1362;
-191.1000;0.1481;-0.1410;
-190.8000;0.1506;-0.1266;
-190.5000;0.1498;-0.1290;
-190.2000;0.1481;-0.1290;
-189.9000;0.1473;-0.1314;
-189.6000;0.1465;-0.1434;
-189.3000;0.1506;-0.1219;
-189.0000;0.1498;-0.1410;
-188.7000;0.1498;-0.1362;
-188.4000;0.1498;-0.1410;
-188.1000;0.1498;-0.1362;
-187.8000;0.1498;-0.1290;
-187.5000;0.1481;-0.1314;
-187.2000;0.1490;-0.1266;
-186.9000;0.1490;-0.1290;
-186.6000;0.1514;-0.1219;
-186.3000;0.1457;-0.1314;
-186.0000;0.1498;-0.1266;
-185.7000;0.1490;-0.1290;
-185.4000;0.1473;-0.1314;
-185.1000;0.1506;-0.1243;
-184.8000;0.1465;-0.1290;
-184.5000;0.1490;-0.1147;
-184.2000;0.1498;-0.1147;
-183.9000;0.1498;-0.1195;
-183.6000;0.1465;-0.1266;
-183.3000;0.1465;-0.1314;
-183.0000;0.1506;-0.1290;
-182.7000;0.1481;-0.1362;
-182.4000;0.1506;-0.1338;
-182.1000;0.1498;-0.1362;
-181.8000;0.1530;-0.1171;
-181.5000;0.1481;-0.1290;
-181.2000;0.1490;-0.1290;
-180.9000;0.1473;-0.1338;
-180.6000;0.1506;-0.1290;
-180.3000;0.1506;-0.1338;
-180.0000;0.1498;-0.1410;
-179.7000;0.1473;-0.1482;
-179.4000;0.1490;-0.1482;
-179.1000;0.1506;-0.1529;
-178.8000;0.1506;-0.1505;
-178.5000;0.1465;-0.1553;
-178.2000;0.1498;-0.1434;
-177.9000;0.1514;-0.1410;
-177.6000;0.1481;-0.1410;
-177.3000;0.1498;-0.1434;
-177.0000;0.1473;-0.1482;
-176.7000;0.1498;-0.1434;
-176.4000;0.1498;-0.1386;
-176.1000;0.1481;-0.1362;
-175.8000;0.1473;-0.1314;
-175.5000;0.1481;-0.1290;
-175.2000;0.1481;-0.1243;
-174.9000;0.1481;-0.1266;
-174.6000;0.1473;-0.1290;
-174.3000;0.1481;-0.1219;
-174.0000;0.1498;-0.1123;
-173.7000;0.1514;-0.1147;
-173.4000;0.1506;-0.1123;
-173.1000;0.1481;-0.1171;
-172.8000;0.1490;-0.1243;
-172.5000;0.1473;-0.1290;
-172.2000;0.1490;-0.1338;
-171.9000;0.1473;-0.1314;
-171.6000;0.1481;-0.1314;
-171.3000;0.1490;-0.1362;
-171.0000;0.1490;-0.1362;
-170.7000;0.1506;-0.1338;
-170.4000;0.1490;-0.1386;
-170.1000;0.1490;-0.1386;
-169.8000;0.1490;-0.1386;
-169.5000;0.1498;-0.1338;
-169.2000;0.1498;-0.1338;
-168.9000;0.1498;-0.1386;
-168.6000;0.1481;-0.1434;
-168.3000;0.1465;-0.1434;
-168.0000;0.1473;-0.1386;
-167.7000;0.1481;-0.1362;
-167.4000;0.1465;-0.1362;
-167.1000;0.1473;-0.1386;
-166.8000;0.1392;-0.1649;
-166.5000;0.1441;-0.1458;
-166.2000;0.1498;-0.1243;
-165.9000;0.1490;-0.1243;
-165.6000;0.1538;-0.1171;
-165.3000;0.1490;-0.1243;
-165.0000;0.1506;-0.1219;
-164.7000;0.1368;-0.1505;
-164.4000;0.1498;-0.1171;
-164.1000;0.1514;-0.1171;
-163.8000;0.1457;-0.1290;
-163.5000;0.1538;-0.1123;
-163.2000;0.1490;-0.1243;
-162.9000;0.1473;-0.1338;
-162.6000;0.1498;-0.1338;
-162.3000;0.1481;-0.1410;
-162.0000;0.1522;-0.1314;
-161.7000;0.1498;-0.1338;
-161.4000;0.1481;-0.1386;
-161.1000;0.1481;-0.1386;
-160.8000;0.1457;-0.1505;
-160.5000;0.1490;-0.1505;
-160.2000;0.1481;-0.1553;
-159.9000;0.1490;-0.1505;
-159.6000;0.1506;-0.1529;
-159.3000;0.1506;-0.1529;
-159.0000;0.1522;-0.1529;
-158.7000;0.1481;-0.1482;
-158.4000;0.1457;-0.1505;
-158.1000;0.1481;-0.1386;
-157.8000;0.1530;-0.1338;
-157.5000;0.1530;-0.1434;
-157.2000;0.1506;-0.1482;
-156.9000;0.1490;-0.1482;
-156.6000;0.1498;-0.1482;
-156.3000;0.1498;-0.1386;
-156.0000;0.1481;-0.1410;
-155.7000;0.1490;-0.1553;
-155.4000;0.1481;-0.1553;
-155.1000;0.1506;-0.1362;
-154.8000;0.1490;-0.1362;
-154.5000;0.1579;-0.1147;
-154.2000;0.1481;-0.1243;
-153.9000;0.1506;-0.1171;
-153.6000;0.1473;-0.1290;
-153.3000;0.1449;-0.1458;
-153.0000;0.1530;-0.1290;
-152.7000;0.1538;-0.1147;
-152.4000;0.1530;-0.1290;
-152.1000;0.1604;-0.1051;
-151.8000;0.1490;-0.1386;
-151.5000;0.1481;-0.1362;
-151.2000;0.1555;-0.1075;
-150.9000;0.1498;-0.1266;
-150.6000;0.1514;-0.1362;
-150.3000;0.1498;-0.1386;
-150.0000;0.1547;-0.1243;
-149.7000;0.1490;-0.1290;
-149.4000;0.1490;-0.1362;
-149.1000;0.1506;-0.1314;
-148.8000;0.1506;-0.1314;
-148.5000;0.1498;-0.1243;
-148.2000;0.1506;-0.1243;
-147.9000;0.1530;-0.1171;
-147.6000;0.1481;-0.1290;
-147.3000;0.1465;-0.1362;
-147.0000;0.1498;-0.1314;
-146.7000;0.1490;-0.1290;
-146.4000;0.1498;-0.1243;
-146.1000;0.1481;-0.1219;
-145.8000;0.1506;-0.1147;
-145.5000;0.1547;-0.1075;
-145.2000;0.1490;-0.1219;
-144.9000;0.1506;-0.1123;
-144.6000;0.1433;-0.1338;
-144.3000;0.1408;-0.1386;
-144.0000;0.1465;-0.1386;
-143.7000;0.1473;-0.1290;
-143.4000;0.1498;-0.1362;
-143.1000;0.1465;-0.1410;
-142.8000;0.1514;-0.1314;
-142.5000;0.1481;-0.1482;
-142.2000;0.1498;-0.1410;
-141.9000;0.1538;-0.1266;
-141.6000;0.1506;-0.1338;
-141.3000;0.1506;-0.1290;
-141.0000;0.1481;-0.1338;
-140.7000;0.1457;-0.1458;
-140.4000;0.1506;-0.1314;
-140.1000;0.1506;-0.1314;
-139.8000;0.1481;-0.1386;
-139.5000;0.1506;-0.1386;
-139.2000;0.1473;-0.1482;
-138.9000;0.1481;-0.1505;
-138.6000;0.1481;-0.1482;
-138.3000;0.1473;-0.1482;
-138.0000;0.1522;-0.1410;
-137.7000;0.1506;-0.1482;
-137.4000;0.1498;-0.1434;
-137.1000;0.1530;-0.1362;
-136.8000;0.1481;-0.1386;
-136.5000;0.1506;-0.1386;
-136.2000;0.1498;-0.1410;
-135.9000;0.1490;-0.1434;
-135.6000;0.1490;-0.1338;
-135.3000;0.1465;-0.1362;
-135.0000;0.1498;-0.1290;
-134.7000;0.1473;-0.1386;
-134.4000;0.1498;-0.1243;
-134.1000;0.1473;-0.1314;
-133.8000;0.1490;-0.1266;
-133.5000;0.1498;-0.1266;
-133.2000;0.1481;-0.1314;
-132.9000;0.1465;-0.1410;
-132.6000;0.1571;-0.1099;
-132.3000;0.1514;-0.1290;
-132.0000;0.1514;-0.1290;
-131.7000;0.1481;-0.1338;
-131.4000;0.1498;-0.1362;
-131.1000;0.1506;-0.1338;
-130.8000;0.1522;-0.1314;
-130.5000;0.1481;-0.1410;
-130.2000;0.1538;-0.1171;
-129.9000;0.1547;-0.1243;
-129.6000;0.1490;-0.1410;
-129.3000;0.1481;-0.1362;
-129.0000;0.1481;-0.1338;
-128.7000;0.1465;-0.1362;
-128.4000;0.1490;-0.1266;
-128.1000;0.1473;-0.1362;
-127.8000;0.1490;-0.1314;
-127.5000;0.1465;-0.1314;
-127.2000;0.1514;-0.1147;
-126.9000;0.1530;-0.1147;
-126.6000;0.1490;-0.1195;
-126.3000;0.1481;-0.1147;
-126.0000;0.1473;-0.1219;
-125.7000;0.1498;-0.1171;
-125.4000;0.1481;-0.1123;
-125.1000;0.1498;-0.1051;
-124.8000;0.1490;-0.1147;
-124.5000;0.1547;-0.1123;
-124.2000;0.1457;-0.1314;
-123.9000;0.1481;-0.1171;
-123.6000;0.1481;-0.1195;
-123.3000;0.1490;-0.1123;
-123.0000;0.1490;-0.1195;
-122.7000;0.1490;-0.1243;
-122.4000;0.1473;-0.1290;
-122.1000;0.1506;-0.1266;
-121.8000;0.1490;-0.1338;
-121.5000;0.1441;-0.1577;
-121.2000;0.1514;-0.1290;
-120.9000;0.1514;-0.1266;
-120.6000;0.1506;-0.1290;
-120.3000;0.1506;-0.1290;
-120.0000;0.1465;-0.1362;
-119.7000;0.1514;-0.1338;
-119.4000;0.1490;-0.1386;
-119.1000;0.1490;-0.1434;
-118.8000;0.1538;-0.1266;
-118.5000;0.1506;-0.1386;
-118.2000;0.1498;-0.1386;
-117.9000;0.1530;-0.1266;
-117.6000;0.1506;-0.1290;
-117.3000;0.1490;-0.1434;
-117.0000;0.1490;-0.1529;
-116.7000;0.1473;-0.1529;
-116.4000;0.1473;-0.1529;
-116.1000;0.1473;-0.1529;
-115.8000;0.1498;-0.1505;
-115.5000;0.1481;-0.1553;
-115.2000;0.1506;-0.1577;
-114.9000;0.1465;-0.1529;
-114.6000;0.1490;-0.1410;
-114.3000;0.1498;-0.1362;
-114.0000;0.1481;-0.1410;
-113.7000;0.1571;-0.1099;
-113.4000;0.1490;-0.1266;
-113.1000;0.1490;-0.1314;
-112.8000;0.1563;-0.1243;
-112.5000;0.1490;-0.1505;
-112.2000;0.1498;-0.1577;
-111.9000;0.1498;-0.1529;
-111.6000;0.1620;-0.1171;
-111.3000;0.1481;-0.1505;
-111.0000;0.1490;-0.1458;
-110.7000;0.1506;-0.1434;
-110.4000;0.1473;-0.1625;
-110.1000;0.1506;-0.1505;
-109.8000;0.1425;-0.1697;
-109.5000;0.1579;-0.1243;
-109.2000;0.1498;-0.1362;
-108.9000;0.1457;-0.1434;
-108.6000;0.1351;-0.1744;
-108.3000;0.1522;-0.1338;
-108.0000;0.1506;-0.1362;
-107.7000;0.1433;-0.1482;
-107.4000;0.1490;-0.1362;
-107.1000;0.1481;-0.1338;
-106.8000;0.1490;-0.1386;
-106.5000;0.1490;-0.1386;
-106.2000;0.1490;-0.1338;
-105.9000;0.1481;-0.1314;
-105.6000;0.1481;-0.1338;
-105.3000;0.1498;-0.1266;
-105.0000;0.1595;-0.1004;
-104.7000;0.1490;-0.1362;
-104.4000;0.1473;-0.1458;
-104.1000;0.1481;-0.1458;
-103.8000;0.1490;-0.1386;
-103.5000;0.1481;-0.1362;
-103.2000;0.1522;-0.1266;
-102.9000;0.1481;-0.1338;
-102.6000;0.1465;-0.1386;
-102.3000;0.1481;-0.1386;
-102.0000;0.1473;-0.1505;
-101.7000;0.1490;-0.1482;
-101.4000;0.1473;-0.1553;
-101.1000;0.1481;-0.1458;
-100.8000;0.1490;-0.1458;
-100.5000;0.1473;-0.1529;
-100.2000;0.1490;-0.1458;
-99.9000;0.1563;-0.1290;
-99.6000;0.1481;-0.1434;
-99.3000;0.1490;-0.1434;
-99.0000;0.1506;-0.1386;
-98.7000;0.1498;-0.1386;
-98.4000;0.1514;-0.1410;
-98.1000;0.1473;-0.1434;
-97.8000;0.1514;-0.1362;
-97.5000;0.1498;-0.1434;
-97.2000;0.1530;-0.1338;
-96.9000;0.1498;-0.1410;
-96.6000;0.1473;-0.1410;
-96.3000;0.1473;-0.1362;
-96.0000;0.1506;-0.1290;
-95.7000;0.1457;-0.1362;
-95.4000;0.1481;-0.1362;
-95.1000;0.1473;-0.1338;
-94.8000;0.1465;-0.1314;
-94.5000;0.1481;-0.1266;
-94.2000;0.1481;-0.1386;
-93.9000;0.1498;-0.1362;
-93.6000;0.1490;-0.1386;
-93.3000;0.1498;-0.1434;
-93.0000;0.1481;-0.1482;
-92.7000;0.1490;-0.1482;
-92.4000;0.1441;-0.1410;
-92.1000;0.1481;-0.1266;
-91.8000;0.1481;-0.1290;
-91.5000;0.1473;-0.1338;
-91.2000;0.1490;-0.1338;
-90.9000;0.1473;-0.1386;
-90.6000;0.1547;-0.1195;
-90.3000;0.1490;-0.1362;
-90.0000;0.1473;-0.1338;
-89.7000;0.1490;-0.1290;
-89.4000;0.1400;-0.1434;
-89.1000;0.1481;-0.1219;
-88.8000;0.1490;-0.1219;
-88.5000;0.1490;-0.1266;
-88.2000;0.1465;-0.1290;
-87.9000;0.1506;-0.1171;
-87.6000;0.1481;-0.1243;
-87.3000;0.1595;-0.0980;
-87.0000;0.1490;-0.1243;
-86.7000;0.1473;-0.1386;
-86.4000;0.1481;-0.1458;
-86.1000;0.1555;-0.1195;
-85.8000;0.1522;-0.1219;
-85.5000;0.1538;-0.1171;
-85.2000;0.1433;-0.1410;
-84.9000;0.1490;-0.1362;
-84.6000;0.1473;-0.1410;
-84.3000;0.1481;-0.1434;
-84.0000;0.1498;-0.1338;
-83.7000;0.1481;-0.1362;
-83.4000;0.1514;-0.1219;
-83.1000;0.1473;-0.1290;
-82.8000;0.1473;-0.1362;
-82.5000;0.1457;-0.1410;
-82.2000;0.1465;-0.1458;
-81.9000;0.1481;-0.1434;
-81.6000;0.1498;-0.1505;
-81.3000;0.1498;-0.1505;
-81.0000;0.1490;-0.1553;
-80.7000;0.1498;-0.1505;
-80.4000;0.1498;-0.1458;
-80.1000;0.1490;-0.1386;
-79.8000;0.1465;-0.1410;
-79.5000;0.1481;-0.1386;
-79.2000;0.1481;-0.1458;
-78.9000;0.1490;-0.1434;
-78.6000;0.1473;-0.1434;
-78.3000;0.1481;-0.1434;
-78.0000;0.1498;-0.1434;
-77.7000;0.1490;-0.1434;
-77.4000;0.1498;-0.1410;
-77.1000;0.1490;-0.1410;
-76.8000;0.1490;-0.1290;
-76.5000;0.1490;-0.1243;
-76.2000;0.1506;-0.1290;
-75.9000;0.1490;-0.1386;
-75.6000;0.1490;-0.1434;
-75.3000;0.1490;-0.1362;
-75.0000;0.1490;-0.1362;
-74.7000;0.1490;-0.1290;
-74.4000;0.1490;-0.1290;
-74.1000;0.1481;-0.1338;
-73.8000;0.1473;-0.1362;
-73.5000;0.1498;-0.1362;
-73.2000;0.1465;-0.1386;
-72.9000;0.1498;-0.1362;
-72.6000;0.1481;-0.1290;
-72.3000;0.1481;-0.1266;
-72.0000;0.1506;-0.1195;
-71.7000;0.1286;-0.1721;
-71.4000;0.1530;-0.1243;
-71.1000;0.1465;-0.1434;
-70.8000;0.1441;-0.1625;
-70.5000;0.1498;-0.1434;
-70.2000;0.1473;-0.1458;
-69.9000;0.1490;-0.1410;
-69.6000;0.1473;-0.1434;
-69.3000;0.1498;-0.1362;
-69.0000;0.1506;-0.1266;
-68.7000;0.1481;-0.1434;
-68.4000;0.1465;-0.1482;
-68.1000;0.1465;-0.1553;
-67.8000;0.1490;-0.1505;
-67.5000;0.1506;-0.1505;
-67.2000;0.1473;-0.1505;
-66.9000;0.1498;-0.1458;
-66.6000;0.1490;-0.1458;
-66.3000;0.1481;-0.1458;
-66.0000;0.1498;-0.1386;
-65.7000;0.1506;-0.1386;
-65.4000;0.1465;-0.1386;
-65.1000;0.1506;-0.1219;
-64.8000;0.1473;-0.1243;
-64.5000;0.1498;-0.1147;
-64.2000;0.1604;-0.0836;
-63.9000;0.1490;-0.1028;
-63.6000;0.1498;-0.1028;
-63.3000;0.1481;-0.1075;
-63.0000;0.1514;-0.1123;
-62.7000;0.1481;-0.1195;
-62.4000;0.1538;-0.1099;
-62.1000;0.1481;-0.1338;
-61.8000;0.1490;-0.1290;
-61.5000;0.1506;-0.1219;
-61.2000;0.1555;-0.1099;
-60.9000;0.1490;-0.1171;
-60.6000;0.1490;-0.1171;
-60.3000;0.1506;-0.1099;
-60.0000;0.1490;-0.1171;
-59.7000;0.1490;-0.1195;
-59.4000;0.1530;-0.1099;
-59.1000;0.1481;-0.1195;
-58.8000;0.1490;-0.1171;
-58.5000;0.1481;-0.1195;
-58.2000;0.1465;-0.1290;
-57.9000;0.1538;-0.1123;
-57.6000;0.1481;-0.1266;
-57.3000;0.1514;-0.1219;
-57.0000;0.1538;-0.1147;
-56.7000;0.1490;-0.1266;
-56.4000;0.1506;-0.1219;
-56.1000;0.1490;-0.1147;
-55.8000;0.1490;-0.1147;
-55.5000;0.1506;-0.1171;
-55.2000;0.1522;-0.1099;
-54.9000;0.1522;-0.1171;
-54.6000;0.1481;-0.1266;
-54.3000;0.1473;-0.1386;
-54.0000;0.1473;-0.1362;
-53.7000;0.1449;-0.1410;
-53.4000;0.1465;-0.1338;
-53.1000;0.1481;-0.1243;
-52.8000;0.1473;-0.1314;
-52.5000;0.1408;-0.1505;
-52.2000;0.1490;-0.1314;
-51.9000;0.1498;-0.1338;
-51.6000;0.1473;-0.1386;
-51.3000;0.1449;-0.1458;
-51.0000;0.1498;-0.1386;
-50.7000;0.1457;-0.1505;
-50.4000;0.1498;-0.1482;
-50.1000;0.1473;-0.1529;
-49.8000;0.1335;-0.1888;
-49.5000;0.1490;-0.1386;
-49.2000;0.1473;-0.1601;
-48.9000;0.1481;-0.1505;
-48.6000;0.1595;-0.1219;
-48.3000;0.1481;-0.1673;
-48.0000;0.1425;-0.1697;
-47.7000;0.1481;-0.1482;
-47.4000;0.1473;-0.1458;
-47.1000;0.1530;-0.1386;
-46.8000;0.1506;-0.1505;
-46.5000;0.1481;-0.1649;
-46.2000;0.1465;-0.1744;
-45.9000;0.1506;-0.1601;
-45.6000;0.1490;-0.1697;
-45.3000;0.1473;-0.1673;
-45.0000;0.1465;-0.1577;
-44.7000;0.1514;-0.1434;
-44.4000;0.1498;-0.1505;
-44.1000;0.1498;-0.1505;
-43.8000;0.1473;-0.1529;
-43.5000;0.1522;-0.1410;
-43.2000;0.1490;-0.1529;
-42.9000;0.1473;-0.1721;
-42.6000;0.1530;-0.1577;
-42.3000;0.1465;-0.1792;
-42.0000;0.1490;-0.1721;
-41.7000;0.1595;-0.1434;
-41.4000;0.1457;-0.1792;
-41.1000;0.1481;-0.1673;
-40.8000;0.1490;-0.1673;
-40.5000;0.1490;-0.1577;
-40.2000;0.1522;-0.1505;
-39.9000;0.1498;-0.1458;
-39.6000;0.1490;-0.1458;
-39.3000;0.1425;-0.1625;
-39.0000;0.1481;-0.1553;
-38.7000;0.1490;-0.1458;
-38.4000;0.1449;-0.1553;
-38.1000;0.1538;-0.1386;
-37.8000;0.1457;-0.1482;
-37.5000;0.1457;-0.1410;
-37.2000;0.1481;-0.1386;
-36.9000;0.1506;-0.1386;
-36.6000;0.1506;-0.1386;
-36.3000;0.1481;-0.1601;
-36.0000;0.1498;-0.1697;
-35.7000;0.1506;-0.1721;
-35.4000;0.1514;-0.1673;
-35.1000;0.1481;-0.1649;
-34.8000;0.1514;-0.1553;
-34.5000;0.1490;-0.1673;
-34.2000;0.1498;-0.1601;
-33.9000;0.1490;-0.1553;
-33.6000;0.1498;-0.1553;
-33.3000;0.1506;-0.1505;
-33.0000;0.1563;-0.1266;
-32.7000;0.1490;-0.1410;
-32.4000;0.1473;-0.1434;
-32.1000;0.1490;-0.1386;
-31.8000;0.1457;-0.1458;
-31.5000;0.1498;-0.1338;
-31.2000;0.1457;-0.1482;
-30.9000;0.1481;-0.1458;
-30.6000;0.1555;-0.1362;
-30.3000;0.1457;-0.1577;
-30.0000;0.1465;-0.1577;
-29.7000;0.1498;-0.1458;
-29.4000;0.1465;-0.1601;
-29.1000;0.1506;-0.1458;
-28.8000;0.1473;-0.1553;
-28.5000;0.1481;-0.1529;
-28.2000;0.1481;-0.1697;
-27.9000;0.1506;-0.1601;
-27.6000;0.1490;-0.1625;
-27.3000;0.1481;-0.1649;
-27.0000;0.1530;-0.1458;
-26.7000;0.1473;-0.1601;
-26.4000;0.1506;-0.1553;
-26.1000;0.1433;-0.1792;
-25.8000;0.1416;-0.1864;
-25.5000;0.1449;-0.1625;
-25.2000;0.1514;-0.1434;
-24.9000;0.1490;-0.1505;
-24.6000;0.1465;-0.1553;
-24.3000;0.1481;-0.1505;
-24.0000;0.1465;-0.1601;
-23.7000;0.1490;-0.1625;
-23.4000;0.1498;-0.1625;
-23.1000;0.1498;-0.1553;
-22.8000;0.1481;-0.1625;
-22.5000;0.1522;-0.1482;
-22.2000;0.1481;-0.1553;
-21.9000;0.1490;-0.1577;
-21.6000;0.1490;-0.1505;
-21.3000;0.1465;-0.1553;
-21.0000;0.1465;-0.1577;
-20.7000;0.1490;-0.1625;
-20.4000;0.1481;-0.1697;
-20.1000;0.1506;-0.1625;
-19.8000;0.1481;-0.1673;
-19.5000;0.1506;-0.1673;
-19.2000;0.1481;-0.1721;
-18.9000;0.1506;-0.1768;
-18.6000;0.1490;-0.1792;
-18.3000;0.1473;-0.1768;
-18.0000;0.1490;-0.1577;
-17.7000;0.1571;-0.1314;
-17.4000;0.1498;-0.1505;
-17.1000;0.1490;-0.1625;
-16.8000;0.1498;-0.1625;
-16.5000;0.1441;-0.1768;
-16.2000;0.1555;-0.1458;
-15.9000;0.1490;-0.1744;
-15.6000;0.1506;-0.1721;
-15.3000;0.1473;-0.1744;
-15.0000;0.1473;-0.1697;
-14.7000;0.1514;-0.1505;
-14.4000;0.1547;-0.1482;
-14.1000;0.1441;-0.1768;
-13.8000;0.1522;-0.1434;
-13.5000;0.1425;-0.1673;
-13.2000;0.1506;-0.1577;
-12.9000;0.1490;-0.1553;
-12.6000;0.1481;-0.1625;
-12.3000;0.1481;-0.1625;
-12.0000;0.1506;-0.1649;
-11.7000;0.1547;-0.1505;
-11.4000;0.1490;-0.1649;
-11.1000;0.1498;-0.1697;
-10.8000;0.1490;-0.1673;
-10.5000;0.1449;-0.1721;
-10.2000;0.1514;-0.1601;
-9.9000;0.1530;-0.1529;
-9.6000;0.1481;-0.1744;
-9.3000;0.1490;-0.1792;
-9.0000;0.1490;-0.1816;
-8.7000;0.1490;-0.1721;
-8.4000;0.1473;-0.1721;
-8.1000;0.1481;-0.1768;
-7.8000;0.1433;-0.1840;
-7.5000;0.1490;-0.1744;
-7.2000;0.1506;-0.1721;
-6.9000;0.1490;-0.1816;
-6.6000;0.1490;-0.1840;
-6.3000;0.1473;-0.1888;
-6.0000;0.1506;-0.1840;
-5.7000;0.1465;-0.1864;
-5.4000;0.1506;-0.1816;
-5.1000;0.1490;-0.1768;
-4.8000;0.1449;-0.1792;
-4.5000;0.1465;-0.1721;
-4.2000;0.1498;-0.1625;
-3.9000;0.1498;-0.1625;
-3.6000;0.1465;-0.1721;
-3.3000;0.1530;-0.1529;
-3.0000;0.1490;-0.1649;
-2.7000;0.1490;-0.1553;
-2.4000;0.1473;-0.1601;
-2.1000;0.1473;-0.1505;
-1.8000;0.1547;-0.1338;
-1.5000;0.1490;-0.1314;
-1.2000;0.1506;-0.1266;
-0.9000;0.1481;-0.1362;
-0.6000;0.1522;-0.1338;
-0.3000;0.1538;-0.1290;
0.0000;0.1538;-0.1290;
0.3000;0.1514;-0.1482;
0.6000;0.1481;-0.1458;
0.9000;0.1490;-0.1410;
1.2000;0.1481;-0.1219;
1.5000;0.1514;-0.1051;
1.8000;0.1514;-0.0932;
2.1000;0.1538;-0.0812;
2.4000;0.1522;-0.0669;
2.7000;0.1506;-0.0597;
3.0000;0.1506;-0.0621;
3.3000;0.1538;-0.0526;
3.6000;0.1547;-0.0478;
3.9000;0.1506;-0.0597;
4.2000;0.1547;-0.0502;
4.5000;0.1490;-0.0526;
4.8000;0.1498;-0.0454;
5.1000;0.1522;-0.0311;
5.4000;0.1514;-0.0263;
5.7000;0.1555;-0.0167;
6.0000;0.1522;-0.0191;
6.3000;0.1506;-0.0167;
6.6000;0.1514;-0.0096;
6.9000;0.1522;-0.0024;
7.2000;0.1530;0.0024;
7.5000;0.1514;-0.0143;
7.8000;0.1522;-0.0143;
8.1000;0.1506;-0.0215;
8.4000;0.1538;-0.0143;
8.7000;0.1522;-0.0143;
9.0000;0.1563;0.0024;
9.3000;0.1555;-0.0048;
9.6000;0.1433;-0.0358;
9.9000;0.1522;-0.0215;
10.2000;0.1514;-0.0335;
10.5000;0.1547;-0.0287;
10.8000;0.1530;-0.0263;
11.1000;0.1490;-0.0335;
11.4000;0.1555;-0.0167;
11.7000;0.1538;-0.0287;
12.0000;0.1522;-0.0430;
12.3000;0.1538;-0.0454;
12.6000;0.1498;-0.0502;
12.9000;0.1498;-0.0430;
13.2000;0.1514;-0.0382;
13.5000;0.1538;-0.0215;
13.8000;0.1538;-0.0167;
14.1000;0.1522;-0.0215;
14.4000;0.1636;0.0072;
14.7000;0.1530;-0.0143;
15.0000;0.1555;-0.0119;
15.3000;0.1579;-0.0048;
15.6000;0.1522;-0.0358;
15.9000;0.1522;-0.0335;
16.2000;0.1506;-0.0311;
16.5000;0.1522;-0.0287;
16.8000;0.1506;-0.0311;
17.1000;0.1522;-0.0335;
17.4000;0.1514;-0.0406;
17.7000;0.1514;-0.0358;
18.0000;0.1530;-0.0215;
18.3000;0.1473;-0.0406;
18.6000;0.1514;-0.0335;
18.9000;0.1481;-0.0454;
19.2000;0.1522;-0.0287;
19.5000;0.1538;-0.0191;
19.8000;0.1530;-0.0024;
20.1000;0.1473;-0.0239;
20.4000;0.1538;-0.0191;
20.7000;0.1514;-0.0335;
21.0000;0.1547;-0.0335;
21.3000;0.1481;-0.0430;
21.6000;0.1530;-0.0335;
21.9000;0.1522;-0.0239;
22.2000;0.1514;-0.0191;
22.5000;0.1571;-0.0096;
22.8000;0.1514;-0.0167;
23.1000;0.1522;-0.0191;
23.4000;0.1498;-0.0215;
23.7000;0.1506;-0.0311;
24.0000;0.1530;-0.0239;
24.3000;0.1514;-0.0215;
24.6000;0.1498;-0.0215;
24.9000;0.1514;-0.0167;
25.2000;0.1514;-0.0191;
25.5000;0.1481;-0.0191;
25.8000;0.1514;-0.0143;
26.1000;0.1522;-0.0167;
26.4000;0.1506;-0.0263;
26.7000;0.1457;-0.0382;
27.0000;0.1530;-0.0167;
27.3000;0.1530;-0.0191;
27.6000;0.1538;-0.0215;
27.9000;0.1522;-0.0263;
28.2000;0.1473;-0.0239;
28.5000;0.1506;-0.0191;
28.8000;0.1522;-0.0239;
29.1000;0.1522;-0.0215;
29.4000;0.1538;-0.0215;
29.7000;0.1563;-0.0239;
30.0000;0.1522;-0.0335;
30.3000;0.1481;-0.0382;
30.6000;0.1522;-0.0311;
30.9000;0.1538;-0.0287;
31.2000;0.1530;-0.0215;
31.5000;0.1530;-0.0191;
31.8000;0.1530;-0.0167;
32.1000;0.1522;-0.0215;
32.4000;0.1506;-0.0239;
32.7000;0.1465;-0.0406;
33.0000;0.1481;-0.0287;
33.3000;0.1498;-0.0143;
33.6000;0.1571;0.0072;
33.9000;0.1514;-0.0048;
34.2000;0.1514;0.0000;
34.5000;0.1481;-0.0072;
34.8000;0.1571;0.0191;
35.1000;0.1530;0.0119;
35.4000;0.1506;0.0096;
35.7000;0.1538;0.0167;
36.0000;0.1530;0.0096;
36.3000;0.1514;0.0000;
36.6000;0.1522;-0.0048;
36.9000;0.1522;-0.0048;
37.2000;0.1506;-0.0096;
37.5000;0.1522;-0.0119;
37.8000;0.1514;-0.0167;
38.1000;0.1530;-0.0096;
38.4000;0.1587;0.0072;
38.7000;0.1514;-0.0119;
39.0000;0.1514;-0.0191;
39.3000;0.1514;-0.0143;
39.6000;0.1530;-0.0191;
39.9000;0.1530;-0.0119;
40.2000;0.1514;-0.0143;
40.5000;0.1506;-0.0191;
40.8000;0.1522;-0.0119;
41.1000;0.1514;-0.0096;
41.4000;0.1587;0.0167;
41.7000;0.1547;0.0072;
42.0000;0.1522;0.0072;
42.3000;0.1538;0.0072;
42.6000;0.1514;-0.0048;
42.9000;0.1498;-0.0096;
43.2000;0.1530;-0.0119;
43.5000;0.1506;-0.0119;
43.8000;0.1514;-0.0048;
44.1000;0.1473;-0.0167;
44.4000;0.1530;-0.0048;
44.7000;0.1563;0.0072;
45.0000;0.1530;-0.0072;
45.3000;0.1514;-0.0072;
45.6000;0.1514;-0.0072;
45.9000;0.1465;-0.0191;
46.2000;0.1571;0.0072;
46.5000;0.1522;-0.0072;
46.8000;0.1522;-0.0096;
47.1000;0.1498;-0.0167;
47.4000;0.1612;0.0143;
47.7000;0.1514;-0.0119;
48.0000;0.1514;-0.0119;
48.3000;0.1555;-0.0072;
48.6000;0.1522;-0.0191;
48.9000;0.1490;-0.0335;
49.2000;0.1498;-0.0263;
49.5000;0.1498;-0.0287;
49.8000;0.1457;-0.0311;
50.1000;0.1522;-0.0191;
50.4000;0.1547;-0.0143;
50.7000;0.1522;-0.0191;
51.0000;0.1530;-0.0191;
51.3000;0.1498;-0.0358;
51.6000;0.1538;-0.0263;
51.9000;0.1498;-0.0358;
52.2000;0.1530;-0.0191;
52.5000;0.1457;-0.0335;
52.8000;0.1490;-0.0215;
53.1000;0.1514;-0.0119;
53.4000;0.1522;-0.0048;
53.7000;0.1449;-0.0191;
54.0000;0.1498;-0.0072;
54.3000;0.1587;0.0119;
54.6000;0.1400;-0.0454;
54.9000;0.1522;-0.0096;
55.2000;0.1522;-0.0072;
55.5000;0.1506;-0.0167;
55.8000;0.1530;-0.0143;
56.1000;0.1538;-0.0096;
56.4000;0.1530;-0.0143;
56.7000;0.1514;-0.0119;
57.0000;0.1514;-0.0072;
57.3000;0.1571;0.0024;
57.6000;0.1547;0.0048;
57.9000;0.1408;-0.0335;
58.2000;0.1449;-0.0311;
58.5000;0.1514;-0.0143;
58.8000;0.1595;0.0000;
59.1000;0.1514;-0.0239;
59.4000;0.1563;-0.0191;
59.7000;0.1522;-0.0287;
60.0000;0.1514;-0.0263;
60.3000;0.1498;-0.0191;
60.6000;0.1506;-0.0215;
60.9000;0.1522;-0.0096;
61.2000;0.1514;-0.0119;
61.5000;0.1457;-0.0215;
61.8000;0.1522;0.0000;
62.1000;0.1522;-0.0024;
62.4000;0.1538;-0.0072;
62.7000;0.1506;-0.0096;
63.0000;0.1514;-0.0048;
63.3000;0.1522;-0.0024;
63.6000;0.1514;-0.0119;
63.9000;0.1522;-0.0119;
64.2000;0.1490;-0.0167;
64.5000;0.1530;-0.0143;
64.8000;0.1514;-0.0119;
65.1000;0.1530;-0.0024;
65.4000;0.1522;-0.0096;
65.7000;0.1506;-0.0143;
66.0000;0.1514;-0.0191;
66.3000;0.1530;-0.0143;
66.6000;0.1506;-0.0215;
66.9000;0.1530;-0.0119;
67.2000;0.1538;-0.0119;
67.5000;0.1587;-0.0024;
67.8000;0.1481;-0.0311;
68.1000;0.1530;-0.0119;
68.4000;0.1563;0.0000;
68.7000;0.1514;-0.0119;
69.0000;0.1563;0.0000;
69.3000;0.1555;-0.0024;
69.6000;0.1538;-0.0024;
69.9000;0.1514;-0.0096;
70.2000;0.1522;-0.0143;
70.5000;0.1530;-0.0048;
70.8000;0.1595;0.0072;
71.1000;0.1579;0.0072;
71.4000;0.1555;0.0048;
71.7000;0.1530;0.0024;
72.0000;0.1514;0.0072;
72.3000;0.1514;0.0024;
72.6000;0.1522;-0.0072;
72.9000;0.1522;-0.0096;
73.2000;0.1538;-0.0048;
73.5000;0.1522;0.0000;
73.8000;0.1530;-0.0024;
74.1000;0.1547;0.0096;
74.4000;0.1514;0.0048;
74.7000;0.1522;0.0096;
75.0000;0.1514;0.0119;
75.3000;0.1538;0.0048;
75.6000;0.1555;0.0024;
75.9000;0.1506;-0.0239;
76.2000;0.1490;-0.0287;
76.5000;0.1498;-0.0263;
76.8000;0.1522;-0.0263;
77.1000;0.1498;-0.0287;
77.4000;0.1514;-0.0215;
77.7000;0.1522;-0.0167;
78.0000;0.1465;-0.0287;
78.3000;0.1506;-0.0191;
78.6000;0.1538;-0.0143;
78.9000;0.1530;-0.0215;
79.2000;0.1514;-0.0311;
79.5000;0.1522;-0.0311;
79.8000;0.1473;-0.0382;
80.1000;0.1506;-0.0358;
80.4000;0.1530;-0.0239;
80.7000;0.1530;-0.0263;
81.0000;0.1522;-0.0287;
81.3000;0.1498;-0.0287;
81.6000;0.1457;-0.0358;
81.9000;0.1481;-0.0311;
82.2000;0.1490;-0.0263;
82.5000;0.1457;-0.0358;
82.8000;0.1514;-0.0215;
83.1000;0.1481;-0.0335;
83.4000;0.1538;-0.0167;
83.7000;0.1506;-0.0239;
84.0000;0.1522;-0.0311;
84.3000;0.1530;-0.0311;
84.6000;0.1506;-0.0311;
84.9000;0.1538;-0.0215;
85.2000;0.1522;-0.0311;
85.5000;0.1579;-0.0048;
85.8000;0.1530;-0.0119;
86.1000;0.1514;-0.0143;
86.4000;0.1465;-0.0287;
86.7000;0.1530;-0.0215;
87.0000;0.1530;-0.0239;
87.3000;0.1530;-0.0191;
87.6000;0.1498;-0.0215;
87.9000;0.1530;-0.0143;
88.2000;0.1547;-0.0096;
88.5000;0.1547;-0.0048;
88.8000;0.1522;-0.0048;
89.1000;0.1538;-0.0024;
89.4000;0.1547;0.0000;
89.7000;0.1547;0.0072;
90.0000;0.1490;-0.0048;
90.3000;0.1538;0.0119;
90.6000;0.1522;0.0048;
90.9000;0.1473;0.0048;
91.2000;0.1498;0.0096;
91.5000;0.1530;0.0143;
91.8000;0.1506;0.0072;
92.1000;0.1514;0.0096;
92.4000;0.1538;0.0072;
92.7000;0.1538;0.0096;
93.0000;0.1587;0.0287;
93.3000;0.1530;0.0167;
93.6000;0.1530;0.0096;
93.9000;0.1506;-0.0024;
94.2000;0.1522;-0.0048;
94.5000;0.1506;-0.0048;
94.8000;0.1530;-0.0119;
95.1000;0.1490;-0.0167;
95.4000;0.1498;-0.0215;
95.7000;0.1522;-0.0119;
96.0000;0.1530;-0.0191;
96.3000;0.1547;-0.0143;
96.6000;0.1530;-0.0263;
96.9000;0.1506;-0.0239;
97.2000;0.1514;-0.0143;
97.5000;0.1522;0.0048;
97.8000;0.1530;0.0048;
98.1000;0.1522;0.0000;
98.4000;0.1538;-0.0024;
98.7000;0.1514;-0.0119;
99.0000;0.1514;-0.0143;
99.3000;0.1514;-0.0143;
99.6000;0.1506;-0.0072;
99.9000;0.1506;-0.0096;
100.2000;0.1457;-0.0167;
100.5000;0.1514;0.0000;
100.8000;0.1522;-0.0048;
101.1000;0.1441;-0.0287;
101.4000;0.1514;-0.0048;
101.7000;0.1514;-0.0119;
102.0000;0.1514;-0.0048;
102.3000;0.1490;-0.0048;
102.6000;0.1514;-0.0024;
102.9000;0.1530;-0.0119;
103.2000;0.1392;-0.0502;
103.5000;0.1514;-0.0096;
103.8000;0.1522;0.0024;
104.1000;0.1644;0.0311;
104.4000;0.1481;-0.0167;
104.7000;0.1506;-0.0191;
105.0000;0.1636;0.0072;
105.3000;0.1530;-0.0191;
105.6000;0.1481;-0.0215;
105.9000;0.1530;-0.0048;
106.2000;0.1522;-0.0048;
106.5000;0.1481;-0.0143;
106.8000;0.1538;0.0024;
107.1000;0.1490;-0.0167;
107.4000;0.1490;-0.0143;
107.7000;0.1506;-0.0072;
108.0000;0.1530;-0.0072;
108.3000;0.1506;-0.0143;
108.6000;0.1514;-0.0167;
108.9000;0.1555;-0.0048;
109.2000;0.1555;-0.0024;
109.5000;0.1506;-0.0072;
109.8000;0.1498;-0.0119;
110.1000;0.1530;-0.0048;
110.4000;0.1498;-0.0119;
110.7000;0.1506;-0.0072;
111.0000;0.1530;-0.0024;
111.3000;0.1514;-0.0096;
111.6000;0.1514;-0.0096;
111.9000;0.1522;-0.0119;
112.2000;0.1620;0.0096;
112.5000;0.1530;-0.0167;
112.8000;0.1514;-0.0239;
113.1000;0.1522;-0.0263;
113.4000;0.1522;-0.0287;
113.7000;0.1498;-0.0382;
114.0000;0.1522;-0.0358;
114.3000;0.1530;-0.0335;
114.6000;0.1514;-0.0454;
114.9000;0.1506;-0.0430;
115.2000;0.1514;-0.0454;
115.5000;0.1522;-0.0454;
115.8000;0.1571;-0.0263;
116.1000;0.1506;-0.0406;
116.4000;0.1514;-0.0478;
116.7000;0.1514;-0.0358;
117.0000;0.1498;-0.0406;
117.3000;0.1498;-0.0430;
117.6000;0.1522;-0.0406;
117.9000;0.1522;-0.0382;
118.2000;0.1522;-0.0406;
118.5000;0.1530;-0.0335;
118.8000;0.1522;-0.0311;
119.1000;0.1522;-0.0335;
119.4000;0.1547;-0.0311;
119.7000;0.1514;-0.0358;
120.0000;0.1514;-0.0382;
120.3000;0.1514;-0.0358;
120.6000;0.1530;-0.0335;
120.9000;0.1530;-0.0263;
121.2000;0.1506;-0.0311;
121.5000;0.1514;-0.0263;
121.8000;0.1498;-0.0358;
122.1000;0.1555;-0.0287;
122.4000;0.1498;-0.0430;
122.7000;0.1506;-0.0311;
123.0000;0.1522;-0.0119;
123.3000;0.1522;-0.0143;
123.6000;0.1530;-0.0191;
123.9000;0.1498;-0.0215;
124.2000;0.1538;-0.0191;
124.5000;0.1538;-0.0263;
124.8000;0.1522;-0.0311;
125.1000;0.1571;-0.0191;
125.4000;0.1506;-0.0311;
125.7000;0.1530;-0.0215;
126.0000;0.1481;-0.0287;
126.3000;0.1555;-0.0096;
126.6000;0.1571;-0.0048;
126.9000;0.1530;-0.0239;
127.2000;0.1530;-0.0119;
127.5000;0.1522;-0.0143;
127.8000;0.1514;-0.0239;
128.1000;0.1530;-0.0191;
128.4000;0.1522;-0.0215;
128.7000;0.1514;-0.0335;
129.0000;0.1498;-0.0382;
129.3000;0.1538;-0.0263;
129.6000;0.1514;-0.0215;
129.9000;0.1481;-0.0382;
130.2000;0.1514;-0.0358;
130.5000;0.1563;-0.0191;
130.8000;0.1538;-0.0311;
131.1000;0.1522;-0.0239;
131.4000;0.1506;-0.0263;
131.7000;0.1530;-0.0119;
132.0000;0.1522;-0.0143;
132.3000;0.1522;-0.0191;
132.6000;0.1514;-0.0215;
132.9000;0.1563;-0.0143;
133.2000;0.1522;-0.0335;
133.5000;0.1506;-0.0335;
133.8000;0.1530;-0.0335;
134.1000;0.1522;-0.0311;
134.4000;0.1498;-0.0263;
134.7000;0.1555;-0.0096;
135.0000;0.1514;-0.0167;
135.3000;0.1514;-0.0143;
135.6000;0.1522;-0.0143;
135.9000;0.1481;-0.0167;
136.2000;0.1514;-0.0096;
136.5000;0.1506;-0.0167;
136.8000;0.1514;-0.0215;
137.1000;0.1514;-0.0239;
137.4000;0.1506;-0.0191;
137.7000;0.1506;-0.0143;
138.0000;0.1644;0.0191;
138.3000;0.1473;-0.0215;
138.6000;0.1547;-0.0096;
138.9000;0.1473;-0.0335;
139.2000;0.1514;-0.0215;
139.5000;0.1522;-0.0167;
139.8000;0.1522;-0.0191;
140.1000;0.1555;-0.0143;
140.4000;0.1595;0.0024;
140.7000;0.1506;-0.0119;
141.0000;0.1563;0.0048;
141.3000;0.1490;-0.0191;
141.6000;0.1506;-0.0143;
141.9000;0.1514;-0.0191;
142.2000;0.1530;-0.0143;
142.5000;0.1522;-0.0143;
142.8000;0.1506;-0.0263;
143.1000;0.1506;-0.0191;
143.4000;0.1506;-0.0167;
143.7000;0.1522;-0.0072;
144.0000;0.1506;-0.0119;
144.3000;0.1481;-0.0239;
144.6000;0.1522;-0.0239;
144.9000;0.1473;-0.0263;
145.2000;0.1481;-0.0287;
145.5000;0.1490;-0.0335;
145.8000;0.1514;-0.0263;
146.1000;0.1555;-0.0191;
146.4000;0.1538;-0.0239;
146.7000;0.1514;-0.0215;
147.0000;0.1530;-0.0311;
147.3000;0.1514;-0.0311;
147.6000;0.1498;-0.0311;
147.9000;0.1400;-0.0502;
148.2000;0.1376;-0.0574;
148.5000;0.1579;0.0000;
148.8000;0.1473;-0.0263;
149.1000;0.1514;-0.0239;
149.4000;0.1522;-0.0191;
149.7000;0.1514;-0.0143;
150.0000;0.1530;-0.0072;
150.3000;0.1441;-0.0335;
150.6000;0.1563;-0.0096;
150.9000;0.1392;-0.0550;
151.2000;0.1506;-0.0239;
151.5000;0.1538;-0.0119;
151.8000;0.1522;-0.0143;
152.1000;0.1538;-0.0119;
152.4000;0.1498;-0.0167;
152.7000;0.1481;-0.0191;
153.0000;0.1514;-0.0215;
153.3000;0.1514;-0.0239;
153.6000;0.1498;-0.0215;
153.9000;0.1433;-0.0287;
154.2000;0.1498;-0.0191;
154.5000;0.1571;0.0024;
154.8000;0.1490;-0.0263;
155.1000;0.1522;-0.0191;
155.4000;0.1514;-0.0119;
155.7000;0.1514;-0.0024;
156.0000;0.1522;0.0000;
156.3000;0.1498;-0.0096;
156.6000;0.1514;0.0024;
156.9000;0.1514;0.0000;
157.2000;0.1522;0.0048;
157.5000;0.1522;0.0096;
157.8000;0.1547;0.0119;
158.1000;0.1555;0.0143;
158.4000;0.1514;-0.0024;
158.7000;0.1481;-0.0143;
159.0000;0.1465;-0.0096;
159.3000;0.1514;0.0096;
159.6000;0.1498;0.0000;
159.9000;0.1449;-0.0191;
160.2000;0.1465;-0.0167;
160.5000;0.1514;0.0000;
160.8000;0.1506;0.0072;
161.1000;0.1644;0.0311;
161.4000;0.1473;-0.0191;
161.7000;0.1514;0.0048;
162.0000;0.1579;0.0191;
162.3000;0.1457;-0.0167;
162.6000;0.1490;-0.0096;
162.9000;0.1538;0.0048;
163.2000;0.1522;0.0072;
163.5000;0.1514;0.0000;
163.8000;0.1604;0.0263;
164.1000;0.1506;0.0024;
164.4000;0.1530;0.0000;
164.7000;0.1457;-0.0143;
165.0000;0.1506;-0.0072;
165.3000;0.1498;-0.0072;
165.6000;0.1538;0.0024;
165.9000;0.1514;-0.0096;
166.2000;0.1490;-0.0143;
166.5000;0.1490;-0.0048;
166.8000;0.1530;0.0072;
167.1000;0.1522;0.0048;
167.4000;0.1506;0.0096;
167.7000;0.1490;0.0119;
168.0000;0.1530;0.0143;
168.3000;0.1490;0.0048;
168.6000;0.1490;0.0072;
168.9000;0.1498;0.0096;
169.2000;0.1473;-0.0024;
169.5000;0.1514;0.0024;
169.8000;0.1506;-0.0048;
170.1000;0.1481;-0.0119;
170.4000;0.1498;-0.0096;
170.7000;0.1506;-0.0096;
171.0000;0.1506;-0.0096;
171.3000;0.1506;-0.0096;
171.6000;0.1473;-0.0191;
171.9000;0.1506;-0.0072;
172.2000;0.1514;-0.0024;
172.5000;0.1538;0.0048;
172.8000;0.1506;0.0048;
173.1000;0.1490;0.0000;
173.4000;0.1514;0.0072;
173.7000;0.1522;0.0096;
174.0000;0.1530;0.0072;
174.3000;0.1514;-0.0024;
174.6000;0.1498;-0.0072;
174.9000;0.1522;0.0072;
175.2000;0.1506;-0.0072;
175.5000;0.1522;-0.0048;
175.8000;0.1514;-0.0024;
176.1000;0.1498;-0.0072;
176.4000;0.1571;0.0167;
176.7000;0.1506;0.0048;
177.0000;0.1530;0.0096;
177.3000;0.1530;0.0048;
177.6000;0.1538;0.0167;
177.9000;0.1473;-0.0072;
178.2000;0.1522;-0.0024;
178.5000;0.1530;-0.0048;
178.8000;0.1506;-0.0143;
179.1000;0.1514;-0.0287;
179.4000;0.1530;-0.0239;
179.7000;0.1498;-0.0335;
180.0000;0.1522;-0.0311;
180.3000;0.1498;-0.0239;
180.6000;0.1498;-0.0239;
180.9000;0.1514;-0.0143;
181.2000;0.1425;-0.0311;
181.5000;0.1522;-0.0119;
181.8000;0.1498;-0.0143;
182.1000;0.1490;-0.0167;
182.4000;0.1514;-0.0191;
182.7000;0.1514;-0.0119;
183.0000;0.1538;-0.0096;
183.3000;0.1522;-0.0072;
183.6000;0.1522;-0.0072;
183.9000;0.1514;-0.0096;
184.2000;0.1522;-0.0072;
184.5000;0.1514;-0.0096;
184.8000;0.1514;-0.0191;
185.1000;0.1441;-0.0430;
185.4000;0.1530;-0.0191;
185.7000;0.1473;-0.0263;
186.0000;0.1498;-0.0263;
186.3000;0.1522;-0.0287;
186.6000;0.1498;-0.0358;
186.9000;0.1490;-0.0406;
187.2000;0.1514;-0.0287;
187.5000;0.1506;-0.0215;
187.8000;0.1506;-0.0167;
188.1000;0.1538;-0.0072;
188.4000;0.1522;-0.0119;
188.7000;0.1547;-0.0072;
189.0000;0.1547;-0.0119;
189.3000;0.1522;-0.0143;
189.6000;0.1514;-0.0239;
189.9000;0.1506;-0.0263;
190.2000;0.1522;-0.0215;
190.5000;0.1514;-0.0215;
190.8000;0.1514;-0.0143;
191.1000;0.1506;-0.0143;
191.4000;0.1522;-0.0143;
191.7000;0.1538;-0.0167;
192.0000;0.1579;-0.0072;
192.3000;0.1514;-0.0119;
192.6000;0.1530;-0.0072;
192.9000;0.1506;-0.0119;
193.2000;0.1481;-0.0215;
193.5000;0.1555;-0.0048;
193.8000;0.1522;-0.0143;
194.1000;0.1530;-0.0119;
194.4000;0.1522;-0.0119;
194.7000;0.1498;-0.0167;
195.0000;0.1530;-0.0024;
195.3000;0.1522;-0.0096;
195.6000;0.1514;-0.0143;
195.9000;0.1522;-0.0072;
196.2000;0.1522;-0.0024;
196.5000;0.1547;-0.0024;
196.8000;0.1481;-0.0119;
197.1000;0.1530;0.0024;
197.4000;0.1473;-0.0191;
197.7000;0.1506;-0.0048;
198.0000;0.1563;0.0048;
198.3000;0.1522;-0.0096;
198.6000;0.1522;-0.0072;
198.9000;0.1530;-0.0048;
199.2000;0.1530;0.0000;
199.5000;0.1506;-0.0072;
199.8000;0.1514;0.0000;
200.1000;0.1506;0.0024;
200.4000;0.1571;0.0167;
200.7000;0.1547;0.0119;
201.0000;0.1522;0.0048;
201.3000;0.1473;-0.0096;
201.6000;0.1465;-0.0167;
201.9000;0.1530;0.0048;
202.2000;0.1490;-0.0048;
202.5000;0.1481;-0.0119;
202.8000;0.1498;-0.0119;
203.1000;0.1490;-0.0096;
203.4000;0.1620;0.0215;
203.7000;0.1522;-0.0048;
204.0000;0.1514;-0.0024;
204.3000;0.1514;0.0000;
204.6000;0.1530;0.0072;
204.9000;0.1498;-0.0024;
205.2000;0.1530;-0.0024;
205.5000;0.1514;-0.0048;
205.8000;0.1522;-0.0119;
206.1000;0.1481;-0.0215;
206.4000;0.1506;-0.0167;
206.7000;0.1514;-0.0119;
207.0000;0.1514;-0.0072;
207.3000;0.1538;-0.0048;
207.6000;0.1522;-0.0048;
207.9000;0.1555;0.0048;
208.2000;0.1498;-0.0072;
208.5000;0.1538;0.0024;
208.8000;0.1425;-0.0263;
209.1000;0.1514;-0.0024;
209.4000;0.1498;-0.0072;
209.7000;0.1530;0.0024;
210.0000;0.1530;-0.0024;
210.3000;0.1506;-0.0048;
210.6000;0.1498;0.0000;
210.9000;0.1522;0.0000;
211.2000;0.1522;0.0072;
211.5000;0.1498;0.0096;
211.8000;0.1563;0.0287;
212.1000;0.1522;0.0143;
212.4000;0.1498;0.0048;
212.7000;0.1481;0.0024;
213.0000;0.1498;0.0048;
213.3000;0.1530;0.0215;
213.6000;0.1506;0.0096;
213.9000;0.1514;0.0096;
214.2000;0.1506;-0.0024;
214.5000;0.1498;-0.0072;
214.8000;0.1522;-0.0096;
215.1000;0.1514;-0.0119;
215.4000;0.1514;-0.0096;
215.7000;0.1514;-0.0096;
216.0000;0.1547;0.0096;
216.3000;0.1555;0.0167;
216.6000;0.1530;0.0119;
216.9000;0.1530;0.0096;
217.2000;0.1506;0.0000;
217.5000;0.1514;0.0024;
217.8000;0.1514;0.0024;
218.1000;0.1498;-0.0024;
218.4000;0.1506;0.0048;
218.7000;0.1522;0.0119;
219.0000;0.1473;0.0000;
219.3000;0.1498;0.0048;
219.6000;0.1506;0.0048;
219.9000;0.1522;0.0048;
220.2000;0.1522;0.0119;
220.5000;0.1522;0.0167;
220.8000;0.1490;0.0119;
221.1000;0.1514;0.0167;
221.4000;0.1522;0.0119;
221.7000;0.1433;-0.0143;
222.0000;0.1530;-0.0072;
222.3000;0.1514;-0.0143;
222.6000;0.1490;-0.0191;
222.9000;0.1465;-0.0287;
223.2000;0.1514;-0.0263;
223.5000;0.1498;-0.0382;
223.8000;0.1522;-0.0215;
224.1000;0.1506;-0.0239;
224.4000;0.1506;-0.0215;
224.7000;0.1506;-0.0191;
225.0000;0.1506;-0.0143;
225.3000;0.1530;-0.0072;
225.6000;0.1514;-0.0119;
225.9000;0.1579;0.0024;
226.2000;0.1514;-0.0191;
226.5000;0.1498;-0.0167;
226.8000;0.1522;-0.0119;
227.1000;0.1506;0.0024;
227.4000;0.1522;0.0072;
227.7000;0.1514;0.0119;
228.0000;0.1514;0.0048;
228.3000;0.1579;0.0287;
228.6000;0.1506;0.0024;
228.9000;0.1538;0.0072;
229.2000;0.1506;0.0024;
229.5000;0.1506;-0.0024;
229.8000;0.1522;-0.0096;
230.1000;0.1506;-0.0143;
230.4000;0.1473;-0.0239;
230.7000;0.1490;-0.0096;
231.0000;0.1498;-0.0143;
231.3000;0.1547;-0.0048;
231.6000;0.1530;-0.0048;
231.9000;0.1522;0.0000;
232.2000;0.1530;0.0048;
232.5000;0.1498;-0.0048;
232.8000;0.1506;-0.0048;
233.1000;0.1530;0.0024;
233.4000;0.1506;-0.0024;
233.7000;0.1522;0.0096;
234.0000;0.1514;0.0024;
234.3000;0.1538;0.0072;
234.6000;0.1506;0.0048;
234.9000;0.1579;0.0239;
235.2000;0.1514;0.0000;
235.5000;0.1522;-0.0096;
235.8000;0.1506;-0.0167;
236.1000;0.1481;-0.0311;
236.4000;0.1522;-0.0239;
236.7000;0.1522;-0.0191;
237.0000;0.1522;-0.0143;
237.3000;0.1530;-0.0096;
237.6000;0.1498;-0.0048;
237.9000;0.1522;0.0048;
238.2000;0.1506;0.0000;
238.5000;0.1490;-0.0143;
238.8000;0.1506;-0.0119;
239.1000;0.1514;-0.0072;
239.4000;0.1506;-0.0143;
239.7000;0.1498;-0.0239;
240.0000;0.1522;-0.0143;
240.3000;0.1506;-0.0143;
240.6000;0.1506;-0.0096;
240.9000;0.1506;-0.0119;
241.2000;0.1514;-0.0119;
241.5000;0.1498;-0.0096;
241.8000;0.1514;-0.0096;
242.1000;0.1530;0.0000;
242.4000;0.1530;0.0024;
242.7000;0.1449;-0.0167;
243.0000;0.1514;-0.0048;
243.3000;0.1490;-0.0143;
243.6000;0.1563;0.0024;
243.9000;0.1490;-0.0143;
244.2000;0.1522;-0.0143;
244.5000;0.1547;-0.0072;
244.8000;0.1514;-0.0143;
245.1000;0.1498;-0.0191;
245.4000;0.1514;-0.0096;
245.7000;0.1514;-0.0096;
246.0000;0.1481;-0.0215;
246.3000;0.1522;-0.0072;
246.6000;0.1506;0.0000;
246.9000;0.1530;0.0167;
247.2000;0.1595;0.0287;
247.5000;0.1644;0.0406;
247.8000;0.1522;0.0072;
248.1000;0.1522;0.0096;
248.4000;0.1563;0.0072;
248.7000;0.1506;-0.0143;
249.0000;0.1506;-0.0263;
249.3000;0.1514;-0.0191;
249.6000;0.1514;-0.0119;
249.9000;0.1473;-0.0191;
250.2000;0.1425;-0.0382;
250.5000;0.1490;-0.0215;
250.8000;0.1506;-0.0143;
251.1000;0.1547;-0.0024;
251.4000;0.1481;-0.0143;
251.7000;0.1514;-0.0072;
252.0000;0.1555;0.0048;
252.3000;0.1498;-0.0072;
252.6000;0.1522;-0.0072;
252.9000;0.1522;0.0024;
253.2000;0.1538;0.0024;
253.5000;0.1514;0.0072;
253.8000;0.1514;0.0119;
254.1000;0.1522;0.0119;
254.4000;0.1514;0.0096;
254.7000;0.1481;0.0024;
255.0000;0.1530;0.0167;
255.3000;0.1514;0.0167;
255.6000;0.1506;0.0096;
255.9000;0.1555;0.0263;
256.2000;0.1530;0.0143;
256.5000;0.1506;0.0048;
256.8000;0.1490;-0.0072;
257.1000;0.1538;0.0000;
257.4000;0.1555;-0.0048;
257.7000;0.1506;-0.0167;
258.0000;0.1522;-0.0167;
258.3000;0.1490;-0.0191;
258.6000;0.1530;-0.0191;
258.9000;0.1514;-0.0215;
259.2000;0.1506;-0.0239;
259.5000;0.1506;-0.0191;
259.8000;0.1530;-0.0191;
260.1000;0.1481;-0.0239;
260.4000;0.1530;-0.0191;
260.7000;0.1490;-0.0215;
261.0000;0.1514;-0.0191;
261.3000;0.1538;-0.0119;
261.6000;0.1522;-0.0215;
261.9000;0.1481;-0.0215;
262.2000;0.1522;-0.0072;
262.5000;0.1538;-0.0024;
262.8000;0.1514;-0.0072;
263.1000;0.1547;-0.0048;
263.4000;0.1514;-0.0096;
263.7000;0.1530;-0.0191;
264.0000;0.1555;-0.0048;
264.3000;0.1522;-0.0024;
264.6000;0.1490;-0.0096;
264.9000;0.1506;-0.0072;
265.2000;0.1530;-0.0048;
265.5000;0.1563;0.0024;
265.8000;0.1530;-0.0072;
266.1000;0.1522;-0.0024;
266.4000;0.1522;-0.0024;
266.7000;0.1547;0.0024;
267.0000;0.1498;-0.0215;
267.3000;0.1514;-0.0191;
267.6000;0.1498;-0.0215;
267.9000;0.1530;-0.0191;
268.2000;0.1498;-0.0191;
268.5000;0.1506;-0.0143;
268.8000;0.1449;-0.0311;
269.1000;0.1490;-0.0167;
269.4000;0.1506;-0.0239;
269.7000;0.1522;-0.0215;
270.0000;0.1538;-0.0119;
270.3000;0.1514;-0.0119;
270.6000;0.1530;0.0072;
270.9000;0.1498;0.0000;
271.2000;0.1530;-0.0024;
271.5000;0.1538;-0.0048;
271.8000;0.1595;0.0096;
272.1000;0.1457;-0.0287;
272.4000;0.1538;0.0024;
272.7000;0.1514;-0.0048;
273.0000;0.1530;0.0048;
273.3000;0.1481;-0.0096;
273.6000;0.1514;-0.0072;
273.9000;0.1514;0.0000;
274.2000;0.1506;0.0024;
274.5000;0.1498;0.0072;
274.8000;0.1514;0.0024;
275.1000;0.1506;-0.0143;
275.4000;0.1522;-0.0239;
275.7000;0.1522;-0.0263;
276.0000;0.1514;-0.0215;
276.3000;0.1530;-0.0167;
276.6000;0.1522;-0.0215;
276.9000;0.1563;-0.0048;
277.2000;0.1514;-0.0119;
277.5000;0.1481;-0.0119;
277.8000;0.1530;-0.0024;
278.1000;0.1498;0.0000;
278.4000;0.1506;-0.0072;
278.7000;0.1490;-0.0143;
279.0000;0.1514;-0.0072;
279.3000;0.1514;-0.0143;
279.6000;0.1506;-0.0143;
279.9000;0.1514;-0.0215;
280.2000;0.1530;-0.0143;
280.5000;0.1530;-0.0119;
280.8000;0.1465;-0.0263;
281.1000;0.1506;-0.0119;
281.4000;0.1498;-0.0119;
281.7000;0.1571;0.0024;
282.0000;0.1547;-0.0072;
282.3000;0.1473;-0.0215;
282.6000;0.1506;-0.0191;
282.9000;0.1506;-0.0263;
283.2000;0.1498;-0.0239;
283.5000;0.1473;-0.0239;
283.8000;0.1498;-0.0215;
284.1000;0.1506;-0.0143;
284.4000;0.1571;0.0096;
284.7000;0.1522;0.0048;
285.0000;0.1498;-0.0072;
285.3000;0.1465;-0.0167;
285.6000;0.1522;-0.0048;
285.9000;0.1498;-0.0024;
286.2000;0.1514;0.0048;
286.5000;0.1490;0.0048;
286.8000;0.1498;0.0119;
287.1000;0.1498;0.0072;
287.4000;0.1498;0.0072;
287.7000;0.1490;0.0096;
288.0000;0.1490;0.0143;
288.3000;0.1490;0.0072;
288.6000;0.1514;0.0143;
288.9000;0.1506;0.0072;
289.2000;0.1506;0.0072;
289.5000;0.1514;0.0215;
289.8000;0.1514;0.0239;
290.1000;0.1530;0.0335;
290.4000;0.1506;0.0215;
290.7000;0.1514;0.0215;
291.0000;0.1563;0.0311;
291.3000;0.1498;0.0239;
291.6000;0.1514;0.0215;
291.9000;0.1522;0.0263;
292.2000;0.1530;0.0239;
292.5000;0.1547;0.0263;
292.8000;0.1514;0.0215;
293.1000;0.1555;0.0335;
293.4000;0.1530;0.0263;
293.7000;0.1481;0.0191;
294.0000;0.1628;0.0621;
294.3000;0.1498;0.0287;
294.6000;0.1481;0.0167;
294.9000;0.1465;0.0119;
295.2000;0.1490;0.0191;
295.5000;0.1490;0.0167;
295.8000;0.1522;0.0167;
296.1000;0.1465;0.0072;
296.4000;0.1408;-0.0072;
296.7000;0.1498;0.0167;
297.0000;0.1587;0.0335;
297.3000;0.1530;0.0263;
297.6000;0.1522;0.0239;
297.9000;0.1498;0.0215;
298.2000;0.1538;0.0358;
298.5000;0.1481;0.0335;
298.8000;0.1514;0.0358;
299.1000;0.1514;0.0358;
299.4000;0.1538;0.0358;
299.7000;0.1498;0.0263;
300.0000;0.1522;0.0311;
300.3000;0.1506;0.0287;
300.6000;0.1506;0.0239;
300.9000;0.1473;0.0167;
301.2000;0.1490;0.0167;
301.5000;0.1522;0.0215;
301.8000;0.1473;0.0048;
302.1000;0.1498;0.0143;
302.4000;0.1538;0.0263;
302.7000;0.1522;0.0287;
303.0000;0.1530;0.0335;
303.3000;0.1506;0.0287;
303.6000;0.1555;0.0358;
303.9000;0.1433;0.0143;
304.2000;0.1514;0.0406;
304.5000;0.1530;0.0406;
304.8000;0.1522;0.0478;
305.1000;0.1449;0.0263;
305.4000;0.1530;0.0478;
305.7000;0.1498;0.0382;
306.0000;0.1506;0.0406;
306.3000;0.1506;0.0454;
306.6000;0.1530;0.0454;
306.9000;0.1530;0.0430;
307.2000;0.1522;0.0430;
307.5000;0.1522;0.0382;
307.8000;0.1522;0.0311;
308.1000;0.1514;0.0287;
308.4000;0.1514;0.0335;
308.7000;0.1530;0.0287;
309.0000;0.1506;0.0096;
309.3000;0.1514;0.0096;
309.6000;0.1506;0.0143;
309.9000;0.1514;0.0119;
310.2000;0.1514;0.0143;
310.5000;0.1457;0.0000;
310.8000;0.1498;0.0048;
311.1000;0.1506;0.0024;
311.4000;0.1425;-0.0143;
311.7000;0.1530;0.0143;
312.0000;0.1538;0.0096;
312.3000;0.1506;-0.0024;
312.6000;0.1514;0.0048;
312.9000;0.1522;0.0024;
313.2000;0.1522;0.0072;
313.5000;0.1506;0.0096;
313.8000;0.1490;0.0096;
314.1000;0.1522;0.0239;
314.4000;0.1514;0.0239;
314.7000;0.1514;0.0167;
315.0000;0.1612;0.0430;
315.3000;0.1547;0.0239;
315.6000;0.1514;0.0215;
315.9000;0.1522;0.0096;
316.2000;0.1490;0.0024;
316.5000;0.1506;0.0072;
316.8000;0.1473;0.0048;
317.1000;0.1595;0.0406;
317.4000;0.1506;0.0119;
317.7000;0.1506;0.0096;
318.0000;0.1457;0.0024;
318.3000;0.1563;0.0215;
318.6000;0.1547;0.0119;
318.9000;0.1514;0.0024;
319.2000;0.1514;0.0048;
319.5000;0.1514;0.0072;
319.8000;0.1522;0.0072;
320.1000;0.1530;0.0143;
320.4000;0.1473;0.0048;
320.7000;0.1522;0.0072;
321.0000;0.1481;-0.0048;
321.3000;0.1514;0.0048;
321.6000;0.1587;0.0335;
321.9000;0.1522;0.0024;
322.2000;0.1506;-0.0024;
322.5000;0.1522;0.0048;
322.8000;0.1506;-0.0072;
323.1000;0.1490;-0.0096;
323.4000;0.1490;-0.0024;
323.7000;0.1506;-0.0024;
324.0000;0.1498;0.0000;
324.3000;0.1506;0.0024;
324.6000;0.1514;0.0024;
324.9000;0.1506;0.0048;
325.2000;0.1506;0.0048;
325.5000;0.1514;0.0096;
325.8000;0.1636;0.0454;
326.1000;0.1514;0.0143;
326.4000;0.1522;0.0143;
326.7000;0.1473;0.0048;
327.0000;0.1498;0.0048;
327.3000;0.1530;0.0072;
327.6000;0.1498;0.0000;
327.9000;0.1522;0.0072;
328.2000;0.1514;0.0119;
328.5000;0.1514;0.0096;
328.8000;0.1498;0.0143;
329.1000;0.1604;0.0430;
329.4000;0.1506;0.0167;
329.7000;0.1514;0.0191;
330.0000;0.1506;0.0215;
330.3000;0.1514;0.0311;
330.6000;0.1530;0.0335;
330.9000;0.1481;0.0119;
331.2000;0.1514;0.0167;
331.5000;0.1547;0.0143;
331.8000;0.1473;-0.0048;
332.1000;0.1498;0.0096;
332.4000;0.1514;0.0215;
332.7000;0.1506;0.0143;
333.0000;0.1538;0.0239;
333.3000;0.1506;0.0119;
333.6000;0.1538;0.0143;
333.9000;0.1498;0.0072;
334.2000;0.1530;0.0143;
334.5000;0.1425;-0.0167;
334.8000;0.1547;0.0048;
335.1000;0.1538;-0.0048;
335.4000;0.1522;0.0000;
335.7000;0.1514;-0.0143;
336.0000;0.1506;-0.0048;
336.3000;0.1571;0.0167;
336.6000;0.1506;0.0072;
336.9000;0.1498;-0.0024;
337.2000;0.1538;0.0072;
337.5000;0.1408;-0.0215;
337.8000;0.1514;-0.0048;
338.1000;0.1481;-0.0096;
338.4000;0.1498;-0.0072;
338.7000;0.1530;-0.0096;
339.0000;0.1547;-0.0024;
339.3000;0.1538;-0.0096;
339.6000;0.1514;-0.0167;
339.9000;0.1514;-0.0119;
340.2000;0.1628;0.0239;
340.5000;0.1498;-0.0048;
340.8000;0.1530;-0.0024;
341.1000;0.1506;-0.0024;
341.4000;0.1514;0.0000;
341.7000;0.1498;0.0072;
342.0000;0.1514;0.0048;
342.3000;0.1498;0.0048;
342.6000;0.1530;-0.0072;
342.9000;0.1514;-0.0024;
343.2000;0.1498;-0.0143;
343.5000;0.1498;-0.0048;
343.8000;0.1514;0.0000;
344.1000;0.1506;0.0024;
344.4000;0.1522;0.0096;
344.7000;0.1514;0.0024;
345.0000;0.1506;-0.0072;
345.3000;0.1530;-0.0024;
345.6000;0.1514;-0.0048;
345.9000;0.1498;-0.0072;
346.2000;0.1579;0.0167;
346.5000;0.1490;-0.0096;
346.8000;0.1514;0.0000;
347.1000;0.1433;-0.0191;
347.4000;0.1522;0.0072;
347.7000;0.1514;0.0096;
348.0000;0.1530;0.0024;
348.3000;0.1514;-0.0024;
348.6000;0.1522;0.0024;
348.9000;0.1538;0.0072;
349.2000;0.1498;0.0096;
349.5000;0.1506;0.0096;
349.8000;0.1514;0.0167;
350.1000;0.1522;0.0143;
350.4000;0.1522;0.0143;
350.7000;0.1506;0.0143;
351.0000;0.1530;0.0167;
351.3000;0.1498;0.0072;
351.6000;0.1547;0.0096;
351.9000;0.1522;0.0000;
352.2000;0.1522;-0.0048;
352.5000;0.1530;0.0024;
352.8000;0.1506;0.0000;
353.1000;0.1604;0.0311;
353.4000;0.1506;0.0048;
353.7000;0.1522;0.0048;
354.0000;0.1498;-0.0048;
354.3000;0.1522;0.0024;
354.6000;0.1514;0.0024;
354.9000;0.1538;0.0072;
355.2000;0.1481;-0.0096;
355.5000;0.1522;0.0000;
355.8000;0.1530;0.0000;
356.1000;0.1498;-0.0072;
356.4000;0.1530;0.0024;
356.7000;0.1522;0.0048;
357.0000;0.1514;0.0024;
357.3000;0.1547;0.0072;
357.6000;0.1522;0.0072;
357.9000;0.1538;0.0119;
358.2000;0.1547;0.0096;
358.5000;0.1685;0.0478;
358.8000;0.1522;0.0048;
359.1000;0.1498;0.0024;
359.4000;0.1547;0.0215;
359.7000;0.1408;-0.0263;
360.0000;0.1506;0.0072;
360.3000;0.1490;-0.0024;
360.6000;0.1376;-0.0239;
360.9000;0.1522;0.0024;
361.2000;0.1522;0.0048;
361.5000;0.1514;-0.0024;
361.8000;0.1498;-0.0024;
362.1000;0.1473;-0.0096;
362.4000;0.1473;-0.0167;
362.7000;0.1530;0.0000;
363.0000;0.1587;0.0096;
363.3000;0.1514;-0.0119;
363.6000;0.1514;-0.0167;
363.9000;0.1563;-0.0215;
364.2000;0.1522;-0.0191;
364.5000;0.1506;-0.0096;
364.8000;0.1506;0.0000;
365.1000;0.1506;0.0000;
365.4000;0.1522;0.0024;
365.7000;0.1506;0.0024;
366.0000;0.1490;-0.0143;
366.3000;0.1506;-0.0072;
366.6000;0.1522;-0.0048;
366.9000;0.1481;-0.0143;
367.2000;0.1538;0.0048;
367.5000;0.1506;-0.0072;
367.8000;0.1506;-0.0096;
368.1000;0.1498;-0.0072;
368.4000;0.1506;0.0024;
368.7000;0.1514;0.0000;
369.0000;0.1514;0.0024;
369.3000;0.1514;0.0048;
369.6000;0.1498;0.0072;
369.9000;0.1506;0.0048;
370.2000;0.1481;-0.0072;
370.5000;0.1498;-0.0119;
370.8000;0.1506;-0.0143;
371.1000;0.1522;-0.0119;
371.4000;0.1514;-0.0119;
371.7000;0.1506;-0.0143;
372.0000;0.1490;-0.0191;
372.3000;0.1530;-0.0096;
372.6000;0.1506;-0.0167;
372.9000;0.1595;0.0024;
373.2000;0.1530;-0.0215;
373.5000;0.1498;-0.0191;
373.8000;0.1522;-0.0167;
374.1000;0.1522;-0.0119;
374.4000;0.1506;-0.0239;
374.7000;0.1473;-0.0335;
375.0000;0.1490;-0.0263;
375.3000;0.1522;-0.0119;
375.6000;0.1522;-0.0119;
375.9000;0.1538;-0.0072;
376.2000;0.1587;0.0024;
376.5000;0.1522;-0.0072;
376.8000;0.1522;0.0000;
377.1000;0.1441;-0.0143;
377.4000;0.1498;-0.0024;
377.7000;0.1514;0.0048;
378.0000;0.1530;0.0096;
378.3000;0.1498;0.0024;
378.6000;0.1506;0.0048;
378.9000;0.1547;0.0167;
379.2000;0.1514;0.0119;
379.5000;0.1522;0.0191;
379.8000;0.1522;0.0239;
380.1000;0.1522;0.0263;
380.4000;0.1522;0.0287;
380.7000;0.1506;0.0191;
381.0000;0.1498;0.0167;
381.3000;0.1498;0.0000;
381.6000;0.1506;0.0143;
381.9000;0.1538;0.0191;
382.2000;0.1506;0.0143;
382.5000;0.1579;0.0215;
382.8000;0.1555;0.0143;
383.1000;0.1514;0.0024;
383.4000;0.1522;0.0048;
383.7000;0.1490;0.0000;
384.0000;0.1579;0.0191;
384.3000;0.1587;0.0119;
384.6000;0.1530;-0.0072;
384.9000;0.1563;0.0024;
385.2000;0.1530;-0.0048;
385.5000;0.1506;-0.0024;
385.8000;0.1506;-0.0048;
386.1000;0.1490;0.0024;
386.4000;0.1530;0.0143;
386.7000;0.1522;-0.0072;
387.0000;0.1376;-0.0502;
387.3000;0.1514;-0.0024;
387.6000;0.1481;0.0000;
387.9000;0.1604;0.0430;
388.2000;0.1498;0.0119;
388.5000;0.1530;0.0263;
388.8000;0.1538;0.0311;
389.1000;0.1514;0.0239;
389.4000;0.1579;0.0406;
389.7000;0.1522;0.0287;
390.0000;0.1392;0.0024;
390.3000;0.1522;0.0311;
390.6000;0.1522;0.0335;
390.9000;0.1579;0.0478;
391.2000;0.1563;0.0358;
391.5000;0.1547;0.0311;
391.8000;0.1522;0.0311;
392.1000;0.1506;0.0263;
392.4000;0.1514;0.0287;
392.7000;0.1481;0.0263;
393.0000;0.1481;0.0215;
393.3000;0.1465;0.0000;
393.6000;0.1506;0.0096;
393.9000;0.1538;0.0119;
394.2000;0.1514;0.0048;
394.5000;0.1490;-0.0072;
394.8000;0.1490;-0.0048;
395.1000;0.1506;0.0000;
395.4000;0.1522;-0.0024;
395.7000;0.1522;-0.0048;
396.0000;0.1498;-0.0096;
396.3000;0.1506;-0.0096;
396.6000;0.1506;0.0024;
396.9000;0.1514;0.0048;
397.2000;0.1498;-0.0048;
397.5000;0.1473;-0.0072;
397.8000;0.1481;-0.0024;
398.1000;0.1514;0.0072;
398.4000;0.1498;0.0000;
398.7000;0.1530;0.0096;
399.0000;0.1506;-0.0048;
399.3000;0.1522;0.0024;
399.6000;0.1481;-0.0072;
399.9000;0.1579;0.0191;
400.2000;0.1538;0.0096;
400.5000;0.1514;-0.0024;
400.8000;0.1514;-0.0048;
401.1000;0.1522;-0.0024;
401.4000;0.1514;0.0024;
401.7000;0.1490;-0.0072;
402.0000;0.1522;-0.0096;
402.3000;0.1498;-0.0096;
402.6000;0.1498;-0.0024;
402.9000;0.1481;-0.0024;
403.2000;0.1514;0.0024;
403.5000;0.1555;0.0143;
403.8000;0.1506;0.0048;
404.1000;0.1514;0.0048;
404.4000;0.1506;0.0119;
404.7000;0.1514;0.0072;
405.0000;0.1498;0.0024;
405.3000;0.1522;0.0072;
405.6000;0.1514;0.0048;
405.9000;0.1547;0.0024;
406.2000;0.1530;0.0000;
406.5000;0.1522;-0.0048;
406.8000;0.1538;-0.0096;
407.1000;0.1522;-0.0096;
407.4000;0.1408;-0.0382;
407.7000;0.1514;-0.0048;
408.0000;0.1506;-0.0096;
408.3000;0.1522;-0.0096;
408.6000;0.1498;-0.0143;
408.9000;0.1555;0.0024;
409.2000;0.1392;-0.0287;
409.5000;0.1490;-0.0048;
409.8000;0.1563;0.0239;
410.1000;0.1538;0.0191;
410.4000;0.1571;0.0263;
410.7000;0.1530;0.0000;
411.0000;0.1587;0.0143;
411.3000;0.1506;-0.0167;
411.6000;0.1547;-0.0143;
411.9000;0.1514;-0.0215;
412.2000;0.1506;-0.0263;
412.5000;0.1506;-0.0287;
412.8000;0.1506;-0.0311;
413.1000;0.1498;-0.0382;
413.4000;0.1473;-0.0550;
413.7000;0.1490;-0.0430;
414.0000;0.1490;-0.0454;
414.3000;0.1506;-0.0406;
414.6000;0.1514;-0.0263;
414.9000;0.1530;-0.0143;
415.2000;0.1530;-0.0239;
415.5000;0.1530;-0.0167;
415.8000;0.1506;-0.0167;
416.1000;0.1490;-0.0191;
416.4000;0.1530;-0.0143;
416.7000;0.1514;-0.0215;
417.0000;0.1498;-0.0215;
417.3000;0.1514;-0.0143;
417.6000;0.1506;-0.0096;
417.9000;0.1506;-0.0024;
418.2000;0.1506;-0.0072;
418.5000;0.1514;-0.0119;
418.8000;0.1514;-0.0191;
419.1000;0.1506;-0.0072;
419.4000;0.1514;-0.0024;
419.7000;0.1579;0.0167;
420.0000;0.1506;-0.0024;
420.3000;0.1498;0.0048;
420.6000;0.1538;0.0167;
420.9000;0.1506;0.0072;
421.2000;0.1522;0.0143;
421.5000;0.1547;0.0167;
421.8000;0.1571;0.0119;
422.1000;0.1547;-0.0024;
422.4000;0.1522;0.0000;
422.7000;0.1571;0.0072;
423.0000;0.1514;-0.0024;
423.3000;0.1481;-0.0119;
423.6000;0.1506;-0.0143;
423.9000;0.1481;-0.0311;
424.2000;0.1547;-0.0096;
424.5000;0.1530;-0.0072;
424.8000;0.1530;-0.0024;
425.1000;0.1522;-0.0024;
425.4000;0.1498;-0.0096;
425.7000;0.1514;-0.0072;
426.0000;0.1522;-0.0072;
426.3000;0.1449;-0.0287;
426.6000;0.1506;-0.0167;
426.9000;0.1506;-0.0096;
427.2000;0.1522;0.0000;
427.5000;0.1498;0.0024;
427.8000;0.1530;0.0024;
428.1000;0.1498;-0.0048;
428.4000;0.1473;-0.0191;
428.7000;0.1522;-0.0024;
429.0000;0.1514;0.0000;
429.3000;0.1506;-0.0024;
429.6000;0.1498;0.0000;
429.9000;0.1514;0.0000;
430.2000;0.1506;0.0000;
430.5000;0.1530;0.0096;
430.8000;0.1498;0.0000;
431.1000;0.1506;0.0072;
431.4000;0.1498;0.0000;
431.7000;0.1538;0.0096;
432.0000;0.1506;-0.0048;
432.3000;0.1506;-0.0167;
432.6000;0.1538;-0.0048;
432.9000;0.1384;-0.0382;
433.2000;0.1563;0.0143;
433.5000;0.1522;0.0024;
433.8000;0.1547;0.0072;
434.1000;0.1514;-0.0024;
434.4000;0.1571;0.0143;
434.7000;0.1498;-0.0072;
435.0000;0.1506;0.0000;
435.3000;0.1514;0.0048;
435.6000;0.1514;0.0000;
435.9000;0.1490;-0.0024;
436.2000;0.1514;0.0024;
436.5000;0.1547;0.0191;
436.8000;0.1530;0.0096;
437.1000;0.1514;0.0096;
437.4000;0.1449;0.0000;
437.7000;0.1506;0.0167;
438.0000;0.1530;0.0215;
438.3000;0.1514;0.0191;
438.6000;0.1514;0.0143;
438.9000;0.1506;0.0072;
439.2000;0.1522;0.0119;
439.5000;0.1522;0.0048;
439.8000;0.1506;0.0024;
440.1000;0.1514;0.0048;
440.4000;0.1473;-0.0096;
440.7000;0.1490;-0.0072;
441.0000;0.1465;-0.0143;
441.3000;0.1490;-0.0072;
441.6000;0.1522;0.0000;
441.9000;0.1506;-0.0072;
442.2000;0.1514;-0.0096;
442.5000;0.1530;-0.0096;
442.8000;0.1522;-0.0072;
443.1000;0.1506;-0.0024;
443.4000;0.1506;-0.0096;
443.7000;0.1506;-0.0072;
444.0000;0.1457;-0.0239;
444.3000;0.1522;-0.0119;
444.6000;0.1514;-0.0143;
444.9000;0.1522;-0.0143;
445.2000;0.1408;-0.0358;
445.5000;0.1522;0.0096;
445.8000;0.1498;0.0024;
446.1000;0.1530;0.0096;
446.4000;0.1498;0.0000;
446.7000;0.1506;0.0072;
447.0000;0.1514;0.0119;
447.3000;0.1514;0.0096;
447.6000;0.1514;0.0096;
447.9000;0.1506;0.0000;
448.2000;0.1514;0.0000;
448.5000;0.1481;-0.0024;
448.8000;0.1498;-0.0048;
449.1000;0.1522;0.0000;
449.4000;0.1465;-0.0072;
449.7000;0.1530;0.0048;
450.0000;0.1506;-0.0024;
450.3000;0.1506;0.0000;
450.6000;0.1514;0.0048;
450.9000;0.1522;0.0048;
451.2000;0.1514;0.0000;
451.5000;0.1498;-0.0119;
451.8000;0.1514;-0.0024;
452.1000;0.1506;-0.0024;
452.4000;0.1522;-0.0096;
452.7000;0.1498;-0.0072;
453.0000;0.1530;-0.0024;
453.3000;0.1522;-0.0048;
453.6000;0.1441;-0.0311;
453.9000;0.1506;-0.0072;
454.2000;0.1522;-0.0096;
454.5000;0.1514;-0.0096;
454.8000;0.1522;-0.0024;
455.1000;0.1514;-0.0119;
455.4000;0.1514;-0.0143;
455.7000;0.1514;-0.0143;
456.0000;0.1514;-0.0096;
456.3000;0.1498;-0.0143;
456.6000;0.1530;-0.0072;
456.9000;0.1498;-0.0143;
457.2000;0.1473;-0.0096;
457.5000;0.1506;-0.0024;
457.8000;0.1530;0.0072;
458.1000;0.1506;0.0000;
458.4000;0.1498;0.0024;
458.7000;0.1506;0.0024;
459.0000;0.1514;-0.0048;
459.3000;0.1481;-0.0096;
459.6000;0.1514;0.0000;
459.9000;0.1514;0.0000;
460.2000;0.1400;-0.0335;
460.5000;0.1522;-0.0072;
460.8000;0.1514;-0.0167;
461.1000;0.1522;-0.0167;
461.4000;0.1481;-0.0239;
461.7000;0.1522;-0.0119;
462.0000;0.1498;-0.0119;
462.3000;0.1530;0.0000;
462.6000;0.1530;0.0048;
462.9000;0.1506;-0.0096;
463.2000;0.1465;-0.0167;
463.5000;0.1506;-0.0024;
463.8000;0.1595;0.0191;
464.1000;0.1636;0.0263;
464.4000;0.1490;-0.0072;
464.7000;0.1506;0.0000;
465.0000;0.1538;0.0191;
465.3000;0.1498;0.0143;
465.6000;0.1522;0.0119;
465.9000;0.1498;0.0072;
466.2000;0.1506;0.0119;
466.5000;0.1506;0.0143;
466.8000;0.1522;0.0143;
467.1000;0.1490;0.0000;
467.4000;0.1457;-0.0072;
467.7000;0.1506;0.0072;
468.0000;0.1587;0.0191;
468.3000;0.1514;0.0000;
468.6000;0.1506;0.0000;
468.9000;0.1530;0.0024;
469.2000;0.1481;-0.0096;
469.5000;0.1498;-0.0024;
469.8000;0.1506;0.0024;
470.1000;0.1473;-0.0119;
470.4000;0.1514;-0.0024;
470.7000;0.1522;-0.0024;
471.0000;0.1530;-0.0072;
471.3000;0.1530;-0.0024;
471.6000;0.1522;-0.0072;
471.9000;0.1514;0.0024;
472.2000;0.1522;0.0000;
472.5000;0.1522;0.0096;
472.8000;0.1522;0.0143;
473.1000;0.1506;-0.0024;
473.4000;0.1473;-0.0167;
473.7000;0.1506;-0.0024;
474.0000;0.1530;0.0072;
474.3000;0.1498;0.0000;
474.6000;0.1498;0.0072;
474.9000;0.1514;0.0119;
475.2000;0.1506;0.0096;
475.5000;0.1530;0.0167;
475.8000;0.1522;0.0167;
476.1000;0.1579;0.0263;
476.4000;0.1522;0.0215;
476.7000;0.1547;0.0191;
477.0000;0.1530;0.0072;
477.3000;0.1498;-0.0024;
477.6000;0.1465;-0.0191;
477.9000;0.1465;-0.0215;
478.2000;0.1538;0.0024;
478.5000;0.1465;-0.0215;
478.8000;0.1481;-0.0143;
479.1000;0.1522;0.0000;
479.4000;0.1522;0.0143;
479.7000;0.1530;0.0143;
480.0000;0.1522;0.0072;
480.3000;0.1433;-0.0072;
480.6000;0.1473;0.0024;
480.9000;0.1490;0.0072;
481.2000;0.1530;0.0119;
481.5000;0.1514;0.0024;
481.8000;0.1514;-0.0048;
482.1000;0.1522;0.0000;
482.4000;0.1473;-0.0191;
482.7000;0.1522;-0.0167;
483.0000;0.1498;-0.0215;
483.3000;0.1473;-0.0263;
483.6000;0.1498;-0.0215;
483.9000;0.1506;-0.0215;
484.2000;0.1538;-0.0119;
484.5000;0.1465;-0.0263;
484.8000;0.1522;-0.0191;
485.1000;0.1522;-0.0143;
485.4000;0.1514;-0.0096;
485.7000;0.1490;-0.0167;
486.0000;0.1538;-0.0096;
486.3000;0.1490;-0.0239;
486.6000;0.1506;-0.0287;
486.9000;0.1490;-0.0239;
487.2000;0.1538;-0.0143;
487.5000;0.1522;-0.0191;
487.8000;0.1514;-0.0215;
488.1000;0.1514;-0.0311;
488.4000;0.1522;-0.0358;
488.7000;0.1498;-0.0382;
489.0000;0.1506;-0.0311;
489.3000;0.1498;-0.0287;
489.6000;0.1514;-0.0167;
489.9000;0.1506;-0.0167;
490.2000;0.1490;-0.0167;
490.5000;0.1490;-0.0239;
490.8000;0.1514;-0.0215;
491.1000;0.1498;-0.0287;
491.4000;0.1506;-0.0239;
491.7000;0.1473;-0.0358;
492.0000;0.1530;-0.0239;
492.3000;0.1514;-0.0358;
492.6000;0.1498;-0.0502;
492.9000;0.1522;-0.0406;
493.2000;0.1514;-0.0454;
493.5000;0.1522;-0.0406;
493.8000;0.1538;-0.0335;
494.1000;0.1514;-0.0287;
494.4000;0.1498;-0.0215;
494.7000;0.1514;-0.0143;
495.0000;0.1506;-0.0191;
495.3000;0.1465;-0.0287;
495.6000;0.1506;-0.0191;
495.9000;0.1522;-0.0167;
496.2000;0.1514;-0.0215;
496.5000;0.1506;-0.0239;
496.8000;0.1506;-0.0239;
497.1000;0.1530;-0.0263;
497.4000;0.1441;-0.0406;
497.7000;0.1530;-0.0119;
498.0000;0.1522;-0.0191;
498.3000;0.1392;-0.0526;
498.6000;0.1522;-0.0215;
498.9000;0.1522;-0.0167;
499.2000;0.1506;-0.0215;
499.5000;0.1506;-0.0263;
499.8000;0.1514;-0.0239;
500.1000;0.1514;-0.0358;
500.4000;0.1498;-0.0311;
500.7000;0.1506;-0.0311;
501.0000;0.1530;-0.0335;
501.3000;0.1522;-0.0311;
501.6000;0.1506;-0.0287;
501.9000;0.1481;-0.0335;
502.2000;0.1514;-0.0239;
502.5000;0.1522;-0.0191;
502.8000;0.1498;-0.0311;
503.1000;0.1449;-0.0335;
503.4000;0.1490;-0.0119;
503.7000;0.1498;-0.0096;
504.0000;0.1514;0.0024;
504.3000;0.1506;0.0000;
504.6000;0.1514;0.0072;
504.9000;0.1514;0.0096;
505.2000;0.1522;0.0000;
505.5000;0.1547;0.0048;
505.8000;0.1522;-0.0072;
506.1000;0.1514;-0.0096;
506.4000;0.1498;-0.0048;
506.7000;0.1506;-0.0119;
507.0000;0.1506;-0.0119;
507.3000;0.1522;-0.0024;
507.6000;0.1514;0.0000;
507.9000;0.1498;0.0048;
508.2000;0.1490;0.0048;
508.5000;0.1522;-0.0024;
508.8000;0.1522;-0.0048;
509.1000;0.1506;-0.0096;
509.4000;0.1514;-0.0143;
509.7000;0.1498;-0.0143;
510.0000;0.1514;-0.0096;
510.3000;0.1514;-0.0119;
510.6000;0.1490;-0.0072;
510.9000;0.1490;-0.0096;
511.2000;0.1506;0.0000;
511.5000;0.1506;-0.0024;
511.8000;0.1481;-0.0119;
512.1000;0.1490;-0.0119;
512.4000;0.1547;0.0048;
512.7000;0.1465;-0.0263;
513.0000;0.1514;-0.0096;
513.3000;0.1490;-0.0143;
513.6000;0.1498;-0.0024;
513.9000;0.1612;0.0287;
514.2000;0.1490;0.0024;
514.5000;0.1481;-0.0024;
514.8000;0.1530;0.0119;
515.1000;0.1514;0.0072;
515.4000;0.1530;0.0119;
515.7000;0.1514;-0.0024;
516.0000;0.1498;0.0024;
516.3000;0.1481;0.0048;
516.6000;0.1498;0.0000;
516.9000;0.1514;0.0096;
517.2000;0.1514;0.0096;
517.5000;0.1498;-0.0024;
517.8000;0.1506;0.0096;
518.1000;0.1514;0.0048;
518.4000;0.1514;0.0048;
518.7000;0.1506;0.0072;
519.0000;0.1522;0.0048;
519.3000;0.1587;0.0143;
519.6000;0.1530;-0.0024;
519.9000;0.1481;-0.0096;
520.2000;0.1498;-0.0048;
520.5000;0.1490;0.0000;
520.8000;0.1506;0.0048;
521.1000;0.1498;0.0000;
521.4000;0.1457;-0.0119;
521.7000;0.1530;0.0024;
522.0000;0.1490;-0.0072;
522.3000;0.1522;-0.0048;
522.6000;0.1522;-0.0072;
522.9000;0.1522;-0.0072;
523.2000;0.1514;-0.0191;
523.5000;0.1563;-0.0024;
523.8000;0.1579;-0.0024;
524.1000;0.1530;-0.0191;
524.4000;0.1490;-0.0311;
524.7000;0.1490;-0.0191;
525.0000;0.1530;-0.0143;
525.3000;0.1449;-0.0287;
525.6000;0.1506;-0.0167;
525.9000;0.1563;0.0000;
526.2000;0.1490;-0.0119;
526.5000;0.1530;0.0000;
526.8000;0.1425;-0.0287;
527.1000;0.1498;-0.0096;
527.4000;0.1441;-0.0215;
527.7000;0.1506;0.0000;
528.0000;0.1506;0.0000;
528.3000;0.1530;0.0119;
528.6000;0.1506;0.0096;
528.9000;0.1538;0.0119;
529.2000;0.1490;-0.0024;
529.5000;0.1563;0.0119;
529.8000;0.1514;-0.0048;
530.1000;0.1498;-0.0048;
530.4000;0.1457;-0.0143;
530.7000;0.1522;-0.0024;
531.0000;0.1514;0.0000;
531.3000;0.1506;0.0000;
531.6000;0.1514;0.0048;
531.9000;0.1555;0.0239;
532.2000;0.1514;0.0048;
532.5000;0.1514;0.0048;
532.8000;0.1514;-0.0072;
533.1000;0.1506;-0.0072;
533.4000;0.1514;-0.0096;
533.7000;0.1506;-0.0167;
534.0000;0.1522;-0.0215;
534.3000;0.1506;-0.0239;
534.6000;0.1506;-0.0239;
534.9000;0.1522;-0.0048;
535.2000;0.1538;0.0000;
535.5000;0.1514;0.0048;
535.8000;0.1538;0.0143;
536.1000;0.1506;-0.0024;
536.4000;0.1522;0.0000;
536.7000;0.1506;0.0072;
537.0000;0.1506;0.0096;
537.3000;0.1481;-0.0024;
537.6000;0.1506;0.0072;
537.9000;0.1595;0.0167;
538.2000;0.1473;-0.0072;
538.5000;0.1514;0.0048;
538.8000;0.1514;0.0096;
539.1000;0.1506;0.0096;
539.4000;0.1522;0.0239;
539.7000;0.1514;0.0215;
540.0000;0.1498;0.0143;
540.3000;0.1506;0.0191;
540.6000;0.1514;0.0167;
540.9000;0.1522;0.0143;
541.2000;0.1530;0.0143;
541.5000;0.1490;0.0072;
541.8000;0.1506;0.0119;
542.1000;0.1514;0.0072;
542.4000;0.1522;0.0167;
542.7000;0.1514;0.0072;
543.0000;0.1490;-0.0024;
543.3000;0.1538;0.0048;
543.6000;0.1522;0.0000;
543.9000;0.1408;-0.0287;
544.2000;0.1506;0.0072;
544.5000;0.1522;0.0143;
544.8000;0.1514;0.0119;
545.1000;0.1498;0.0072;
545.4000;0.1498;0.0119;
545.7000;0.1498;0.0119;
546.0000;0.1530;0.0191;
546.3000;0.1506;0.0072;
546.6000;0.1514;0.0096;
546.9000;0.1498;0.0096;
547.2000;0.1506;0.0048;
547.5000;0.1490;0.0024;
547.8000;0.1530;0.0096;
548.1000;0.1514;0.0048;
548.4000;0.1563;0.0215;
548.7000;0.1514;0.0048;
549.0000;0.1514;0.0048;
549.3000;0.1538;0.0119;
549.6000;0.1490;-0.0072;
549.9000;0.1465;-0.0143;
550.2000;0.1514;-0.0024;
550.5000;0.1547;0.0096;
550.8000;0.1514;-0.0048;
551.1000;0.1530;0.0119;
551.4000;0.1514;0.0167;
551.7000;0.1506;0.0072;
552.0000;0.1514;0.0119;
552.3000;0.1538;0.0143;
552.6000;0.1408;-0.0167;
552.9000;0.1522;0.0119;
553.2000;0.1514;0.0119;
553.5000;0.1514;0.0119;
553.8000;0.1530;0.0143;
554.1000;0.1522;0.0143;
554.4000;0.1473;0.0048;
554.7000;0.1498;0.0191;
555.0000;0.1514;0.0287;
555.3000;0.1538;0.0311;
555.6000;0.1522;0.0191;
555.9000;0.1498;0.0000;
556.2000;0.1522;-0.0024;
556.5000;0.1514;0.0000;
556.8000;0.1514;0.0000;
557.1000;0.1506;-0.0096;
557.4000;0.1514;-0.0119;
557.7000;0.1498;-0.0048;
558.0000;0.1514;0.0000;
558.3000;0.1587;0.0119;
558.6000;0.1514;-0.0048;
558.9000;0.1457;-0.0191;
559.2000;0.1416;-0.0263;
559.5000;0.1522;0.0048;
559.8000;0.1522;0.0096;
560.1000;0.1644;0.0454;
560.4000;0.1514;0.0167;
560.7000;0.1514;0.0072;
561.0000;0.1514;0.0024;
561.3000;0.1522;0.0072;
561.6000;0.1514;0.0096;
561.9000;0.1555;0.0096;
562.2000;0.1522;0.0000;
562.5000;0.1530;-0.0024;
562.8000;0.1563;0.0048;
563.1000;0.1538;0.0048;
563.4000;0.1514;0.0096;
563.7000;0.1514;0.0143;
564.0000;0.1522;0.0119;
564.3000;0.1481;-0.0119;
564.6000;0.1514;-0.0072;
564.9000;0.1416;-0.0358;
565.2000;0.1498;-0.0024;
565.5000;0.1498;0.0000;
565.8000;0.1506;0.0072;
566.1000;0.1547;0.0119;
566.4000;0.1522;0.0072;
566.7000;0.1416;-0.0263;
567.0000;0.1522;-0.0096;
567.3000;0.1514;-0.0143;
567.6000;0.1441;-0.0239;
567.9000;0.1400;-0.0311;
568.2000;0.1514;-0.0024;
568.5000;0.1514;-0.0024;
568.8000;0.1498;-0.0096;
569.1000;0.1563;0.0000;
569.4000;0.1538;-0.0072;
569.7000;0.1522;-0.0167;
570.0000;0.1506;-0.0167;
570.3000;0.1490;-0.0167;
570.6000;0.1514;-0.0024;
570.9000;0.1506;-0.0072;
571.2000;0.1530;0.0024;
571.5000;0.1514;0.0000;
571.8000;0.1498;-0.0119;
572.1000;0.1498;-0.0048;
572.4000;0.1636;0.0406;
572.7000;0.1506;0.0048;
573.0000;0.1514;0.0072;
573.3000;0.1514;0.0119;
573.6000;0.1530;0.0167;
573.9000;0.1587;0.0358;
574.2000;0.1514;0.0000;
574.5000;0.1514;0.0096;
574.8000;0.1490;0.0048;
575.1000;0.1490;0.0024;
575.4000;0.1465;0.0000;
575.7000;0.1506;0.0072;
576.0000;0.1538;0.0119;
576.3000;0.1514;0.0119;
576.6000;0.1530;0.0143;
576.9000;0.1514;0.0000;
577.2000;0.1498;0.0096;
577.5000;0.1506;0.0096;
577.8000;0.1522;0.0096;
578.1000;0.1555;0.0215;
578.4000;0.1506;0.0024;
578.7000;0.1522;-0.0048;
579.0000;0.1506;-0.0143;
579.3000;0.1498;-0.0167;
579.6000;0.1506;-0.0143;
579.9000;0.1514;-0.0024;
580.2000;0.1506;0.0048;
580.5000;0.1506;0.0096;
580.8000;0.1498;0.0143;
581.1000;0.1522;0.0239;
581.4000;0.1457;0.0000;
581.7000;0.1498;0.0096;
582.0000;0.1522;0.0119;
582.3000;0.1522;0.0119;
582.6000;0.1514;0.0072;
582.9000;0.1408;-0.0263;
583.2000;0.1563;0.0167;
583.5000;0.1522;0.0048;
583.8000;0.1514;0.0048;
584.1000;0.1522;0.0119;
584.4000;0.1522;0.0096;
584.7000;0.1514;0.0000;
585.0000;0.1522;0.0119;
585.3000;0.1522;0.0096;
585.6000;0.1530;0.0119;
585.9000;0.1514;0.0048;
586.2000;0.1506;0.0024;
586.5000;0.1522;0.0119;
586.8000;0.1490;0.0048;
587.1000;0.1514;0.0024;
587.4000;0.1530;0.0096;
587.7000;0.1465;-0.0096;
588.0000;0.1514;-0.0072;
588.3000;0.1490;-0.0119;
588.6000;0.1522;0.0024;
588.9000;0.1506;0.0048;
589.2000;0.1514;0.0072;
589.5000;0.1506;0.0096;
589.8000;0.1514;0.0143;
590.1000;0.1522;0.0096;
590.4000;0.1522;0.0048;
590.7000;0.1514;-0.0024;
591.0000;0.1530;0.0048;
591.3000;0.1636;0.0430;
591.6000;0.1514;0.0167;
591.9000;0.1506;0.0191;
592.2000;0.1506;0.0191;
592.5000;0.1522;0.0263;
592.8000;0.1506;0.0287;
593.1000;0.1506;0.0287;
593.4000;0.1498;0.0215;
593.7000;0.1620;0.0358;
594.0000;0.1522;0.0072;
594.3000;0.1538;0.0239;
594.6000;0.1490;0.0143;
594.9000;0.1530;0.0239;
595.2000;0.1571;0.0382;
595.5000;0.1530;0.0215;
595.8000;0.1473;0.0096;
596.1000;0.1530;0.0287;
596.4000;0.1514;0.0263;
596.7000;0.1514;0.0335;
597.0000;0.1506;0.0239;
597.3000;0.1498;0.0215;
597.6000;0.1571;0.0406;
597.9000;0.1473;0.0119;
598.2000;0.1530;0.0167;
598.5000;0.1433;-0.0119;
598.8000;0.1498;0.0143;
599.1000;0.1498;0.0143;
599.4000;0.1433;-0.0072;
599.7000;0.1522;0.0191;
600.0000;0.1473;0.0143;
600.3000;0.1506;0.0215;
600.6000;0.1538;0.0263;
600.9000;0.1530;0.0096;
601.2000;0.1522;-0.0072;
601.5000;0.1563;-0.0167;
601.8000;0.1506;-0.0430;
602.1000;0.1514;-0.0430;
602.4000;0.1490;-0.0574;
602.7000;0.1490;-0.0669;
603.0000;0.1514;-0.0717;
603.3000;0.1490;-0.0908;
603.6000;0.1506;-0.0956;
603.9000;0.1514;-0.1004;
604.2000;0.1514;-0.1051;
604.5000;0.1522;-0.1004;
604.8000;0.1514;-0.1004;
605.1000;0.1514;-0.0980;
605.4000;0.1416;-0.1099;
605.7000;0.1498;-0.0932;
606.0000;0.1498;-0.0908;
606.3000;0.1473;-0.0956;
606.6000;0.1490;-0.0908;
606.9000;0.1538;-0.0812;
607.2000;0.1579;-0.0669;
607.5000;0.1490;-0.1028;
607.8000;0.1473;-0.1075;
608.1000;0.1449;-0.1099;
608.4000;0.1473;-0.1123;
608.7000;0.1481;-0.1123;
609.0000;0.1490;-0.0980;
609.3000;0.1481;-0.1028;
609.6000;0.1490;-0.1051;
609.9000;0.1441;-0.1219;
610.2000;0.1490;-0.1147;
610.5000;0.1473;-0.1123;
610.8000;0.1481;-0.1028;
611.1000;0.1465;-0.1075;
611.4000;0.1506;-0.0956;
611.7000;0.1514;-0.0956;
612.0000;0.1481;-0.1028;
612.3000;0.1473;-0.1099;
612.6000;0.1481;-0.1075;
612.9000;0.1490;-0.1028;
613.2000;0.1473;-0.1075;
613.5000;0.1490;-0.1075;
613.8000;0.1473;-0.1147;
614.1000;0.1473;-0.1147;
614.4000;0.1465;-0.1243;
614.7000;0.1490;-0.1219;
615.0000;0.1457;-0.1410;
615.3000;0.1498;-0.1386;
615.6000;0.1457;-0.1434;
615.9000;0.1449;-0.1458;
616.2000;0.1425;-0.1553;
616.5000;0.1530;-0.1314;
616.8000;0.1481;-0.1410;
617.1000;0.1392;-0.1625;
617.4000;0.1514;-0.1219;
617.7000;0.1538;-0.1099;
618.0000;0.1376;-0.1482;
618.3000;0.1490;-0.1171;
618.6000;0.1490;-0.1195;
618.9000;0.1425;-0.1386;
619.2000;0.1465;-0.1171;
619.5000;0.1473;-0.1099;
619.8000;0.1506;-0.0956;
620.1000;0.1376;-0.1314;
620.4000;0.1441;-0.1171;
620.7000;0.1457;-0.1075;
621.0000;0.1473;-0.0932;
621.3000;0.1490;-0.0836;
621.6000;0.1457;-0.1028;
621.9000;0.1473;-0.0932;
622.2000;0.1514;-0.0956;
622.5000;0.1425;-0.1219;
622.8000;0.1465;-0.1099;
623.1000;0.1473;-0.1147;
623.4000;0.1441;-0.1171;
623.7000;0.1481;-0.1075;
624.0000;0.1400;-0.1362;
624.3000;0.1465;-0.1123;
624.6000;0.1490;-0.1123;
624.9000;0.1465;-0.1099;
625.2000;0.1490;-0.0980;
625.5000;0.1473;-0.0980;
625.8000;0.1465;-0.1051;
626.1000;0.1473;-0.1075;
626.4000;0.1457;-0.1099;
626.7000;0.1481;-0.0980;
627.0000;0.1481;-0.0908;
627.3000;0.1473;-0.1028;
627.6000;0.1457;-0.0956;
627.9000;0.1490;-0.0836;
628.2000;0.1465;-0.0789;
628.5000;0.1498;-0.0741;
628.8000;0.1481;-0.0836;
629.1000;0.1506;-0.0908;
629.4000;0.1449;-0.1028;
629.7000;0.1465;-0.0908;
630.0000;0.1473;-0.0932;
630.3000;0.1514;-0.0836;
630.6000;0.1481;-0.0932;
630.9000;0.1457;-0.0956;
631.2000;0.1538;-0.0789;
631.5000;0.1457;-0.0956;
631.8000;0.1465;-0.0980;
632.1000;0.1498;-0.0956;
632.4000;0.1481;-0.1004;
632.7000;0.1481;-0.1004;
633.0000;0.1481;-0.1004;
633.3000;0.1465;-0.1099;
633.6000;0.1457;-0.1099;
633.9000;0.1490;-0.1147;
634.2000;0.1481;-0.1195;
634.5000;0.1473;-0.1171;
634.8000;0.1473;-0.1219;
635.1000;0.1457;-0.1195;
635.4000;0.1465;-0.1195;
635.7000;0.1465;-0.1243;
636.0000;0.1449;-0.1195;
636.3000;0.1449;-0.1147;
636.6000;0.1465;-0.1051;
636.9000;0.1490;-0.0980;
637.2000;0.1473;-0.0956;
637.5000;0.1473;-0.0908;
637.8000;0.1473;-0.1028;
638.1000;0.1441;-0.1099;
638.4000;0.1563;-0.0765;
638.7000;0.1457;-0.1028;
639.0000;0.1473;-0.1004;
639.3000;0.1481;-0.0956;
639.6000;0.1481;-0.0980;
639.9000;0.1457;-0.1075;
640.2000;0.1481;-0.0980;
640.5000;0.1457;-0.1004;
640.8000;0.1595;-0.0645;
641.1000;0.1465;-0.0980;
641.4000;0.1506;-0.0789;
641.7000;0.1465;-0.0908;
642.0000;0.1457;-0.1028;
642.3000;0.1498;-0.0932;
642.6000;0.1473;-0.0980;
642.9000;0.1506;-0.1004;
643.2000;0.1457;-0.1051;
643.5000;0.1506;-0.0884;
643.8000;0.1490;-0.0908;
644.1000;0.1473;-0.0980;
644.4000;0.1498;-0.0980;
644.7000;0.1465;-0.1123;
645.0000;0.1465;-0.1147;
645.3000;0.1465;-0.1171;
645.6000;0.1425;-0.1219;
645.9000;0.1481;-0.1075;
646.2000;0.1465;-0.1195;
646.5000;0.1465;-0.1123;
646.8000;0.1481;-0.1075;
647.1000;0.1473;-0.1099;
647.4000;0.1465;-0.1075;
647.7000;0.1490;-0.1099;
648.0000;0.1481;-0.1171;
648.3000;0.1465;-0.1266;
648.6000;0.1457;-0.1362;
648.9000;0.1473;-0.1338;
649.2000;0.1465;-0.1386;
649.5000;0.1522;-0.1219;
649.8000;0.1490;-0.1243;
650.1000;0.1490;-0.1171;
650.4000;0.1473;-0.1123;
650.7000;0.1473;-0.1171;
651.0000;0.1490;-0.1028;
651.3000;0.1481;-0.0980;
651.6000;0.1498;-0.1004;
651.9000;0.1481;-0.1004;
652.2000;0.1481;-0.0956;
652.5000;0.1441;-0.1099;
652.8000;0.1457;-0.1028;
653.1000;0.1465;-0.0956;
653.4000;0.1481;-0.0956;
653.7000;0.1473;-0.1099;
654.0000;0.1522;-0.1028;
654.3000;0.1530;-0.0980;
654.6000;0.1481;-0.1147;
654.9000;0.1465;-0.1219;
655.2000;0.1481;-0.1219;
655.5000;0.1490;-0.1147;
655.8000;0.1563;-0.0980;
656.1000;0.1490;-0.1243;
656.4000;0.1498;-0.1171;
656.7000;0.1587;-0.0980;
657.0000;0.1376;-0.1529;
657.3000;0.1473;-0.1266;
657.6000;0.1490;-0.1290;
657.9000;0.1457;-0.1314;
658.2000;0.1465;-0.1290;
658.5000;0.1465;-0.1290;
658.8000;0.1465;-0.1243;
659.1000;0.1473;-0.1195;
659.4000;0.1481;-0.1147;
659.7000;0.1498;-0.1051;
660.0000;0.1481;-0.1075;
660.3000;0.1481;-0.1051;
660.6000;0.1465;-0.1099;
660.9000;0.1481;-0.1051;
661.2000;0.1506;-0.1028;
661.5000;0.1636;-0.0765;
661.8000;0.1465;-0.1195;
662.1000;0.1563;-0.0908;
662.4000;0.1514;-0.1075;
662.7000;0.1465;-0.1219;
663.0000;0.1522;-0.1195;
663.3000;0.1506;-0.1147;
663.6000;0.1473;-0.1195;
663.9000;0.1473;-0.1147;
664.2000;0.1481;-0.1171;
664.5000;0.1425;-0.1338;
664.8000;0.1425;-0.1338;
665.1000;0.1473;-0.1219;
665.4000;0.1490;-0.1147;
665.7000;0.1490;-0.1099;
666.0000;0.1449;-0.1219;
666.3000;0.1506;-0.1028;
666.6000;0.1457;-0.1195;
666.9000;0.1441;-0.1266;
667.2000;0.1465;-0.1290;
667.5000;0.1498;-0.1243;
667.8000;0.1490;-0.1290;
668.1000;0.1457;-0.1266;
668.4000;0.1538;-0.1004;
668.7000;0.1473;-0.1266;
669.0000;0.1498;-0.1171;
669.3000;0.1490;-0.1147;
669.6000;0.1473;-0.1219;
669.9000;0.1481;-0.1171;
670.2000;0.1465;-0.1219;
670.5000;0.1465;-0.1171;
670.8000;0.1465;-0.1147;
671.1000;0.1441;-0.1195;
671.4000;0.1465;-0.1051;
671.7000;0.1490;-0.1123;
672.0000;0.1465;-0.1147;
672.3000;0.1473;-0.1147;
672.6000;0.1547;-0.0908;
672.9000;0.1498;-0.1004;
673.2000;0.1514;-0.1004;
673.5000;0.1481;-0.1051;
673.8000;0.1465;-0.1075;
674.1000;0.1473;-0.1051;
674.4000;0.1449;-0.1099;
674.7000;0.1498;-0.1004;
675.0000;0.1465;-0.1147;
675.3000;0.1563;-0.0956;
675.6000;0.1490;-0.1123;
675.9000;0.1473;-0.1219;
676.2000;0.1465;-0.1123;
676.5000;0.1490;-0.1028;
676.8000;0.1490;-0.1028;
677.1000;0.1465;-0.1075;
677.4000;0.1465;-0.1004;
677.7000;0.1506;-0.0884;
678.0000;0.1490;-0.0908;
678.3000;0.1481;-0.0932;
678.6000;0.1449;-0.0980;
678.9000;0.1465;-0.0980;
679.2000;0.1547;-0.0812;
679.5000;0.1506;-0.0908;
679.8000;0.1465;-0.1051;
680.1000;0.1481;-0.1028;
680.4000;0.1473;-0.1075;
680.7000;0.1481;-0.1028;
681.0000;0.1425;-0.1171;
681.3000;0.1457;-0.1099;
681.6000;0.1449;-0.1099;
681.9000;0.1457;-0.1075;
682.2000;0.1481;-0.1004;
682.5000;0.1490;-0.1051;
682.8000;0.1498;-0.0932;
683.1000;0.1457;-0.1099;
683.4000;0.1457;-0.1195;
683.7000;0.1481;-0.1314;
684.0000;0.1457;-0.1386;
684.3000;0.1498;-0.1290;
684.6000;0.1473;-0.1338;
684.9000;0.1457;-0.1386;
685.2000;0.1441;-0.1458;
685.5000;0.1392;-0.1649;
685.8000;0.1481;-0.1266;
686.1000;0.1490;-0.1243;
686.4000;0.1473;-0.1266;
686.7000;0.1563;-0.1004;
687.0000;0.1481;-0.1195;
687.3000;0.1490;-0.1195;
687.6000;0.1473;-0.1314;
687.9000;0.1481;-0.1290;
688.2000;0.1441;-0.1482;
688.5000;0.1490;-0.1290;
688.8000;0.1465;-0.1219;
689.1000;0.1481;-0.1171;
689.4000;0.1473;-0.1147;
689.7000;0.1465;-0.1099;
690.0000;0.1473;-0.1051;
690.3000;0.1457;-0.1123;
690.6000;0.1481;-0.1028;
690.9000;0.1506;-0.0980;
691.2000;0.1498;-0.1028;
691.5000;0.1490;-0.1028;
691.8000;0.1481;-0.0980;
692.1000;0.1473;-0.0932;
692.4000;0.1490;-0.0860;
692.7000;0.1473;-0.0789;
693.0000;0.1481;-0.0765;
693.3000;0.1457;-0.0765;
693.6000;0.1473;-0.0812;
693.9000;0.1449;-0.0956;
694.2000;0.1465;-0.0932;
694.5000;0.1473;-0.0884;
694.8000;0.1473;-0.0956;
695.1000;0.1465;-0.1099;
695.4000;0.1481;-0.1075;
695.7000;0.1498;-0.1075;
696.0000;0.1473;-0.1123;
696.3000;0.1481;-0.1099;
696.6000;0.1481;-0.1075;
696.9000;0.1481;-0.1075;
697.2000;0.1465;-0.1195;
697.5000;0.1481;-0.1171;
697.8000;0.1473;-0.1171;
698.1000;0.1465;-0.1219;
698.4000;0.1490;-0.1147;
698.7000;0.1490;-0.1243;
699.0000;0.1481;-0.1195;
699.3000;0.1547;-0.1004;
699.6000;0.1473;-0.1171;
699.9000;0.1522;-0.1051;
700.2000;0.1498;-0.1051;
700.5000;0.1498;-0.1099;
700.8000;0.1465;-0.1195;
701.1000;0.1481;-0.1147;
701.4000;0.1506;-0.1075;
701.7000;0.1425;-0.1338;
702.0000;0.1473;-0.1171;
702.3000;0.1473;-0.1195;
702.6000;0.1481;-0.1123;
702.9000;0.1433;-0.1147;
703.2000;0.1465;-0.1004;
703.5000;0.1481;-0.1051;
703.8000;0.1481;-0.1004;
704.1000;0.1465;-0.1051;
704.4000;0.1506;-0.1004;
704.7000;0.1481;-0.1004;
705.0000;0.1547;-0.0812;
705.3000;0.1465;-0.1075;
705.6000;0.1481;-0.1099;
705.9000;0.1449;-0.1051;
706.2000;0.1571;-0.0765;
706.5000;0.1473;-0.1028;
706.8000;0.1514;-0.0908;
707.1000;0.1473;-0.1004;
707.4000;0.1457;-0.1004;
707.7000;0.1498;-0.0884;
708.0000;0.1473;-0.0908;
708.3000;0.1465;-0.1004;
708.6000;0.1481;-0.0908;
708.9000;0.1465;-0.1051;
709.2000;0.1465;-0.1051;
709.5000;0.1376;-0.1290;
709.8000;0.1473;-0.1099;
710.1000;0.1473;-0.1075;
710.4000;0.1457;-0.1099;
710.7000;0.1457;-0.1075;
711.0000;0.1473;-0.1051;
711.3000;0.1473;-0.1123;
711.6000;0.1465;-0.1123;
711.9000;0.1506;-0.1051;
712.2000;0.1473;-0.1147;
712.5000;0.1457;-0.1219;
712.8000;0.1473;-0.1243;
713.1000;0.1481;-0.1266;
713.4000;0.1441;-0.1290;
713.7000;0.1481;-0.1147;
714.0000;0.1425;-0.1362;
714.3000;0.1490;-0.1147;
714.6000;0.1481;-0.1099;
714.9000;0.1481;-0.1099;
715.2000;0.1498;-0.1051;
715.5000;0.1555;-0.0789;
715.8000;0.1481;-0.0932;
716.1000;0.1449;-0.1075;
716.4000;0.1441;-0.1099;
716.7000;0.1473;-0.1075;
717.0000;0.1473;-0.1051;
717.3000;0.1490;-0.1028;
717.6000;0.1433;-0.1075;
717.9000;0.1481;-0.1004;
718.2000;0.1490;-0.1028;
718.5000;0.1392;-0.1243;
718.8000;0.1457;-0.1028;
719.1000;0.1473;-0.1075;
719.4000;0.1514;-0.1028;
719.7000;0.1506;-0.1075;
720.0000;0.1449;-0.1171;
720.3000;0.1473;-0.1075;
720.6000;0.1481;-0.1123;
720.9000;0.1604;-0.0717;
721.2000;0.1465;-0.1075;
721.5000;0.1490;-0.0956;
721.8000;0.1465;-0.1051;
722.1000;0.1425;-0.1219;
722.4000;0.1473;-0.1028;
722.7000;0.1457;-0.1075;
723.0000;0.1473;-0.1028;
723.3000;0.1473;-0.1028;
723.6000;0.1481;-0.1051;
723.9000;0.1465;-0.1147;
724.2000;0.1449;-0.1219;
724.5000;0.1473;-0.1219;
724.8000;0.1498;-0.1147;
725.1000;0.1473;-0.1171;
725.4000;0.1465;-0.1171;
725.7000;0.1481;-0.1051;
726.0000;0.1449;-0.1171;
726.3000;0.1498;-0.1028;
726.6000;0.1473;-0.1051;
726.9000;0.1481;-0.1099;
727.2000;0.1465;-0.1147;
727.5000;0.1465;-0.1195;
727.8000;0.1400;-0.1386;
728.1000;0.1473;-0.1171;
728.4000;0.1490;-0.1123;
728.7000;0.1481;-0.1099;
729.0000;0.1498;-0.1051;
729.3000;0.1457;-0.1028;
729.6000;0.1498;-0.0980;
729.9000;0.1481;-0.1051;
730.2000;0.1473;-0.1099;
730.5000;0.1473;-0.1075;
730.8000;0.1490;-0.1099;
731.1000;0.1473;-0.1099;
731.4000;0.1481;-0.1075;
731.7000;0.1425;-0.1314;
732.0000;0.1457;-0.1171;
732.3000;0.1465;-0.1195;
732.6000;0.1555;-0.0884;
732.9000;0.1481;-0.1075;
733.2000;0.1481;-0.1051;
733.5000;0.1441;-0.1171;
733.8000;0.1465;-0.1123;
734.1000;0.1473;-0.1171;
734.4000;0.1400;-0.1243;
734.7000;0.1465;-0.1028;
735.0000;0.1473;-0.0884;
735.3000;0.1473;-0.0908;
735.6000;0.1490;-0.0884;
735.9000;0.1473;-0.0956;
736.2000;0.1449;-0.1028;
736.5000;0.1465;-0.1028;
736.8000;0.1449;-0.1051;
737.1000;0.1473;-0.1075;
737.4000;0.1441;-0.1147;
737.7000;0.1498;-0.1004;
738.0000;0.1490;-0.1051;
738.3000;0.1457;-0.1195;
738.6000;0.1465;-0.1219;
738.9000;0.1465;-0.1290;
739.2000;0.1465;-0.1219;
739.5000;0.1473;-0.1171;
739.8000;0.1473;-0.1123;
740.1000;0.1465;-0.1123;
740.4000;0.1457;-0.1219;
740.7000;0.1449;-0.1290;
741.0000;0.1473;-0.1243;
741.3000;0.1481;-0.1243;
741.6000;0.1587;-0.0908;
741.9000;0.1473;-0.1219;
742.2000;0.1473;-0.1171;
742.5000;0.1457;-0.1171;
742.8000;0.1490;-0.1075;
743.1000;0.1506;-0.1147;
743.4000;0.1465;-0.1243;
743.7000;0.1481;-0.1266;
744.0000;0.1343;-0.1577;
744.3000;0.1473;-0.1147;
744.6000;0.1481;-0.1243;
744.9000;0.1473;-0.1195;
745.2000;0.1376;-0.1386;
745.5000;0.1490;-0.1004;
745.8000;0.1473;-0.1004;
746.1000;0.1514;-0.0956;
746.4000;0.1457;-0.1147;
746.7000;0.1481;-0.1075;
747.0000;0.1441;-0.1147;
747.3000;0.1465;-0.1028;
747.6000;0.1481;-0.1028;
747.9000;0.1481;-0.1123;
748.2000;0.1465;-0.1171;
748.5000;0.1465;-0.1147;
748.8000;0.1473;-0.1195;
749.1000;0.1481;-0.1195;
749.4000;0.1465;-0.1243;
749.7000;0.1465;-0.1290;
750.0000;0.1473;-0.1314;
750.3000;0.1490;-0.1219;
750.6000;0.1498;-0.1099;
750.9000;0.1473;-0.1171;
751.2000;0.1473;-0.1147;
751.5000;0.1506;-0.1051;
751.8000;0.1449;-0.1147;
752.1000;0.1465;-0.1195;
752.4000;0.1465;-0.1195;
752.7000;0.1490;-0.1099;
753.0000;0.1522;-0.1028;
753.3000;0.1408;-0.1338;
753.6000;0.1433;-0.1338;
753.9000;0.1473;-0.1123;
754.2000;0.1481;-0.1123;
754.5000;0.1571;-0.0836;
754.8000;0.1473;-0.1195;
755.1000;0.1465;-0.1147;
755.4000;0.1498;-0.1075;
755.7000;0.1359;-0.1434;
756.0000;0.1506;-0.1051;
756.3000;0.1490;-0.1099;
756.6000;0.1481;-0.1171;
756.9000;0.1498;-0.1147;
757.2000;0.1538;-0.1004;
757.5000;0.1595;-0.0908;
757.8000;0.1457;-0.1195;
758.1000;0.1514;-0.1075;
758.4000;0.1490;-0.1123;
758.7000;0.1465;-0.1147;
759.0000;0.1359;-0.1434;
759.3000;0.1473;-0.1171;
759.6000;0.1514;-0.0956;
759.9000;0.1457;-0.1028;
760.2000;0.1473;-0.0908;
760.5000;0.1457;-0.0980;
760.8000;0.1498;-0.0932;
761.1000;0.1457;-0.1123;
761.4000;0.1457;-0.1195;
761.7000;0.1473;-0.1195;
762.0000;0.1359;-0.1529;
762.3000;0.1465;-0.1195;
762.6000;0.1481;-0.1123;
762.9000;0.1490;-0.1195;
763.2000;0.1473;-0.1266;
763.5000;0.1473;-0.1171;
763.8000;0.1481;-0.1147;
764.1000;0.1465;-0.1171;
764.4000;0.1498;-0.1099;
764.7000;0.1481;-0.1051;
765.0000;0.1473;-0.1075;
765.3000;0.1506;-0.0956;
765.6000;0.1465;-0.0956;
765.9000;0.1481;-0.0932;
766.2000;0.1506;-0.0812;
766.5000;0.1465;-0.0980;
766.8000;0.1481;-0.1028;
767.1000;0.1490;-0.1028;
767.4000;0.1473;-0.1028;
767.7000;0.1449;-0.1099;
768.0000;0.1473;-0.1051;
768.3000;0.1498;-0.1028;
768.6000;0.1481;-0.1123;
768.9000;0.1433;-0.1219;
769.2000;0.1563;-0.0836;
769.5000;0.1481;-0.1099;
769.8000;0.1473;-0.0980;
770.1000;0.1457;-0.1028;
770.4000;0.1473;-0.1028;
770.7000;0.1359;-0.1386;
771.0000;0.1490;-0.1123;
771.3000;0.1522;-0.0980;
771.6000;0.1449;-0.1195;
771.9000;0.1465;-0.1195;
772.2000;0.1481;-0.1219;
772.5000;0.1490;-0.1243;
772.8000;0.1481;-0.1266;
773.1000;0.1457;-0.1266;
773.4000;0.1530;-0.1147;
773.7000;0.1481;-0.1243;
774.0000;0.1473;-0.1195;
774.3000;0.1481;-0.1099;
774.6000;0.1473;-0.1171;
774.9000;0.1481;-0.1099;
775.2000;0.1457;-0.1147;
775.5000;0.1473;-0.1099;
775.8000;0.1473;-0.1099;
776.1000;0.1473;-0.0980;
776.4000;0.1481;-0.1004;
776.7000;0.1384;-0.1243;
777.0000;0.1473;-0.1051;
777.3000;0.1441;-0.1075;
777.6000;0.1465;-0.1028;
777.9000;0.1465;-0.1004;
778.2000;0.1490;-0.1051;
778.5000;0.1433;-0.1243;
778.8000;0.1473;-0.1171;
779.1000;0.1490;-0.1171;
779.4000;0.1498;-0.1147;
779.7000;0.1498;-0.1123;
780.0000;0.1465;-0.1171;
780.3000;0.1481;-0.1075;
780.6000;0.1473;-0.1099;
780.9000;0.1481;-0.1051;
781.2000;0.1433;-0.1219;
781.5000;0.1481;-0.1099;
781.8000;0.1498;-0.1051;
782.1000;0.1481;-0.1051;
782.4000;0.1473;-0.1123;
782.7000;0.1449;-0.1171;
783.0000;0.1498;-0.1051;
783.3000;0.1498;-0.1051;
783.6000;0.1481;-0.1051;
783.9000;0.1481;-0.1075;
784.2000;0.1481;-0.1147;
784.5000;0.1481;-0.1219;
784.8000;0.1490;-0.1266;
785.1000;0.1481;-0.1266;
785.4000;0.1449;-0.1290;
785.7000;0.1465;-0.1219;
786.0000;0.1465;-0.1219;
786.3000;0.1473;-0.1266;
786.6000;0.1481;-0.1219;
786.9000;0.1490;-0.1266;
787.2000;0.1514;-0.1171;
787.5000;0.1473;-0.1290;
787.8000;0.1449;-0.1195;
788.1000;0.1498;-0.1075;
788.4000;0.1490;-0.1004;
788.7000;0.1465;-0.1028;
789.0000;0.1490;-0.0932;
789.3000;0.1351;-0.1266;
789.6000;0.1473;-0.0908;
789.9000;0.1490;-0.0956;
790.2000;0.1481;-0.1004;
790.5000;0.1449;-0.1051;
790.8000;0.1498;-0.1004;
791.1000;0.1465;-0.1004;
791.4000;0.1465;-0.0956;
791.7000;0.1473;-0.0956;
792.0000;0.1555;-0.0812;
792.3000;0.1530;-0.0884;
792.6000;0.1481;-0.1028;
792.9000;0.1473;-0.1004;
793.2000;0.1465;-0.1147;
793.5000;0.1457;-0.1171;
793.8000;0.1514;-0.1099;
794.1000;0.1481;-0.1147;
794.4000;0.1457;-0.1338;
794.7000;0.1481;-0.1290;
795.0000;0.1433;-0.1362;
795.3000;0.1490;-0.1171;
795.6000;0.1473;-0.1171;
795.9000;0.1636;-0.0621;
796.2000;0.1481;-0.1004;
796.5000;0.1465;-0.1004;
796.8000;0.1433;-0.1123;
797.1000;0.1465;-0.0908;
797.4000;0.1481;-0.0836;
797.7000;0.1481;-0.0980;
798.0000;0.1498;-0.0980;
798.3000;0.1465;-0.1099;
798.6000;0.1481;-0.1075;
798.9000;0.1457;-0.1123;
799.2000;0.1465;-0.1099;
799.5000;0.1457;-0.1147;
799.8000;0.1473;-0.1171;
800.1000;0.1473;-0.1147;
800.4000;0.1473;-0.1075;
800.7000;0.1449;-0.1171;
801.0000;0.1481;-0.1123;
801.3000;0.1490;-0.1123;
801.6000;0.1481;-0.1171;
801.9000;0.1449;-0.1195;
802.2000;0.1473;-0.1099;
802.5000;0.1425;-0.1243;
802.8000;0.1465;-0.1123;
803.1000;0.1473;-0.1147;
803.4000;0.1465;-0.1051;
803.7000;0.1449;-0.1051;
804.0000;0.1457;-0.1051;
804.3000;0.1481;-0.0980;
804.6000;0.1498;-0.0956;
804.9000;0.1335;-0.1458;
805.2000;0.1473;-0.1075;
805.5000;0.1481;-0.1123;
805.8000;0.1465;-0.1171;
806.1000;0.1506;-0.1075;
806.4000;0.1473;-0.1195;
806.7000;0.1481;-0.1147;
807.0000;0.1498;-0.1075;
807.3000;0.1465;-0.1123;
807.6000;0.1481;-0.1099;
807.9000;0.1465;-0.1171;
808.2000;0.1514;-0.1075;
808.5000;0.1384;-0.1386;
808.8000;0.1449;-0.1338;
809.1000;0.1449;-0.1386;
809.4000;0.1612;-0.0836;
809.7000;0.1465;-0.1219;
810.0000;0.1481;-0.1219;
810.3000;0.1473;-0.1314;
810.6000;0.1547;-0.1075;
810.9000;0.1473;-0.1243;
811.2000;0.1506;-0.1147;
811.5000;0.1359;-0.1529;
811.8000;0.1498;-0.1195;
812.1000;0.1547;-0.1004;
812.4000;0.1449;-0.1290;
812.7000;0.1465;-0.1243;
813.0000;0.1490;-0.1099;
813.3000;0.1457;-0.1195;
813.6000;0.1498;-0.1243;
813.9000;0.1457;-0.1362;
814.2000;0.1473;-0.1338;
814.5000;0.1498;-0.1290;
814.8000;0.1473;-0.1362;
815.1000;0.1473;-0.1314;
815.4000;0.1465;-0.1362;
815.7000;0.1481;-0.1290;
816.0000;0.1473;-0.1314;
816.3000;0.1490;-0.1314;
816.6000;0.1457;-0.1434;
816.9000;0.1490;-0.1290;
817.2000;0.1571;-0.1075;
817.5000;0.1481;-0.1434;
817.8000;0.1473;-0.1362;
818.1000;0.1433;-0.1386;
818.4000;0.1506;-0.1243;
818.7000;0.1481;-0.1386;
819.0000;0.1490;-0.1243;
819.3000;0.1481;-0.1314;
819.6000;0.1481;-0.1290;
819.9000;0.1465;-0.1266;
820.2000;0.1473;-0.1266;
820.5000;0.1441;-0.1314;
820.8000;0.1457;-0.1290;
821.1000;0.1449;-0.1338;
821.4000;0.1473;-0.1266;
821.7000;0.1490;-0.1219;
822.0000;0.1465;-0.1338;
822.3000;0.1473;-0.1314;
822.6000;0.1490;-0.1266;
822.9000;0.1457;-0.1314;
823.2000;0.1473;-0.1243;
823.5000;0.1547;-0.1004;
823.8000;0.1465;-0.1171;
824.1000;0.1457;-0.1195;
824.4000;0.1449;-0.1171;
824.7000;0.1465;-0.1171;
825.0000;0.1457;-0.1266;
825.3000;0.1490;-0.1243;
825.6000;0.1465;-0.1290;
825.9000;0.1481;-0.1266;
826.2000;0.1465;-0.1243;
826.5000;0.1465;-0.1219;
826.8000;0.1481;-0.1219;
827.1000;0.1473;-0.1243;
827.4000;0.1563;-0.0980;
827.7000;0.1481;-0.1123;
828.0000;0.1465;-0.1147;
828.3000;0.1481;-0.1099;
828.6000;0.1473;-0.1171;
828.9000;0.1457;-0.1195;
829.2000;0.1465;-0.1243;
829.5000;0.1449;-0.1362;
829.8000;0.1473;-0.1266;
830.1000;0.1441;-0.1362;
830.4000;0.1490;-0.1314;
830.7000;0.1481;-0.1338;
831.0000;0.1457;-0.1362;
831.3000;0.1522;-0.1243;
831.6000;0.1473;-0.1338;
831.9000;0.1473;-0.1434;
832.2000;0.1449;-0.1434;
832.5000;0.1506;-0.1290;
832.8000;0.1481;-0.1338;
833.1000;0.1473;-0.1410;
833.4000;0.1449;-0.1482;
833.7000;0.1473;-0.1314;
834.0000;0.1465;-0.1338;
834.3000;0.1506;-0.1243;
834.6000;0.1449;-0.1362;
834.9000;0.1449;-0.1386;
835.2000;0.1449;-0.1362;
835.5000;0.1416;-0.1482;
835.8000;0.1473;-0.1338;
836.1000;0.1457;-0.1482;
836.4000;0.1481;-0.1386;
836.7000;0.1481;-0.1410;
837.0000;0.1481;-0.1458;
837.3000;0.1506;-0.1386;
837.6000;0.1490;-0.1386;
837.9000;0.1457;-0.1386;
838.2000;0.1473;-0.1290;
838.5000;0.1473;-0.1266;
838.8000;0.1465;-0.1266;
839.1000;0.1449;-0.1243;
839.4000;0.1481;-0.1123;
839.7000;0.1473;-0.1123;
840.0000;0.1490;-0.1051;
840.3000;0.1498;-0.1004;
840.6000;0.1481;-0.1147;
840.9000;0.1465;-0.1147;
841.2000;0.1473;-0.1195;
841.5000;0.1465;-0.1290;
841.8000;0.1473;-0.1314;
842.1000;0.1433;-0.1386;
842.4000;0.1514;-0.1147;
842.7000;0.1473;-0.1266;
843.0000;0.1506;-0.1099;
843.3000;0.1481;-0.1004;
843.6000;0.1465;-0.1123;
843.9000;0.1465;-0.1243;
844.2000;0.1433;-0.1219;
844.5000;0.1465;-0.1195;
844.8000;0.1465;-0.1147;
845.1000;0.1465;-0.1099;
845.4000;0.1490;-0.1075;
845.7000;0.1473;-0.1051;
846.0000;0.1457;-0.1099;
846.3000;0.1465;-0.1123;
846.6000;0.1473;-0.1195;
846.9000;0.1473;-0.1314;
847.2000;0.1481;-0.1219;
847.5000;0.1457;-0.1362;
847.8000;0.1416;-0.1410;
848.1000;0.1465;-0.1243;
848.4000;0.1457;-0.1219;
848.7000;0.1473;-0.1075;
849.0000;0.1490;-0.1028;
849.3000;0.1530;-0.1004;
849.6000;0.1416;-0.1338;
849.9000;0.1498;-0.1195;
850.2000;0.1473;-0.1266;
850.5000;0.1351;-0.1649;
850.8000;0.1433;-0.1314;
851.1000;0.1481;-0.1219;
851.4000;0.1498;-0.1171;
851.7000;0.1465;-0.1171;
852.0000;0.1457;-0.1147;
852.3000;0.1490;-0.1028;
852.6000;0.1547;-0.0836;
852.9000;0.1473;-0.1075;
853.2000;0.1473;-0.1051;
853.5000;0.1465;-0.1075;
853.8000;0.1563;-0.0884;
854.1000;0.1473;-0.1028;
854.4000;0.1490;-0.0956;
854.7000;0.1498;-0.0908;
855.0000;0.1481;-0.1051;
855.3000;0.1465;-0.1051;
855.6000;0.1457;-0.0980;
855.9000;0.1473;-0.0956;
856.2000;0.1490;-0.0932;
856.5000;0.1465;-0.0956;
856.8000;0.1449;-0.1028;
857.1000;0.1547;-0.0932;
857.4000;0.1465;-0.1123;
857.7000;0.1465;-0.1123;
858.0000;0.1449;-0.1099;
858.3000;0.1473;-0.0956;
858.6000;0.1490;-0.0908;
858.9000;0.1490;-0.1004;
859.2000;0.1490;-0.1051;
859.5000;0.1449;-0.1123;
859.8000;0.1481;-0.1123;
860.1000;0.1490;-0.1147;
860.4000;0.1465;-0.1171;
860.7000;0.1481;-0.1219;
861.0000;0.1498;-0.1123;
861.3000;0.1465;-0.1195;
861.6000;0.1441;-0.1219;
861.9000;0.1465;-0.1219;
862.2000;0.1530;-0.1051;
862.5000;0.1498;-0.1147;
862.8000;0.1522;-0.1075;
863.1000;0.1473;-0.1195;
863.4000;0.1465;-0.1123;
863.7000;0.1481;-0.1051;
864.0000;0.1465;-0.1051;
864.3000;0.1449;-0.1075;
864.6000;0.1457;-0.1123;
864.9000;0.1384;-0.1362;
865.2000;0.1522;-0.1075;
865.5000;0.1457;-0.1266;
865.8000;0.1563;-0.1028;
866.1000;0.1457;-0.1243;
866.4000;0.1481;-0.1243;
866.7000;0.1498;-0.1314;
867.0000;0.1473;-0.1314;
867.3000;0.1473;-0.1243;
867.6000;0.1473;-0.1243;
867.9000;0.1473;-0.1243;
868.2000;0.1514;-0.1171;
868.5000;0.1481;-0.1266;
868.8000;0.1457;-0.1290;
869.1000;0.1481;-0.1243;
869.4000;0.1506;-0.1195;
869.7000;0.1449;-0.1243;
870.0000;0.1449;-0.1243;
870.3000;0.1449;-0.1266;
870.6000;0.1473;-0.1171;
870.9000;0.1473;-0.1123;
871.2000;0.1465;-0.1147;
871.5000;0.1547;-0.0884;
871.8000;0.1473;-0.1123;
872.1000;0.1481;-0.1099;
872.4000;0.1441;-0.1195;
872.7000;0.1457;-0.1147;
873.0000;0.1498;-0.1099;
873.3000;0.1433;-0.1195;
873.6000;0.1579;-0.0932;
873.9000;0.1514;-0.1051;
874.2000;0.1465;-0.1123;
874.5000;0.1555;-0.0956;
874.8000;0.1465;-0.1243;
875.1000;0.1465;-0.1266;
875.4000;0.1465;-0.1195;
875.7000;0.1465;-0.1075;
876.0000;0.1465;-0.1028;
876.3000;0.1449;-0.1123;
876.6000;0.1481;-0.1004;
876.9000;0.1473;-0.1099;
877.2000;0.1465;-0.1123;
877.5000;0.1457;-0.1075;
877.8000;0.1514;-0.0908;
878.1000;0.1538;-0.0812;
878.4000;0.1473;-0.0980;
878.7000;0.1465;-0.1004;
879.0000;0.1473;-0.1028;
879.3000;0.1530;-0.0908;
879.6000;0.1473;-0.1075;
879.9000;0.1538;-0.1051;
880.2000;0.1473;-0.1290;
880.5000;0.1473;-0.1219;
880.8000;0.1506;-0.1171;
881.1000;0.1465;-0.1195;
881.4000;0.1481;-0.1243;
881.7000;0.1490;-0.1290;
882.0000;0.1481;-0.1266;
882.3000;0.1490;-0.1171;
882.6000;0.1473;-0.1171;
882.9000;0.1498;-0.1051;
883.2000;0.1506;-0.1123;
883.5000;0.1481;-0.1123;
883.8000;0.1498;-0.1123;
884.1000;0.1343;-0.1577;
884.4000;0.1473;-0.1171;
884.7000;0.1465;-0.1147;
885.0000;0.1473;-0.1123;
885.3000;0.1563;-0.0956;
885.6000;0.1465;-0.1123;
885.9000;0.1481;-0.1171;
886.2000;0.1481;-0.1195;
886.5000;0.1481;-0.1219;
886.8000;0.1473;-0.1243;
887.1000;0.1498;-0.1171;
887.4000;0.1481;-0.1147;
887.7000;0.1465;-0.1219;
888.0000;0.1465;-0.1195;
888.3000;0.1433;-0.1290;
888.6000;0.1481;-0.1195;
888.9000;0.1473;-0.1195;
889.2000;0.1425;-0.1314;
889.5000;0.1481;-0.1243;
889.8000;0.1555;-0.1028;
890.1000;0.1457;-0.1338;
890.4000;0.1465;-0.1410;
890.7000;0.1408;-0.1577;
891.0000;0.1473;-0.1386;
891.3000;0.1498;-0.1314;
891.6000;0.1481;-0.1362;
891.9000;0.1473;-0.1362;
892.2000;0.1498;-0.1338;
892.5000;0.1481;-0.1410;
892.8000;0.1530;-0.1195;
893.1000;0.1473;-0.1266;
893.4000;0.1481;-0.1290;
893.7000;0.1506;-0.1243;
894.0000;0.1481;-0.1338;
894.3000;0.1465;-0.1410;
894.6000;0.1473;-0.1338;
894.9000;0.1579;-0.1028;
895.2000;0.1433;-0.1410;
895.5000;0.1465;-0.1338;
895.8000;0.1465;-0.1338;
896.1000;0.1481;-0.1314;
896.4000;0.1473;-0.1243;
896.7000;0.1481;-0.1219;
897.0000;0.1490;-0.1195;
897.3000;0.1506;-0.1195;
897.6000;0.1473;-0.1171;
897.9000;0.1465;-0.1195;
898.2000;0.1498;-0.1099;
898.5000;0.1481;-0.1219;
898.8000;0.1473;-0.1219;
899.1000;0.1481;-0.1147;
899.4000;0.1481;-0.1051;
899.7000;0.1449;-0.1123;
900.0000;0.1490;-0.1123;
900.3000;0.1465;-0.1243;
900.6000;0.1465;-0.1314;
900.9000;0.1457;-0.1362;
901.2000;0.1457;-0.1458;
901.5000;0.1465;-0.1338;
901.8000;0.1481;-0.1219;
902.1000;0.1522;-0.1147;
902.4000;0.1457;-0.1338;
902.7000;0.1481;-0.1290;
903.0000;0.1481;-0.1266;
903.3000;0.1465;-0.1362;
903.6000;0.1473;-0.1314;
903.9000;0.1441;-0.1362;
904.2000;0.1425;-0.1434;
904.5000;0.1481;-0.1266;
904.8000;0.1465;-0.1219;
905.1000;0.1481;-0.1195;
905.4000;0.1481;-0.1171;
905.7000;0.1465;-0.1243;
906.0000;0.1481;-0.1243;
906.3000;0.1457;-0.1290;
906.6000;0.1473;-0.1147;
906.9000;0.1481;-0.1147;
907.2000;0.1465;-0.1099;
907.5000;0.1498;-0.1028;
907.8000;0.1465;-0.1075;
908.1000;0.1408;-0.1266;
908.4000;0.1473;-0.1099;
908.7000;0.1457;-0.1195;
909.0000;0.1473;-0.1147;
909.3000;0.1473;-0.1051;
909.6000;0.1457;-0.1123;
909.9000;0.1522;-0.0980;
910.2000;0.1465;-0.1051;
910.5000;0.1457;-0.1243;
910.8000;0.1416;-0.1338;
911.1000;0.1498;-0.1123;
911.4000;0.1571;-0.0980;
911.7000;0.1473;-0.1171;
912.0000;0.1490;-0.1075;
912.3000;0.1465;-0.1195;
912.6000;0.1498;-0.1147;
912.9000;0.1481;-0.1099;
913.2000;0.1457;-0.1147;
913.5000;0.1481;-0.1147;
913.8000;0.1481;-0.1195;
914.1000;0.1595;-0.0932;
914.4000;0.1465;-0.1290;
914.7000;0.1514;-0.1171;
915.0000;0.1392;-0.1505;
915.3000;0.1465;-0.1219;
915.6000;0.1481;-0.1266;
915.9000;0.1481;-0.1266;
916.2000;0.1465;-0.1362;
916.5000;0.1368;-0.1529;
916.8000;0.1449;-0.1243;
917.1000;0.1465;-0.1243;
917.4000;0.1465;-0.1243;
917.7000;0.1481;-0.1314;
918.0000;0.1473;-0.1314;
918.3000;0.1457;-0.1386;
918.6000;0.1465;-0.1386;
918.9000;0.1481;-0.1338;
919.2000;0.1473;-0.1338;
919.5000;0.1481;-0.1290;
919.8000;0.1481;-0.1338;
920.1000;0.1481;-0.1362;
920.4000;0.1473;-0.1386;
920.7000;0.1481;-0.1434;
921.0000;0.1563;-0.1243;
921.3000;0.1481;-0.1410;
921.6000;0.1473;-0.1338;
921.9000;0.1490;-0.1266;
922.2000;0.1465;-0.1290;
922.5000;0.1465;-0.1290;
922.8000;0.1498;-0.1266;
923.1000;0.1481;-0.1219;
923.4000;0.1473;-0.1171;
923.7000;0.1449;-0.1290;
924.0000;0.1408;-0.1338;
924.3000;0.1571;-0.0836;
924.6000;0.1481;-0.1075;
924.9000;0.1490;-0.1004;
925.2000;0.1441;-0.1028;
925.5000;0.1465;-0.0956;
925.8000;0.1498;-0.0884;
926.1000;0.1368;-0.1171;
926.4000;0.1473;-0.0956;
926.7000;0.1457;-0.1075;
927.0000;0.1481;-0.1051;
927.3000;0.1465;-0.1075;
927.6000;0.1465;-0.0956;
927.9000;0.1457;-0.1051;
928.2000;0.1522;-0.0884;
928.5000;0.1449;-0.1004;
928.8000;0.1465;-0.0956;
929.1000;0.1498;-0.0932;
929.4000;0.1465;-0.1075;
929.7000;0.1490;-0.1051;
930.0000;0.1465;-0.1147;
930.3000;0.1490;-0.1004;
930.6000;0.1498;-0.0956;
930.9000;0.1449;-0.1123;
931.2000;0.1498;-0.1099;
931.5000;0.1473;-0.1171;
931.8000;0.1481;-0.1075;
932.1000;0.1425;-0.1266;
932.4000;0.1490;-0.1075;
932.7000;0.1473;-0.1075;
933.0000;0.1449;-0.1195;
933.3000;0.1465;-0.1243;
933.6000;0.1490;-0.1123;
933.9000;0.1481;-0.1123;
934.2000;0.1490;-0.1147;
934.5000;0.1490;-0.1051;
934.8000;0.1481;-0.1123;
935.1000;0.1441;-0.1266;
935.4000;0.1538;-0.0956;
935.7000;0.1481;-0.1099;
936.0000;0.1490;-0.1051;
936.3000;0.1473;-0.1171;
936.6000;0.1473;-0.1147;
936.9000;0.1530;-0.1028;
937.2000;0.1498;-0.1195;
937.5000;0.1490;-0.1290;
937.8000;0.1465;-0.1386;
938.1000;0.1481;-0.1314;
938.4000;0.1465;-0.1338;
938.7000;0.1506;-0.1290;
939.0000;0.1547;-0.1171;
939.3000;0.1481;-0.1266;
939.6000;0.1473;-0.1266;
939.9000;0.1473;-0.1171;
940.2000;0.1465;-0.1123;
940.5000;0.1473;-0.1171;
940.8000;0.1473;-0.1195;
941.1000;0.1481;-0.1099;
941.4000;0.1506;-0.1028;
941.7000;0.1425;-0.1290;
942.0000;0.1522;-0.1051;
942.3000;0.1522;-0.1028;
942.6000;0.1522;-0.1075;
942.9000;0.1481;-0.1243;
943.2000;0.1490;-0.1171;
943.5000;0.1490;-0.1219;
943.8000;0.1465;-0.1195;
944.1000;0.1498;-0.1051;
944.4000;0.1465;-0.1075;
944.7000;0.1490;-0.1051;
945.0000;0.1465;-0.1147;
945.3000;0.1473;-0.1266;
945.6000;0.1490;-0.1195;
945.9000;0.1441;-0.1386;
946.2000;0.1473;-0.1362;
946.5000;0.1481;-0.1314;
946.8000;0.1498;-0.1266;
947.1000;0.1473;-0.1266;
947.4000;0.1481;-0.1243;
947.7000;0.1490;-0.1314;
948.0000;0.1465;-0.1434;
948.3000;0.1522;-0.1243;
948.6000;0.1457;-0.1410;
948.9000;0.1433;-0.1410;
949.2000;0.1514;-0.1147;
949.5000;0.1457;-0.1338;
949.8000;0.1473;-0.1290;
950.1000;0.1368;-0.1649;
950.4000;0.1465;-0.1338;
950.7000;0.1498;-0.1266;
951.0000;0.1465;-0.1386;
951.3000;0.1433;-0.1458;
951.6000;0.1481;-0.1362;
951.9000;0.1416;-0.1434;
952.2000;0.1473;-0.1290;
952.5000;0.1481;-0.1290;
952.8000;0.1490;-0.1290;
953.1000;0.1481;-0.1266;
953.4000;0.1457;-0.1362;
953.7000;0.1465;-0.1314;
954.0000;0.1457;-0.1362;
954.3000;0.1465;-0.1266;
954.6000;0.1473;-0.1219;
954.9000;0.1481;-0.1266;
955.2000;0.1490;-0.1266;
955.5000;0.1441;-0.1338;
955.8000;0.1514;-0.1147;
956.1000;0.1481;-0.1290;
956.4000;0.1481;-0.1338;
956.7000;0.1457;-0.1434;
957.0000;0.1481;-0.1386;
957.3000;0.1481;-0.1314;
957.6000;0.1457;-0.1243;
957.9000;0.1498;-0.1099;
958.2000;0.1481;-0.1195;
958.5000;0.1481;-0.1195;
958.8000;0.1473;-0.1219;
959.1000;0.1481;-0.1123;
959.4000;0.1481;-0.1195;
959.7000;0.1465;-0.1266;
960.0000;0.1449;-0.1266;
960.3000;0.1498;-0.1171;
960.6000;0.1465;-0.1314;
960.9000;0.1457;-0.1410;
961.2000;0.1457;-0.1434;
961.5000;0.1441;-0.1410;
961.8000;0.1465;-0.1314;
962.1000;0.1473;-0.1290;
962.4000;0.1481;-0.1290;
962.7000;0.1481;-0.1338;
963.0000;0.1425;-0.1482;
963.3000;0.1473;-0.1290;
963.6000;0.1465;-0.1219;
963.9000;0.1579;-0.0980;
964.2000;0.1433;-0.1410;
964.5000;0.1490;-0.1362;
964.8000;0.1481;-0.1362;
965.1000;0.1481;-0.1410;
965.4000;0.1465;-0.1434;
965.7000;0.1473;-0.1505;
966.0000;0.1473;-0.1505;
966.3000;0.1465;-0.1458;
966.6000;0.1473;-0.1266;
966.9000;0.1473;-0.1243;
967.2000;0.1465;-0.1386;
967.5000;0.1481;-0.1362;
967.8000;0.1538;-0.1099;
968.1000;0.1498;-0.1195;
968.4000;0.1473;-0.1266;
968.7000;0.1473;-0.1362;
969.0000;0.1490;-0.1314;
969.3000;0.1481;-0.1362;
969.6000;0.1457;-0.1434;
969.9000;0.1506;-0.1386;
970.2000;0.1473;-0.1386;
970.5000;0.1481;-0.1410;
970.8000;0.1457;-0.1434;
971.1000;0.1449;-0.1458;
971.4000;0.1465;-0.1434;
971.7000;0.1465;-0.1434;
972.0000;0.1490;-0.1338;
972.3000;0.1433;-0.1434;
972.6000;0.1473;-0.1338;
972.9000;0.1457;-0.1386;
973.2000;0.1473;-0.1338;
973.5000;0.1473;-0.1386;
973.8000;0.1473;-0.1410;
974.1000;0.1481;-0.1434;
974.4000;0.1449;-0.1458;
974.7000;0.1481;-0.1386;
975.0000;0.1481;-0.1386;
975.3000;0.1457;-0.1386;
975.6000;0.1473;-0.1434;
975.9000;0.1457;-0.1482;
976.2000;0.1465;-0.1458;
976.5000;0.1473;-0.1410;
976.8000;0.1473;-0.1386;
977.1000;0.1449;-0.1386;
977.4000;0.1490;-0.1266;
977.7000;0.1490;-0.1266;
978.0000;0.1473;-0.1290;
978.3000;0.1481;-0.1290;
978.6000;0.1481;-0.1290;
978.9000;0.1473;-0.1290;
979.2000;0.1457;-0.1290;
979.5000;0.1481;-0.1195;
979.8000;0.1473;-0.1290;
980.1000;0.1481;-0.1195;
980.4000;0.1498;-0.1171;
980.7000;0.1449;-0.1338;
981.0000;0.1481;-0.1243;
981.3000;0.1441;-0.1434;
981.6000;0.1465;-0.1338;
981.9000;0.1465;-0.1290;
982.2000;0.1555;-0.1051;
982.5000;0.1506;-0.1171;
982.8000;0.1465;-0.1099;
983.1000;0.1457;-0.1147;
983.4000;0.1555;-0.0956;
983.7000;0.1481;-0.1243;
984.0000;0.1506;-0.1123;
984.3000;0.1490;-0.1123;
984.6000;0.1490;-0.1099;
984.9000;0.1449;-0.1219;
985.2000;0.1473;-0.1290;
985.5000;0.1473;-0.1195;
985.8000;0.1538;-0.0980;
986.1000;0.1514;-0.0980;
986.4000;0.1481;-0.1099;
986.7000;0.1547;-0.1004;
987.0000;0.1465;-0.1147;
987.3000;0.1506;-0.1099;
987.6000;0.1433;-0.1266;
987.9000;0.1481;-0.1051;
988.2000;0.1465;-0.1028;
988.5000;0.1538;-0.0860;
988.8000;0.1457;-0.1028;
989.1000;0.1465;-0.1028;
989.4000;0.1449;-0.1028;
989.7000;0.1481;-0.0908;
990.0000;0.1530;-0.0789;
990.3000;0.1481;-0.0908;
990.6000;0.1473;-0.0860;
990.9000;0.1433;-0.1075;
991.2000;0.1481;-0.0884;
991.5000;0.1433;-0.1075;
991.8000;0.1457;-0.0932;
992.1000;0.1449;-0.0932;
992.4000;0.1473;-0.0908;
992.7000;0.1571;-0.0669;
993.0000;0.1473;-0.0908;
993.3000;0.1481;-0.1028;
993.6000;0.1473;-0.1028;
993.9000;0.1571;-0.0669;
994.2000;0.1473;-0.0884;
994.5000;0.1498;-0.0860;
994.8000;0.1473;-0.0932;
995.1000;0.1538;-0.0717;
995.4000;0.1481;-0.0980;
995.7000;0.1490;-0.1004;
996.0000;0.1457;-0.1195;
996.3000;0.1465;-0.1099;
996.6000;0.1490;-0.1004;
996.9000;0.1490;-0.1051;
997.2000;0.1481;-0.1028;
997.5000;0.1465;-0.1195;
997.8000;0.1465;-0.1147;
998.1000;0.1294;-0.1458;
998.4000;0.1481;-0.1075;
998.7000;0.1465;-0.1099;
999.0000;0.1481;-0.1075;
999.3000;0.1490;-0.1099;
999.6000;0.1498;-0.1075;
999.9000;0.1473;-0.1219;
1000.2000;0.1481;-0.1195;
1000.5000;0.1490;-0.1171;
1000.8000;0.1473;-0.1171;
1001.1000;0.1490;-0.1123;
1001.4000;0.1449;-0.1147;
1001.7000;0.1473;-0.0980;
1002.0000;0.1449;-0.0980;
1002.3000;0.1506;-0.0908;
1002.6000;0.1473;-0.1004;
1002.9000;0.1473;-0.1028;
1003.2000;0.1490;-0.1051;
1003.5000;0.1481;-0.1004;
1003.8000;0.1481;-0.0980;
1004.1000;0.1473;-0.0956;
1004.4000;0.1457;-0.0956;
1004.7000;0.1473;-0.0884;
1005.0000;0.1481;-0.0908;
1005.3000;0.1465;-0.0956;
1005.6000;0.1555;-0.0693;
1005.9000;0.1481;-0.0884;
1006.2000;0.1514;-0.0860;
1006.5000;0.1481;-0.0956;
1006.8000;0.1473;-0.1004;
1007.1000;0.1490;-0.0980;
1007.4000;0.1408;-0.1147;
1007.7000;0.1465;-0.1004;
1008.0000;0.1490;-0.1004;
1008.3000;0.1522;-0.0932;
1008.6000;0.1449;-0.1147;
1008.9000;0.1465;-0.1195;
1009.2000;0.1595;-0.0860;
1009.5000;0.1441;-0.1243;
1009.8000;0.1473;-0.1099;
1010.1000;0.1498;-0.1051;
1010.4000;0.1457;-0.1051;
1010.7000;0.1481;-0.0908;
1011.0000;0.1490;-0.0860;
1011.3000;0.1457;-0.0860;
1011.6000;0.1514;-0.0717;
1011.9000;0.1490;-0.0812;
1012.2000;0.1481;-0.0884;
1012.5000;0.1473;-0.0932;
1012.8000;0.1473;-0.0956;
1013.1000;0.1465;-0.0908;
1013.4000;0.1473;-0.0932;
1013.7000;0.1473;-0.1004;
1014.0000;0.1481;-0.1028;
1014.3000;0.1457;-0.1123;
1014.6000;0.1457;-0.1099;
1014.9000;0.1481;-0.1147;
1015.2000;0.1481;-0.1219;
1015.5000;0.1473;-0.1219;
1015.8000;0.1481;-0.1266;
1016.1000;0.1457;-0.1290;
1016.4000;0.1514;-0.1147;
1016.7000;0.1481;-0.1195;
1017.0000;0.1481;-0.1147;
1017.3000;0.1473;-0.1266;
1017.6000;0.1490;-0.1266;
1017.9000;0.1449;-0.1290;
1018.2000;0.1465;-0.1266;
1018.5000;0.1473;-0.1075;
1018.8000;0.1498;-0.1123;
1019.1000;0.1514;-0.1099;
1019.4000;0.1457;-0.1171;
1019.7000;0.1481;-0.1075;
1020.0000;0.1490;-0.1123;
1020.3000;0.1465;-0.1219;
1020.6000;0.1465;-0.1219;
1020.9000;0.1490;-0.1123;
1021.2000;0.1514;-0.1004;
1021.5000;0.1490;-0.1171;
1021.8000;0.1465;-0.1219;
1022.1000;0.1465;-0.1266;
1022.4000;0.1481;-0.1219;
1022.7000;0.1490;-0.1219;
1023.0000;0.1498;-0.1338;
1023.3000;0.1473;-0.1362;
1023.6000;0.1481;-0.1314;
1023.9000;0.1498;-0.1290;
1024.2000;0.1481;-0.1386;
1024.5000;0.1481;-0.1314;
1024.8000;0.1473;-0.1338;
1025.1000;0.1473;-0.1219;
1025.4000;0.1449;-0.1338;
1025.7000;0.1465;-0.1219;
1026.0000;0.1449;-0.1243;
1026.3000;0.1481;-0.1075;
1026.6000;0.1441;-0.1123;
1026.9000;0.1522;-0.0908;
1027.2000;0.1457;-0.1004;
1027.5000;0.1465;-0.0980;
1027.8000;0.1498;-0.1004;
1028.1000;0.1481;-0.1099;
1028.4000;0.1473;-0.1171;
1028.7000;0.1490;-0.1219;
1029.0000;0.1514;-0.1099;
1029.3000;0.1465;-0.1219;
1029.6000;0.1457;-0.1243;
1029.9000;0.1481;-0.1243;
1030.2000;0.1473;-0.1290;
1030.5000;0.1465;-0.1266;
1030.8000;0.1481;-0.1243;
1031.1000;0.1481;-0.1195;
1031.4000;0.1473;-0.1123;
1031.7000;0.1490;-0.1075;
1032.0000;0.1473;-0.1051;
1032.3000;0.1473;-0.0980;
1032.6000;0.1457;-0.1123;
1032.9000;0.1481;-0.1123;
1033.2000;0.1506;-0.1123;
1033.5000;0.1498;-0.1195;
1033.8000;0.1490;-0.1266;
1034.1000;0.1538;-0.1075;
1034.4000;0.1498;-0.1219;
1034.7000;0.1473;-0.1243;
1035.0000;0.1514;-0.1123;
1035.3000;0.1457;-0.1123;
1035.6000;0.1473;-0.1123;
1035.9000;0.1457;-0.1219;
1036.2000;0.1457;-0.1171;
1036.5000;0.1425;-0.1195;
1036.8000;0.1335;-0.1434;
1037.1000;0.1481;-0.1171;
1037.4000;0.1530;-0.1099;
1037.7000;0.1481;-0.1290;
1038.0000;0.1465;-0.1314;
1038.3000;0.1400;-0.1482;
1038.6000;0.1481;-0.1243;
1038.9000;0.1547;-0.0980;
1039.2000;0.1490;-0.1147;
1039.5000;0.1490;-0.1195;
1039.8000;0.1481;-0.1195;
1040.1000;0.1465;-0.1171;
1040.4000;0.1449;-0.1266;
1040.7000;0.1473;-0.1219;
1041.0000;0.1449;-0.1243;
1041.3000;0.1481;-0.1243;
1041.6000;0.1498;-0.1147;
1041.9000;0.1457;-0.1219;
1042.2000;0.1530;-0.1051;
1042.5000;0.1481;-0.1147;
1042.8000;0.1465;-0.1171;
1043.1000;0.1433;-0.1362;
1043.4000;0.1465;-0.1266;
1043.7000;0.1490;-0.1219;
1044.0000;0.1408;-0.1410;
1044.3000;0.1457;-0.1290;
1044.6000;0.1490;-0.1195;
1044.9000;0.1441;-0.1266;
1045.2000;0.1481;-0.1147;
1045.5000;0.1490;-0.1123;
1045.8000;0.1595;-0.0789;
1046.1000;0.1457;-0.1195;
1046.4000;0.1498;-0.1123;
1046.7000;0.1449;-0.1219;
1047.0000;0.1433;-0.1314;
1047.3000;0.1465;-0.1219;
1047.6000;0.1481;-0.1099;
1047.9000;0.1473;-0.1147;
1048.2000;0.1465;-0.1219;
1048.5000;0.1490;-0.1219;
1048.8000;0.1481;-0.1243;
1049.1000;0.1449;-0.1314;
1049.4000;0.1490;-0.1171;
1049.7000;0.1457;-0.1290;
1050.0000;0.1473;-0.1195;
1050.3000;0.1473;-0.1147;
1050.6000;0.1555;-0.0836;
1050.9000;0.1481;-0.1051;
1051.2000;0.1481;-0.0956;
1051.5000;0.1457;-0.1028;
1051.8000;0.1481;-0.0932;
1052.1000;0.1481;-0.0884;
1052.4000;0.1457;-0.1004;
1052.7000;0.1465;-0.1028;
1053.0000;0.1465;-0.1123;
1053.3000;0.1465;-0.1123;
1053.6000;0.1481;-0.1099;
1053.9000;0.1449;-0.1219;
1054.2000;0.1449;-0.1147;
1054.5000;0.1473;-0.1171;
1054.8000;0.1473;-0.1147;
1055.1000;0.1498;-0.1051;
1055.4000;0.1481;-0.1075;
1055.7000;0.1473;-0.1099;
1056.0000;0.1473;-0.1171;
1056.3000;0.1473;-0.1195;
1056.6000;0.1522;-0.1051;
1056.9000;0.1457;-0.1243;
1057.2000;0.1481;-0.1123;
1057.5000;0.1490;-0.1123;
1057.8000;0.1392;-0.1314;
1058.1000;0.1449;-0.1099;
1058.4000;0.1481;-0.1075;
1058.7000;0.1498;-0.1075;
1059.0000;0.1465;-0.1123;
1059.3000;0.1547;-0.0980;
1059.6000;0.1514;-0.1099;
1059.9000;0.1425;-0.1314;
1060.2000;0.1490;-0.1147;
1060.5000;0.1498;-0.1171;
1060.8000;0.1490;-0.1123;
1061.1000;0.1481;-0.1075;
1061.4000;0.1351;-0.1505;
1061.7000;0.1579;-0.0932;
1062.0000;0.1465;-0.1219;
1062.3000;0.1425;-0.1266;
1062.6000;0.1481;-0.1123;
1062.9000;0.1506;-0.0980;
1063.2000;0.1473;-0.1099;
1063.5000;0.1465;-0.1219;
1063.8000;0.1490;-0.1219;
1064.1000;0.1465;-0.1219;
1064.4000;0.1465;-0.1266;
1064.7000;0.1465;-0.1243;
1065.0000;0.1514;-0.1123;
1065.3000;0.1490;-0.1075;
1065.6000;0.1481;-0.1195;
1065.9000;0.1465;-0.1290;
1066.2000;0.1473;-0.1219;
1066.5000;0.1481;-0.1219;
1066.8000;0.1481;-0.1171;
1067.1000;0.1473;-0.1171;
1067.4000;0.1490;-0.1123;
1067.7000;0.1490;-0.1075;
1068.0000;0.1425;-0.1266;
1068.3000;0.1490;-0.1123;
1068.6000;0.1498;-0.1147;
1068.9000;0.1481;-0.1195;
1069.2000;0.1457;-0.1290;
1069.5000;0.1498;-0.1147;
1069.8000;0.1416;-0.1314;
1070.1000;0.1481;-0.1147;
1070.4000;0.1473;-0.1123;
1070.7000;0.1465;-0.1171;
1071.0000;0.1449;-0.1266;
1071.3000;0.1465;-0.1266;
1071.6000;0.1506;-0.1243;
1071.9000;0.1449;-0.1266;
1072.2000;0.1490;-0.1243;
1072.5000;0.1473;-0.1266;
1072.8000;0.1473;-0.1243;
1073.1000;0.1490;-0.1147;
1073.4000;0.1473;-0.1171;
1073.7000;0.1490;-0.1123;
1074.0000;0.1481;-0.1171;
1074.3000;0.1416;-0.1290;
1074.6000;0.1457;-0.1147;
1074.9000;0.1481;-0.1099;
1075.2000;0.1368;-0.1338;
1075.5000;0.1473;-0.1028;
1075.8000;0.1416;-0.1099;
1076.1000;0.1473;-0.1028;
1076.4000;0.1457;-0.1171;
1076.7000;0.1498;-0.1123;
1077.0000;0.1449;-0.1266;
1077.3000;0.1433;-0.1314;
1077.6000;0.1473;-0.1171;
1077.9000;0.1449;-0.1123;
1078.2000;0.1563;-0.0860;
1078.5000;0.1490;-0.1028;
1078.8000;0.1514;-0.0980;
1079.1000;0.1473;-0.1099;
1079.4000;0.1473;-0.1075;
1079.7000;0.1473;-0.1171;
1080.0000;0.1465;-0.1123;
1080.3000;0.1433;-0.1147;
1080.6000;0.1473;-0.1099;
1080.9000;0.1498;-0.1099;
1081.2000;0.1490;-0.1123;
1081.5000;0.1457;-0.1123;
1081.8000;0.1457;-0.1099;
1082.1000;0.1506;-0.0980;
1082.4000;0.1473;-0.1123;
1082.7000;0.1490;-0.1051;
1083.0000;0.1473;-0.1099;
1083.3000;0.1416;-0.1171;
1083.6000;0.1473;-0.1099;
1083.9000;0.1490;-0.1075;
1084.2000;0.1465;-0.1147;
1084.5000;0.1481;-0.1147;
1084.8000;0.1465;-0.1171;
1085.1000;0.1465;-0.1051;
1085.4000;0.1425;-0.1099;
1085.7000;0.1490;-0.0884;
1086.0000;0.1506;-0.0932;
1086.3000;0.1481;-0.1051;
1086.6000;0.1498;-0.1051;
1086.9000;0.1425;-0.1171;
1087.2000;0.1506;-0.1028;
1087.5000;0.1490;-0.1123;
1087.8000;0.1473;-0.1075;
1088.1000;0.1481;-0.0980;
1088.4000;0.1481;-0.1028;
1088.7000;0.1449;-0.1123;
1089.0000;0.1490;-0.0932;
1089.3000;0.1465;-0.1051;
1089.6000;0.1490;-0.1075;
1089.9000;0.1481;-0.1195;
1090.2000;0.1433;-0.1410;
1090.5000;0.1465;-0.1338;
1090.8000;0.1465;-0.1362;
1091.1000;0.1481;-0.1290;
1091.4000;0.1465;-0.1290;
1091.7000;0.1481;-0.1266;
1092.0000;0.1498;-0.1075;
1092.3000;0.1490;-0.1051;
1092.6000;0.1481;-0.1075;
1092.9000;0.1481;-0.1195;
1093.2000;0.1563;-0.0980;
1093.5000;0.1506;-0.1171;
1093.8000;0.1498;-0.1171;
1094.1000;0.1473;-0.1147;
1094.4000;0.1514;-0.1028;
1094.7000;0.1481;-0.1075;
1095.0000;0.1506;-0.0932;
1095.3000;0.1490;-0.0956;
1095.6000;0.1457;-0.1075;
1095.9000;0.1441;-0.1195;
1096.2000;0.1473;-0.1171;
1096.5000;0.1481;-0.1147;
1096.8000;0.1457;-0.1171;
1097.1000;0.1481;-0.1243;
1097.4000;0.1473;-0.1147;
1097.7000;0.1481;-0.1195;
1098.0000;0.1457;-0.1243;
1098.3000;0.1506;-0.1051;
1098.6000;0.1425;-0.1290;
1098.9000;0.1506;-0.1004;
1099.2000;0.1384;-0.1266;
1099.5000;0.1473;-0.0980;
1099.8000;0.1473;-0.1004;
1100.1000;0.1490;-0.1075;
1100.4000;0.1441;-0.1171;
1100.7000;0.1555;-0.0789;
1101.0000;0.1506;-0.0884;
1101.3000;0.1481;-0.0932;
1101.6000;0.1473;-0.0908;
1101.9000;0.1465;-0.1004;
1102.2000;0.1457;-0.1123;
1102.5000;0.1481;-0.1051;
1102.8000;0.1481;-0.1051;
1103.1000;0.1465;-0.1075;
1103.4000;0.1465;-0.1075;
1103.7000;0.1481;-0.1123;
1104.0000;0.1506;-0.1075;
1104.3000;0.1506;-0.0956;
1104.6000;0.1498;-0.0980;
1104.9000;0.1465;-0.1147;
1105.2000;0.1457;-0.1243;
1105.5000;0.1473;-0.1243;
1105.8000;0.1465;-0.1243;
1106.1000;0.1465;-0.1243;
1106.4000;0.1465;-0.1195;
1106.7000;0.1473;-0.1195;
1107.0000;0.1465;-0.1243;
1107.3000;0.1465;-0.1219;
1107.6000;0.1343;-0.1529;
1107.9000;0.1449;-0.1290;
1108.2000;0.1449;-0.1266;
1108.5000;0.1416;-0.1362;
1108.8000;0.1490;-0.1171;
1109.1000;0.1473;-0.1266;
1109.4000;0.1465;-0.1266;
1109.7000;0.1490;-0.1243;
1110.0000;0.1490;-0.1290;
1110.3000;0.1498;-0.1219;
1110.6000;0.1498;-0.1266;
1110.9000;0.1433;-0.1410;
1111.2000;0.1506;-0.1195;
1111.5000;0.1490;-0.1219;
1111.8000;0.1481;-0.1123;
1112.1000;0.1441;-0.1290;
1112.4000;0.1506;-0.1195;
1112.7000;0.1465;-0.1314;
1113.0000;0.1490;-0.1243;
1113.3000;0.1522;-0.1171;
1113.6000;0.1473;-0.1314;
1113.9000;0.1490;-0.1243;
1114.2000;0.1457;-0.1314;
1114.5000;0.1490;-0.1219;
1114.8000;0.1490;-0.1243;
1115.1000;0.1490;-0.1266;
1115.4000;0.1490;-0.1219;
1115.7000;0.1490;-0.1290;
1116.0000;0.1506;-0.1147;
1116.3000;0.1465;-0.1195;
1116.6000;0.1490;-0.1123;
1116.9000;0.1473;-0.1171;
1117.2000;0.1465;-0.1219;
1117.5000;0.1457;-0.1290;
1117.8000;0.1473;-0.1243;
1118.1000;0.1481;-0.1338;
1118.4000;0.1498;-0.1290;
1118.7000;0.1457;-0.1410;
1119.0000;0.1473;-0.1386;
1119.3000;0.1506;-0.1314;
1119.6000;0.1481;-0.1362;
1119.9000;0.1457;-0.1338;
1120.2000;0.1481;-0.1243;
1120.5000;0.1473;-0.1243;
1120.8000;0.1490;-0.1195;
1121.1000;0.1465;-0.1290;
1121.4000;0.1538;-0.1099;
1121.7000;0.1465;-0.1266;
1122.0000;0.1425;-0.1362;
1122.3000;0.1441;-0.1314;
1122.6000;0.1490;-0.1266;
1122.9000;0.1473;-0.1290;
1123.2000;0.1498;-0.1266;
1123.5000;0.1473;-0.1314;
1123.8000;0.1481;-0.1314;
1124.1000;0.1473;-0.1314;
1124.4000;0.1457;-0.1290;
1124.7000;0.1490;-0.1147;
1125.0000;0.1465;-0.1243;
1125.3000;0.1490;-0.1219;
1125.6000;0.1506;-0.1171;
1125.9000;0.1384;-0.1553;
1126.2000;0.1490;-0.1314;
1126.5000;0.1425;-0.1458;
1126.8000;0.1473;-0.1362;
1127.1000;0.1490;-0.1314;
1127.4000;0.1473;-0.1338;
1127.7000;0.1473;-0.1386;
1128.0000;0.1498;-0.1290;
1128.3000;0.1465;-0.1266;
1128.6000;0.1473;-0.1290;
1128.9000;0.1457;-0.1386;
1129.2000;0.1449;-0.1243;
1129.5000;0.1514;-0.1171;
1129.8000;0.1490;-0.1195;
1130.1000;0.1457;-0.1219;
1130.4000;0.1490;-0.1195;
1130.7000;0.1433;-0.1338;
1131.0000;0.1465;-0.1219;
1131.3000;0.1465;-0.1099;
1131.6000;0.1473;-0.1051;
1131.9000;0.1473;-0.1123;
1132.2000;0.1449;-0.1219;
1132.5000;0.1530;-0.1123;
1132.8000;0.1465;-0.1362;
1133.1000;0.1490;-0.1266;
1133.4000;0.1522;-0.1171;
1133.7000;0.1465;-0.1338;
1134.0000;0.1530;-0.1219;
1134.3000;0.1465;-0.1386;
1134.6000;0.1481;-0.1458;
1134.9000;0.1473;-0.1410;
1135.2000;0.1481;-0.1314;
1135.5000;0.1465;-0.1338;
1135.8000;0.1465;-0.1362;
1136.1000;0.1555;-0.1266;
1136.4000;0.1473;-0.1553;
1136.7000;0.1490;-0.1601;
1137.0000;0.1465;-0.1625;
1137.3000;0.1498;-0.1553;
1137.6000;0.1498;-0.1458;
1137.9000;0.1457;-0.1505;
1138.2000;0.1376;-0.1744;
1138.5000;0.1481;-0.1529;
1138.8000;0.1473;-0.1505;
1139.1000;0.1457;-0.1529;
1139.4000;0.1473;-0.1577;
1139.7000;0.1457;-0.1577;
1140.0000;0.1465;-0.1529;
1140.3000;0.1416;-0.1601;
1140.6000;0.1490;-0.1458;
1140.9000;0.1473;-0.1553;
1141.2000;0.1481;-0.1601;
1141.5000;0.1481;-0.1553;
1141.8000;0.1481;-0.1482;
1142.1000;0.1620;-0.1004;
1142.4000;0.1481;-0.1386;
1142.7000;0.1506;-0.1362;
1143.0000;0.1359;-0.1744;
1143.3000;0.1481;-0.1338;
1143.6000;0.1465;-0.1386;
1143.9000;0.1481;-0.1338;
1144.2000;0.1563;-0.1195;
1144.5000;0.1498;-0.1410;
1144.8000;0.1473;-0.1434;
1145.1000;0.1481;-0.1362;
1145.4000;0.1465;-0.1458;
1145.7000;0.1481;-0.1386;
1146.0000;0.1473;-0.1386;
1146.3000;0.1571;-0.1051;
1146.6000;0.1441;-0.1338;
1146.9000;0.1457;-0.1290;
1147.2000;0.1498;-0.1338;
1147.5000;0.1514;-0.1362;
1147.8000;0.1490;-0.1482;
1148.1000;0.1465;-0.1505;
1148.4000;0.1457;-0.1410;
1148.7000;0.1425;-0.1505;
1149.0000;0.1481;-0.1338;
1149.3000;0.1490;-0.1314;
1149.6000;0.1449;-0.1458;
1149.9000;0.1498;-0.1410;
1150.2000;0.1498;-0.1434;
1150.5000;0.1490;-0.1458;
1150.8000;0.1449;-0.1553;
1151.1000;0.1473;-0.1529;
1151.4000;0.1530;-0.1362;
1151.7000;0.1465;-0.1482;
1152.0000;0.1490;-0.1529;
1152.3000;0.1481;-0.1434;
1152.6000;0.1498;-0.1434;
1152.9000;0.1481;-0.1434;
1153.2000;0.1490;-0.1410;
1153.5000;0.1416;-0.1673;
1153.8000;0.1506;-0.1458;
1154.1000;0.1473;-0.1553;
1154.4000;0.1490;-0.1505;
1154.7000;0.1490;-0.1505;
1155.0000;0.1441;-0.1601;
1155.3000;0.1490;-0.1434;
1155.6000;0.1457;-0.1553;
1155.9000;0.1481;-0.1434;
1156.2000;0.1530;-0.1243;
1156.5000;0.1498;-0.1362;
1156.8000;0.1481;-0.1410;
1157.1000;0.1473;-0.1410;
1157.4000;0.1481;-0.1410;
1157.7000;0.1498;-0.1434;
1158.0000;0.1400;-0.1649;
1158.3000;0.1465;-0.1529;
1158.6000;0.1481;-0.1529;
1158.9000;0.1465;-0.1577;
1159.2000;0.1490;-0.1577;
1159.5000;0.1481;-0.1529;
1159.8000;0.1481;-0.1601;
1160.1000;0.1473;-0.1529;
1160.4000;0.1473;-0.1482;
1160.7000;0.1465;-0.1482;
1161.0000;0.1498;-0.1458;
1161.3000;0.1473;-0.1553;
1161.6000;0.1465;-0.1458;
1161.9000;0.1473;-0.1314;
1162.2000;0.1473;-0.1266;
1162.5000;0.1481;-0.1219;
1162.8000;0.1498;-0.1266;
1163.1000;0.1481;-0.1338;
1163.4000;0.1490;-0.1219;
1163.7000;0.1449;-0.1410;
1164.0000;0.1465;-0.1410;
1164.3000;0.1481;-0.1386;
1164.6000;0.1473;-0.1362;
1164.9000;0.1473;-0.1314;
1165.2000;0.1490;-0.1386;
1165.5000;0.1449;-0.1482;
1165.8000;0.1490;-0.1410;
1166.1000;0.1481;-0.1386;
1166.4000;0.1490;-0.1386;
1166.7000;0.1490;-0.1410;
1167.0000;0.1343;-0.1768;
1167.3000;0.1465;-0.1434;
1167.6000;0.1473;-0.1434;
1167.9000;0.1433;-0.1601;
1168.2000;0.1465;-0.1505;
1168.5000;0.1449;-0.1601;
1168.8000;0.1481;-0.1482;
1169.1000;0.1473;-0.1458;
1169.4000;0.1473;-0.1458;
1169.7000;0.1490;-0.1434;
1170.0000;0.1481;-0.1458;
1170.3000;0.1490;-0.1362;
1170.6000;0.1433;-0.1434;
1170.9000;0.1481;-0.1386;
1171.2000;0.1457;-0.1338;
1171.5000;0.1473;-0.1362;
1171.8000;0.1473;-0.1338;
1172.1000;0.1481;-0.1434;
1172.4000;0.1506;-0.1434;
1172.7000;0.1481;-0.1482;
1173.0000;0.1506;-0.1314;
1173.3000;0.1473;-0.1362;
1173.6000;0.1481;-0.1338;
1173.9000;0.1473;-0.1338;
1174.2000;0.1579;-0.1075;
1174.5000;0.1514;-0.1243;
1174.8000;0.1465;-0.1338;
1175.1000;0.1498;-0.1314;
1175.4000;0.1514;-0.1314;
1175.7000;0.1457;-0.1386;
1176.0000;0.1449;-0.1386;
1176.3000;0.1473;-0.1386;
1176.6000;0.1449;-0.1482;
1176.9000;0.1457;-0.1482;
1177.2000;0.1473;-0.1386;
1177.5000;0.1506;-0.1290;
1177.8000;0.1473;-0.1362;
1178.1000;0.1481;-0.1410;
1178.4000;0.1441;-0.1505;
1178.7000;0.1441;-0.1553;
1179.0000;0.1465;-0.1505;
1179.3000;0.1514;-0.1314;
1179.6000;0.1481;-0.1434;
1179.9000;0.1441;-0.1577;
1180.2000;0.1490;-0.1386;
1180.5000;0.1481;-0.1386;
1180.8000;0.1465;-0.1458;
1181.1000;0.1490;-0.1434;
1181.4000;0.1498;-0.1458;
1181.7000;0.1473;-0.1553;
1182.0000;0.1473;-0.1577;
1182.3000;0.1481;-0.1601;
1182.6000;0.1490;-0.1577;
1182.9000;0.1498;-0.1601;
1183.2000;0.1457;-0.1673;
1183.5000;0.1490;-0.1529;
1183.8000;0.1490;-0.1505;
1184.1000;0.1490;-0.1458;
1184.4000;0.1498;-0.1458;
1184.7000;0.1473;-0.1529;
1185.0000;0.1481;-0.1505;
1185.3000;0.1465;-0.1625;
1185.6000;0.1498;-0.1482;
1185.9000;0.1490;-0.1505;
1186.2000;0.1368;-0.1744;
1186.5000;0.1449;-0.1577;
1186.8000;0.1481;-0.1505;
1187.1000;0.1465;-0.1577;
1187.4000;0.1465;-0.1577;
1187.7000;0.1457;-0.1529;
1188.0000;0.1481;-0.1434;
1188.3000;0.1473;-0.1458;
1188.6000;0.1481;-0.1434;
1188.9000;0.1457;-0.1434;
1189.2000;0.1514;-0.1243;
1189.5000;0.1530;-0.1171;
1189.8000;0.1465;-0.1458;
1190.1000;0.1465;-0.1482;
1190.4000;0.1473;-0.1505;
1190.7000;0.1457;-0.1505;
1191.0000;0.1498;-0.1434;
1191.3000;0.1465;-0.1505;
1191.6000;0.1506;-0.1410;
1191.9000;0.1408;-0.1625;
1192.2000;0.1490;-0.1458;
1192.5000;0.1473;-0.1434;
1192.8000;0.1473;-0.1410;
1193.1000;0.1376;-0.1744;
1193.4000;0.1481;-0.1386;
1193.7000;0.1465;-0.1505;
1194.0000;0.1449;-0.1601;
1194.3000;0.1449;-0.1649;
1194.6000;0.1408;-0.1721;
1194.9000;0.1473;-0.1482;
1195.2000;0.1490;-0.1386;
1195.5000;0.1481;-0.1434;
1195.8000;0.1465;-0.1386;
1196.1000;0.1481;-0.1362;
1196.4000;0.1530;-0.1195;
1196.7000;0.1473;-0.1314;
1197.0000;0.1441;-0.1434;
1197.3000;0.1506;-0.1314;
1197.6000;0.1506;-0.1290;
1197.9000;0.1481;-0.1314;
1198.2000;0.1425;-0.1482;
1198.5000;0.1514;-0.1171;
1198.8000;0.1490;-0.1266;
1199.1000;0.1506;-0.1147;
1199.4000;0.1481;-0.1219;
1199.7000;0.1473;-0.1314;
1200.0000;0.1457;-0.1386;
1200.3000;0.1481;-0.1266;
1200.6000;0.1465;-0.1338;
1200.9000;0.1457;-0.1434;
1201.2000;0.1490;-0.1338;
1201.5000;0.1449;-0.1458;
1201.8000;0.1465;-0.1434;
1202.1000;0.1473;-0.1458;
1202.4000;0.1473;-0.1482;
1202.7000;0.1473;-0.1505;
1203.0000;0.1481;-0.1482;
1203.3000;0.1465;-0.1505;
1203.6000;0.1498;-0.1482;
1203.9000;0.1465;-0.1601;
1204.2000;0.1473;-0.1577;
1204.5000;0.1514;-0.1386;
1204.8000;0.1457;-0.1721;
1205.1000;0.1473;-0.1577;
1205.4000;0.1490;-0.1505;
1205.7000;0.1473;-0.1505;
1206.0000;0.1490;-0.1482;
1206.3000;0.1490;-0.1434;
1206.6000;0.1498;-0.1410;
1206.9000;0.1555;-0.1266;
1207.2000;0.1425;-0.1601;
1207.5000;0.1465;-0.1529;
1207.8000;0.1481;-0.1505;
1208.1000;0.1465;-0.1529;
1208.4000;0.1473;-0.1458;
1208.7000;0.1465;-0.1505;
1209.0000;0.1490;-0.1458;
1209.3000;0.1571;-0.1219;
1209.6000;0.1490;-0.1505;
1209.9000;0.1457;-0.1529;
1210.2000;0.1465;-0.1553;
1210.5000;0.1449;-0.1601;
1210.8000;0.1490;-0.1458;
1211.1000;0.1449;-0.1505;
1211.4000;0.1441;-0.1434;
1211.7000;0.1604;-0.1004;
1212.0000;0.1490;-0.1362;
1212.3000;0.1481;-0.1314;
1212.6000;0.1490;-0.1338;
1212.9000;0.1490;-0.1338;
1213.2000;0.1514;-0.1290;
1213.5000;0.1481;-0.1243;
1213.8000;0.1465;-0.1243;
1214.1000;0.1490;-0.1243;
1214.4000;0.1441;-0.1434;
1214.7000;0.1481;-0.1362;
1215.0000;0.1481;-0.1266;
1215.3000;0.1490;-0.1219;
1215.6000;0.1538;-0.1075;
1215.9000;0.1473;-0.1219;
1216.2000;0.1465;-0.1195;
1216.5000;0.1473;-0.1195;
1216.8000;0.1457;-0.1314;
1217.1000;0.1481;-0.1123;
1217.4000;0.1498;-0.1075;
1217.7000;0.1498;-0.1051;
1218.0000;0.1481;-0.1147;
1218.3000;0.1481;-0.1171;
1218.6000;0.1457;-0.1266;
1218.9000;0.1449;-0.1362;
1219.2000;0.1465;-0.1410;
1219.5000;0.1498;-0.1434;
1219.8000;0.1441;-0.1625;
1220.1000;0.1490;-0.1505;
1220.4000;0.1441;-0.1505;
1220.7000;0.1473;-0.1434;
1221.0000;0.1473;-0.1314;
1221.3000;0.1473;-0.1386;
1221.6000;0.1498;-0.1243;
1221.9000;0.1473;-0.1195;
1222.2000;0.1481;-0.1147;
1222.5000;0.1490;-0.1051;
1222.8000;0.1473;-0.1147;
1223.1000;0.1433;-0.1266;
1223.4000;0.1490;-0.1075;
1223.7000;0.1498;-0.1123;
1224.0000;0.1481;-0.1147;
1224.3000;0.1490;-0.1195;
1224.6000;0.1498;-0.1123;
1224.9000;0.1481;-0.1219;
1225.2000;0.1555;-0.1004;
1225.5000;0.1481;-0.1314;
1225.8000;0.1490;-0.1243;
1226.1000;0.1481;-0.1266;
1226.4000;0.1473;-0.1219;
1226.7000;0.1416;-0.1362;
1227.0000;0.1449;-0.1243;
1227.3000;0.1457;-0.1314;
1227.6000;0.1498;-0.1195;
1227.9000;0.1473;-0.1219;
1228.2000;0.1481;-0.1219;
1228.5000;0.1481;-0.1171;
1228.8000;0.1441;-0.1195;
1229.1000;0.1506;-0.1099;
1229.4000;0.1498;-0.1075;
1229.7000;0.1473;-0.1171;
1230.0000;0.1490;-0.1147;
1230.3000;0.1481;-0.1219;
1230.6000;0.1490;-0.1290;
1230.9000;0.1465;-0.1386;
1231.2000;0.1498;-0.1314;
1231.5000;0.1473;-0.1290;
1231.8000;0.1498;-0.1171;
1232.1000;0.1465;-0.1219;
1232.4000;0.1473;-0.1219;
1232.7000;0.1465;-0.1219;
1233.0000;0.1473;-0.1243;
1233.3000;0.1490;-0.1266;
1233.6000;0.1473;-0.1219;
1233.9000;0.1490;-0.1195;
1234.2000;0.1498;-0.1123;
1234.5000;0.1490;-0.1123;
1234.8000;0.1465;-0.1219;
1235.1000;0.1441;-0.1243;
1235.4000;0.1481;-0.1147;
1235.7000;0.1457;-0.1243;
1236.0000;0.1465;-0.1147;
1236.3000;0.1457;-0.1195;
1236.6000;0.1490;-0.1171;
1236.9000;0.1490;-0.1123;
1237.2000;0.1481;-0.1195;
1237.5000;0.1449;-0.1147;
1237.8000;0.1473;-0.1075;
1238.1000;0.1490;-0.1099;
1238.4000;0.1473;-0.1147;
1238.7000;0.1465;-0.1147;
1239.0000;0.1457;-0.1123;
1239.3000;0.1490;-0.0980;
1239.6000;0.1490;-0.1075;
1239.9000;0.1490;-0.1075;
1240.2000;0.1465;-0.1147;
1240.5000;0.1538;-0.0932;
1240.8000;0.1481;-0.0932;
1241.1000;0.1506;-0.0932;
1241.4000;0.1465;-0.1123;
1241.7000;0.1506;-0.1075;
1242.0000;0.1490;-0.1171;
1242.3000;0.1465;-0.1171;
1242.6000;0.1473;-0.1171;
1242.9000;0.1473;-0.1171;
1243.2000;0.1506;-0.1099;
1243.5000;0.1490;-0.1171;
1243.8000;0.1490;-0.1099;
1244.1000;0.1481;-0.1075;
1244.4000;0.1506;-0.1004;
1244.7000;0.1481;-0.1099;
1245.0000;0.1465;-0.1171;
1245.3000;0.1465;-0.1266;
1245.6000;0.1473;-0.1243;
1245.9000;0.1490;-0.1266;
1246.2000;0.1506;-0.1219;
1246.5000;0.1498;-0.1219;
1246.8000;0.1473;-0.1171;
1247.1000;0.1449;-0.1290;
1247.4000;0.1473;-0.1243;
1247.7000;0.1522;-0.1195;
1248.0000;0.1473;-0.1266;
1248.3000;0.1473;-0.1338;
1248.6000;0.1481;-0.1314;
1248.9000;0.1465;-0.1314;
1249.2000;0.1449;-0.1338;
1249.5000;0.1465;-0.1243;
1249.8000;0.1490;-0.1123;
1250.1000;0.1465;-0.1147;
1250.4000;0.1481;-0.1147;
1250.7000;0.1490;-0.1123;
1251.0000;0.1481;-0.1171;
1251.3000;0.1465;-0.1195;
1251.6000;0.1465;-0.1219;
1251.9000;0.1490;-0.1147;
1252.2000;0.1473;-0.1266;
1252.5000;0.1473;-0.1243;
1252.8000;0.1473;-0.1290;
1253.1000;0.1481;-0.1290;
1253.4000;0.1490;-0.1290;
1253.7000;0.1490;-0.1290;
1254.0000;0.1498;-0.1290;
1254.3000;0.1538;-0.1195;
1254.6000;0.1465;-0.1362;
1254.9000;0.1481;-0.1338;
1255.2000;0.1490;-0.1338;
1255.5000;0.1465;-0.1338;
1255.8000;0.1465;-0.1386;
1256.1000;0.1547;-0.1099;
1256.4000;0.1490;-0.1314;
1256.7000;0.1498;-0.1290;
1257.0000;0.1538;-0.1147;
1257.3000;0.1473;-0.1266;
1257.6000;0.1457;-0.1243;
1257.9000;0.1473;-0.1219;
1258.2000;0.1481;-0.1171;
1258.5000;0.1465;-0.1314;
1258.8000;0.1530;-0.1147;
1259.1000;0.1457;-0.1362;
1259.4000;0.1465;-0.1338;
1259.7000;0.1498;-0.1219;
1260.0000;0.1498;-0.1219;
1260.3000;0.1490;-0.1314;
1260.6000;0.1449;-0.1386;
1260.9000;0.1465;-0.1290;
1261.2000;0.1481;-0.1243;
1261.5000;0.1359;-0.1577;
1261.8000;0.1473;-0.1243;
1262.1000;0.1465;-0.1362;
1262.4000;0.1416;-0.1410;
1262.7000;0.1498;-0.1266;
1263.0000;0.1465;-0.1314;
1263.3000;0.1481;-0.1338;
1263.6000;0.1473;-0.1362;
1263.9000;0.1514;-0.1243;
1264.2000;0.1538;-0.1075;
1264.5000;0.1538;-0.1147;
1264.8000;0.1465;-0.1314;
1265.1000;0.1514;-0.1171;
1265.4000;0.1490;-0.1147;
1265.7000;0.1473;-0.1147;
1266.0000;0.1473;-0.1147;
1266.3000;0.1473;-0.1147;
1266.6000;0.1490;-0.1099;
1266.9000;0.1473;-0.1171;
1267.2000;0.1473;-0.1147;
1267.5000;0.1425;-0.1266;
1267.8000;0.1481;-0.1123;
1268.1000;0.1498;-0.1051;
1268.4000;0.1425;-0.1266;
1268.7000;0.1514;-0.1075;
1269.0000;0.1465;-0.1219;
1269.3000;0.1457;-0.1243;
1269.6000;0.1481;-0.1219;
1269.9000;0.1449;-0.1290;
1270.2000;0.1449;-0.1386;
1270.5000;0.1490;-0.1290;
1270.8000;0.1473;-0.1243;
1271.1000;0.1425;-0.1434;
1271.4000;0.1490;-0.1243;
1271.7000;0.1514;-0.1171;
1272.0000;0.1481;-0.1290;
1272.3000;0.1481;-0.1243;
1272.6000;0.1465;-0.1219;
1272.9000;0.1506;-0.1147;
1273.2000;0.1514;-0.1195;
1273.5000;0.1473;-0.1290;
1273.8000;0.1473;-0.1290;
1274.1000;0.1473;-0.1338;
1274.4000;0.1514;-0.1290;
1274.7000;0.1490;-0.1362;
1275.0000;0.1465;-0.1362;
1275.3000;0.1481;-0.1314;
1275.6000;0.1490;-0.1338;
1275.9000;0.1498;-0.1219;
1276.2000;0.1433;-0.1362;
1276.5000;0.1547;-0.1147;
1276.8000;0.1490;-0.1362;
1277.1000;0.1498;-0.1386;
1277.4000;0.1473;-0.1410;
1277.7000;0.1498;-0.1386;
1278.0000;0.1481;-0.1458;
1278.3000;0.1490;-0.1434;
1278.6000;0.1473;-0.1482;
1278.9000;0.1473;-0.1434;
1279.2000;0.1481;-0.1434;
1279.5000;0.1506;-0.1410;
1279.8000;0.1547;-0.1338;
1280.1000;0.1490;-0.1577;
1280.4000;0.1514;-0.1458;
1280.7000;0.1457;-0.1625;
1281.0000;0.1481;-0.1553;
1281.3000;0.1441;-0.1649;
1281.6000;0.1481;-0.1434;
1281.9000;0.1449;-0.1505;
1282.2000;0.1498;-0.1362;
1282.5000;0.1506;-0.1290;
1282.8000;0.1481;-0.1362;
1283.1000;0.1490;-0.1362;
1283.4000;0.1498;-0.1314;
1283.7000;0.1449;-0.1434;
1284.0000;0.1457;-0.1362;
1284.3000;0.1481;-0.1314;
1284.6000;0.1473;-0.1410;
1284.9000;0.1481;-0.1314;
1285.2000;0.1473;-0.1338;
1285.5000;0.1465;-0.1434;
1285.8000;0.1449;-0.1482;
1286.1000;0.1457;-0.1386;
1286.4000;0.1514;-0.1314;
1286.7000;0.1498;-0.1266;
1287.0000;0.1473;-0.1266;
1287.3000;0.1416;-0.1338;
1287.6000;0.1481;-0.1147;
1287.9000;0.1473;-0.1147;
1288.2000;0.1473;-0.1171;
1288.5000;0.1408;-0.1482;
1288.8000;0.1506;-0.1171;
1289.1000;0.1457;-0.1290;
1289.4000;0.1498;-0.1243;
1289.7000;0.1481;-0.1290;
1290.0000;0.1490;-0.1314;
1290.3000;0.1481;-0.1410;
1290.6000;0.1425;-0.1482;
1290.9000;0.1465;-0.1338;
1291.2000;0.1514;-0.1266;
1291.5000;0.1457;-0.1314;
1291.8000;0.1465;-0.1314;
1292.1000;0.1498;-0.1290;
1292.4000;0.1522;-0.1171;
1292.7000;0.1473;-0.1290;
1293.0000;0.1490;-0.1266;
1293.3000;0.1506;-0.1219;
1293.6000;0.1555;-0.1075;
1293.9000;0.1457;-0.1338;
1294.2000;0.1522;-0.1195;
1294.5000;0.1481;-0.1243;
1294.8000;0.1457;-0.1290;
1295.1000;0.1530;-0.1051;
1295.4000;0.1473;-0.1219;
1295.7000;0.1465;-0.1243;
1296.0000;0.1473;-0.1266;
1296.3000;0.1506;-0.1243;
1296.6000;0.1481;-0.1290;
1296.9000;0.1473;-0.1266;
1297.2000;0.1465;-0.1314;
1297.5000;0.1457;-0.1434;
1297.8000;0.1449;-0.1553;
1298.1000;0.1490;-0.1434;
1298.4000;0.1522;-0.1338;
1298.7000;0.1465;-0.1505;
1299.0000;0.1498;-0.1434;
1299.3000;0.1498;-0.1458;
1299.6000;0.1481;-0.1601;
1299.9000;0.1490;-0.1577;
1300.2000;0.1514;-0.1505;
1300.5000;0.1473;-0.1505;
1300.8000;0.1425;-0.1553;
1301.1000;0.1514;-0.1290;
1301.4000;0.1457;-0.1386;
1301.7000;0.1457;-0.1338;
1302.0000;0.1473;-0.1338;
1302.3000;0.1473;-0.1314;
1302.6000;0.1481;-0.1362;
1302.9000;0.1465;-0.1314;
1303.2000;0.1465;-0.1314;
1303.5000;0.1481;-0.1314;
1303.8000;0.1490;-0.1314;
1304.1000;0.1481;-0.1266;
1304.4000;0.1425;-0.1386;
1304.7000;0.1498;-0.1219;
1305.0000;0.1506;-0.1123;
1305.3000;0.1498;-0.1051;
1305.6000;0.1473;-0.1099;
1305.9000;0.1481;-0.1123;
1306.2000;0.1473;-0.1171;
1306.5000;0.1465;-0.1099;
1306.8000;0.1465;-0.1075;
1307.1000;0.1465;-0.1123;
1307.4000;0.1465;-0.1195;
1307.7000;0.1490;-0.1123;
1308.0000;0.1490;-0.1028;
1308.3000;0.1481;-0.1028;
1308.6000;0.1473;-0.1028;
1308.9000;0.1473;-0.1099;
1309.2000;0.1490;-0.1099;
1309.5000;0.1547;-0.0932;
1309.8000;0.1416;-0.1266;
1310.1000;0.1473;-0.1195;
1310.4000;0.1612;-0.0812;
1310.7000;0.1481;-0.1219;
1311.0000;0.1408;-0.1386;
1311.3000;0.1498;-0.1243;
1311.6000;0.1481;-0.1362;
1311.9000;0.1498;-0.1338;
1312.2000;0.1481;-0.1314;
1312.5000;0.1449;-0.1482;
1312.8000;0.1514;-0.1338;
1313.1000;0.1449;-0.1386;
1313.4000;0.1490;-0.1195;
1313.7000;0.1473;-0.1314;
1314.0000;0.1457;-0.1338;
1314.3000;0.1473;-0.1243;
1314.6000;0.1465;-0.1243;
1314.9000;0.1473;-0.1219;
1315.2000;0.1481;-0.1171;
1315.5000;0.1481;-0.1171;
1315.8000;0.1465;-0.1219;
1316.1000;0.1457;-0.1290;
1316.4000;0.1490;-0.1219;
1316.7000;0.1555;-0.1075;
1317.0000;0.1490;-0.1243;
1317.3000;0.1465;-0.1266;
1317.6000;0.1481;-0.1314;
1317.9000;0.1457;-0.1338;
1318.2000;0.1416;-0.1434;
1318.5000;0.1473;-0.1290;
1318.8000;0.1481;-0.1219;
1319.1000;0.1490;-0.1266;
1319.4000;0.1498;-0.1195;
1319.7000;0.1473;-0.1338;
1320.0000;0.1481;-0.1314;
1320.3000;0.1465;-0.1314;
1320.6000;0.1498;-0.1243;
1320.9000;0.1441;-0.1362;
1321.2000;0.1473;-0.1290;
1321.5000;0.1473;-0.1314;
1321.8000;0.1473;-0.1314;
1322.1000;0.1490;-0.1314;
1322.4000;0.1433;-0.1362;
1322.7000;0.1392;-0.1482;
1323.0000;0.1473;-0.1266;
1323.3000;0.1498;-0.1195;
1323.6000;0.1473;-0.1314;
1323.9000;0.1498;-0.1386;
1324.2000;0.1433;-0.1529;
1324.5000;0.1473;-0.1410;
1324.8000;0.1449;-0.1482;
1325.1000;0.1465;-0.1386;
1325.4000;0.1408;-0.1553;
1325.7000;0.1465;-0.1386;
1326.0000;0.1490;-0.1386;
1326.3000;0.1457;-0.1505;
1326.6000;0.1449;-0.1505;
1326.9000;0.1490;-0.1410;
1327.2000;0.1465;-0.1529;
1327.5000;0.1490;-0.1386;
1327.8000;0.1465;-0.1410;
1328.1000;0.1465;-0.1434;
1328.4000;0.1481;-0.1434;
1328.7000;0.1498;-0.1410;
1329.0000;0.1465;-0.1386;
1329.3000;0.1481;-0.1362;
1329.6000;0.1481;-0.1219;
1329.9000;0.1449;-0.1314;
1330.2000;0.1481;-0.1266;
1330.5000;0.1530;-0.1171;
1330.8000;0.1506;-0.1147;
1331.1000;0.1490;-0.1099;
1331.4000;0.1490;-0.1075;
1331.7000;0.1473;-0.1123;
1332.0000;0.1465;-0.1195;
1332.3000;0.1498;-0.1147;
1332.6000;0.1481;-0.1171;
1332.9000;0.1457;-0.1290;
1333.2000;0.1473;-0.1147;
1333.5000;0.1555;-0.0980;
1333.8000;0.1481;-0.1219;
1334.1000;0.1498;-0.1243;
1334.4000;0.1481;-0.1290;
1334.7000;0.1490;-0.1195;
1335.0000;0.1563;-0.1051;
1335.3000;0.1449;-0.1410;
1335.6000;0.1392;-0.1529;
1335.9000;0.1490;-0.1362;
1336.2000;0.1473;-0.1386;
1336.5000;0.1498;-0.1362;
1336.8000;0.1457;-0.1482;
1337.1000;0.1473;-0.1386;
1337.4000;0.1498;-0.1338;
1337.7000;0.1498;-0.1362;
1338.0000;0.1481;-0.1386;
1338.3000;0.1498;-0.1243;
1338.6000;0.1449;-0.1314;
1338.9000;0.1473;-0.1290;
1339.2000;0.1457;-0.1314;
1339.5000;0.1481;-0.1290;
1339.8000;0.1522;-0.1195;
1340.1000;0.1473;-0.1410;
1340.4000;0.1481;-0.1338;
1340.7000;0.1465;-0.1362;
1341.0000;0.1465;-0.1338;
1341.3000;0.1490;-0.1314;
1341.6000;0.1481;-0.1386;
1341.9000;0.1490;-0.1338;
1342.2000;0.1506;-0.1314;
1342.5000;0.1481;-0.1362;
1342.8000;0.1498;-0.1266;
1343.1000;0.1498;-0.1243;
1343.4000;0.1449;-0.1362;
1343.7000;0.1481;-0.1290;
1344.0000;0.1433;-0.1338;
1344.3000;0.1449;-0.1362;
1344.6000;0.1563;-0.1123;
1344.9000;0.1604;-0.1004;
1345.2000;0.1481;-0.1290;
1345.5000;0.1522;-0.1266;
1345.8000;0.1457;-0.1386;
1346.1000;0.1498;-0.1314;
1346.4000;0.1473;-0.1338;
1346.7000;0.1490;-0.1243;
1347.0000;0.1473;-0.1314;
1347.3000;0.1490;-0.1171;
1347.6000;0.1498;-0.1099;
1347.9000;0.1490;-0.1147;
1348.2000;0.1473;-0.1195;
1348.5000;0.1457;-0.1219;
1348.8000;0.1498;-0.1028;
1349.1000;0.1628;-0.0717;
1349.4000;0.1449;-0.1290;
1349.7000;0.1449;-0.1338;
1350.0000;0.1441;-0.1266;
1350.3000;0.1506;-0.1171;
1350.6000;0.1481;-0.1314;
1350.9000;0.1473;-0.1290;
1351.2000;0.1481;-0.1219;
1351.5000;0.1441;-0.1266;
1351.8000;0.1473;-0.1243;
1352.1000;0.1538;-0.1099;
1352.4000;0.1473;-0.1314;
1352.7000;0.1498;-0.1243;
1353.0000;0.1514;-0.1123;
1353.3000;0.1457;-0.1266;
1353.6000;0.1481;-0.1123;
1353.9000;0.1547;-0.1004;
1354.2000;0.1433;-0.1290;
1354.5000;0.1481;-0.1123;
1354.8000;0.1481;-0.1075;
1355.1000;0.1506;-0.1075;
1355.4000;0.1514;-0.1219;
1355.7000;0.1481;-0.1266;
1356.0000;0.1465;-0.1290;
1356.3000;0.1481;-0.1195;
1356.6000;0.1457;-0.1219;
1356.9000;0.1465;-0.1195;
1357.2000;0.1481;-0.1171;
1357.5000;0.1457;-0.1266;
1357.8000;0.1481;-0.1219;
1358.1000;0.1473;-0.1219;
1358.4000;0.1506;-0.1243;
1358.7000;0.1473;-0.1362;
1359.0000;0.1498;-0.1338;
1359.3000;0.1473;-0.1314;
1359.6000;0.1506;-0.1314;
1359.9000;0.1490;-0.1290;
1360.2000;0.1490;-0.1219;
1360.5000;0.1481;-0.1314;
1360.8000;0.1481;-0.1362;
1361.1000;0.1481;-0.1386;
1361.4000;0.1490;-0.1410;
1361.7000;0.1506;-0.1338;
1362.0000;0.1481;-0.1386;
1362.3000;0.1490;-0.1482;
1362.6000;0.1473;-0.1482;
1362.9000;0.1465;-0.1553;
1363.2000;0.1457;-0.1625;
1363.5000;0.1481;-0.1697;
1363.8000;0.1449;-0.1721;
1364.1000;0.1465;-0.1601;
1364.4000;0.1481;-0.1529;
1364.7000;0.1481;-0.1505;
1365.0000;0.1327;-0.1864;
1365.3000;0.1481;-0.1458;
1365.6000;0.1555;-0.1338;
1365.9000;0.1506;-0.1529;
1366.2000;0.1522;-0.1529;
1366.5000;0.1506;-0.1577;
1366.8000;0.1506;-0.1553;
1367.1000;0.1473;-0.1601;
1367.4000;0.1481;-0.1625;
1367.7000;0.1465;-0.1529;
1368.0000;0.1433;-0.1601;
1368.3000;0.1481;-0.1482;
1368.6000;0.1481;-0.1386;
1368.9000;0.1465;-0.1362;
1369.2000;0.1465;-0.1410;
1369.5000;0.1506;-0.1386;
1369.8000;0.1506;-0.1362;
1370.1000;0.1473;-0.1458;
1370.4000;0.1481;-0.1314;
1370.7000;0.1473;-0.1290;
1371.0000;0.1449;-0.1410;
1371.3000;0.1481;-0.1458;
1371.6000;0.1465;-0.1505;
1371.9000;0.1465;-0.1458;
1372.2000;0.1473;-0.1362;
1372.5000;0.1522;-0.1290;
1372.8000;0.1359;-0.1768;
1373.1000;0.1481;-0.1434;
1373.4000;0.1449;-0.1458;
1373.7000;0.1473;-0.1314;
1374.0000;0.1465;-0.1338;
1374.3000;0.1506;-0.1290;
1374.6000;0.1481;-0.1338;
1374.9000;0.1498;-0.1314;
1375.2000;0.1506;-0.1362;
1375.5000;0.1490;-0.1458;
1375.8000;0.1490;-0.1434;
1376.1000;0.1506;-0.1410;
1376.4000;0.1481;-0.1434;
1376.7000;0.1465;-0.1386;
1377.0000;0.1433;-0.1529;
1377.3000;0.1547;-0.1219;
1377.6000;0.1481;-0.1362;
1377.9000;0.1498;-0.1314;
1378.2000;0.1449;-0.1434;
1378.5000;0.1473;-0.1338;
1378.8000;0.1359;-0.1697;
1379.1000;0.1498;-0.1362;
1379.4000;0.1506;-0.1410;
1379.7000;0.1506;-0.1458;
1380.0000;0.1490;-0.1482;
1380.3000;0.1498;-0.1529;
1380.6000;0.1473;-0.1577;
1380.9000;0.1457;-0.1553;
1381.2000;0.1506;-0.1434;
1381.5000;0.1490;-0.1410;
1381.8000;0.1481;-0.1338;
1382.1000;0.1425;-0.1505;
1382.4000;0.1465;-0.1362;
1382.7000;0.1481;-0.1314;
1383.0000;0.1498;-0.1243;
1383.3000;0.1490;-0.1266;
1383.6000;0.1441;-0.1386;
1383.9000;0.1465;-0.1314;
1384.2000;0.1465;-0.1338;
1384.5000;0.1359;-0.1625;
1384.8000;0.1457;-0.1386;
1385.1000;0.1473;-0.1290;
1385.4000;0.1481;-0.1338;
1385.7000;0.1473;-0.1386;
1386.0000;0.1522;-0.1243;
1386.3000;0.1498;-0.1338;
1386.6000;0.1498;-0.1266;
1386.9000;0.1481;-0.1243;
1387.2000;0.1481;-0.1243;
1387.5000;0.1498;-0.1195;
1387.8000;0.1490;-0.1195;
1388.1000;0.1481;-0.1123;
1388.4000;0.1506;-0.1051;
1388.7000;0.1506;-0.1195;
1389.0000;0.1481;-0.1243;
1389.3000;0.1441;-0.1386;
1389.6000;0.1465;-0.1290;
1389.9000;0.1457;-0.1219;
1390.2000;0.1498;-0.1195;
1390.5000;0.1441;-0.1434;
1390.8000;0.1506;-0.1290;
1391.1000;0.1433;-0.1458;
1391.4000;0.1490;-0.1314;
1391.7000;0.1490;-0.1314;
1392.0000;0.1490;-0.1290;
1392.3000;0.1481;-0.1338;
1392.6000;0.1490;-0.1386;
1392.9000;0.1490;-0.1290;
1393.2000;0.1498;-0.1266;
1393.5000;0.1457;-0.1290;
1393.8000;0.1449;-0.1314;
1394.1000;0.1498;-0.1314;
1394.4000;0.1530;-0.1171;
1394.7000;0.1481;-0.1266;
1395.0000;0.1506;-0.1219;
1395.3000;0.1490;-0.1338;
1395.6000;0.1490;-0.1290;
1395.9000;0.1473;-0.1338;
1396.2000;0.1481;-0.1362;
1396.5000;0.1457;-0.1505;
1396.8000;0.1506;-0.1314;
1397.1000;0.1498;-0.1434;
1397.4000;0.1425;-0.1625;
1397.7000;0.1481;-0.1482;
1398.0000;0.1473;-0.1505;
1398.3000;0.1490;-0.1482;
1398.6000;0.1481;-0.1482;
1398.9000;0.1457;-0.1505;
1399.2000;0.1465;-0.1577;
1399.5000;0.1473;-0.1553;
1399.8000;0.1481;-0.1601;
