time/ms;Fluo/V;P700 deltaI/I x10³;
-199.8000;0.1481;-0.1458;
-199.5000;0.1498;-0.1482;
-199.2000;0.1506;-0.1505;
-198.9000;0.1498;-0.1505;
-198.6000;0.1514;-0.1434;
-198.3000;0.1473;-0.1529;
-198.0000;0.1514;-0.1482;
-197.7000;0.1498;-0.1505;
-197.4000;0.1449;-0.1697;
-197.1000;0.1522;-0.1410;
-196.8000;0.1498;-0.1458;
-196.5000;0.1514;-0.1386;
-196.2000;0.1506;-0.1434;
-195.9000;0.1506;-0.1410;
-195.6000;0.1530;-0.1362;
-195.3000;0.1506;-0.1505;
-195.0000;0.1538;-0.1434;
-194.7000;0.1481;-0.1577;
-194.4000;0.1506;-0.1410;
-194.1000;0.1441;-0.1625;
-193.8000;0.1457;-0.1553;
-193.5000;0.1498;-0.1505;
-193.2000;0.1587;-0.1338;
-192.9000;0.1563;-0.1458;
-192.6000;0.1481;-0.1601;
-192.3000;0.1522;-0.1529;
-192.0000;0.1514;-0.1577;
-191.7000;0.1514;-0.1529;
-191.4000;0.1506;-0.1529;
-191.1000;0.1498;-0.1673;
-190.8000;0.1538;-0.1505;
-190.5000;0.1530;-0.1482;
-190.2000;0.1538;-0.1362;
-189.9000;0.1612;-0.1099;
-189.6000;0.1514;-0.1434;
-189.3000;0.1530;-0.1410;
-189.0000;0.1490;-0.1553;
-188.7000;0.1522;-0.1529;
-188.4000;0.1490;-0.1625;
-188.1000;0.1473;-0.1601;
-187.8000;0.1498;-0.1505;
-187.5000;0.1538;-0.1362;
-187.2000;0.1506;-0.1482;
-186.9000;0.1490;-0.1577;
-186.6000;0.1506;-0.1458;
-186.3000;0.1522;-0.1410;
-186.0000;0.1433;-0.1625;
-185.7000;0.1498;-0.1529;
-185.4000;0.1530;-0.1553;
-185.1000;0.1530;-0.1482;
-184.8000;0.1498;-0.1434;
-184.5000;0.1571;-0.1314;
-184.2000;0.1514;-0.1386;
-183.9000;0.1498;-0.1386;
-183.6000;0.1530;-0.1314;
-183.3000;0.1506;-0.1505;
-183.0000;0.1498;-0.1505;
-182.7000;0.1506;-0.1529;
-182.4000;0.1481;-0.1577;
-182.1000;0.1490;-0.1529;
-181.8000;0.1498;-0.1529;
-181.5000;0.1449;-0.1768;
-181.2000;0.1514;-0.1601;
-180.9000;0.1506;-0.1721;
-180.6000;0.1490;-0.1744;
-180.3000;0.1563;-0.1529;
-180.0000;0.1522;-0.1625;
-179.7000;0.1522;-0.1577;
-179.4000;0.1506;-0.1649;
-179.1000;0.1506;-0.1673;
-178.8000;0.1506;-0.1673;
-178.5000;0.1506;-0.1649;
-178.2000;0.1514;-0.1601;
-177.9000;0.1498;-0.1649;
-177.6000;0.1498;-0.1601;
-177.3000;0.1490;-0.1505;
-177.0000;0.1620;-0.1147;
-176.7000;0.1498;-0.1482;
-176.4000;0.1506;-0.1529;
-176.1000;0.1498;-0.1553;
-175.8000;0.1498;-0.1625;
-175.5000;0.1522;-0.1458;
-175.2000;0.1490;-0.1434;
-174.9000;0.1538;-0.1219;
-174.6000;0.1522;-0.1219;
-174.3000;0.1498;-0.1290;
-174.0000;0.1506;-0.1362;
-173.7000;0.1530;-0.1434;
-173.4000;0.1522;-0.1482;
-173.1000;0.1498;-0.1529;
-172.8000;0.1530;-0.1458;
-172.5000;0.1547;-0.1410;
-172.2000;0.1506;-0.1458;
-171.9000;0.1506;-0.1410;
-171.6000;0.1506;-0.1362;
-171.3000;0.1498;-0.1434;
-171.0000;0.1473;-0.1505;
-170.7000;0.1473;-0.1505;
-170.4000;0.1514;-0.1362;
-170.1000;0.1530;-0.1314;
-169.8000;0.1514;-0.1410;
-169.5000;0.1514;-0.1362;
-169.2000;0.1514;-0.1362;
-168.9000;0.1530;-0.1219;
-168.6000;0.1498;-0.1243;
-168.3000;0.1538;-0.1171;
-168.0000;0.1490;-0.1386;
-167.7000;0.1514;-0.1386;
-167.4000;0.1522;-0.1362;
-167.1000;0.1514;-0.1458;
-166.8000;0.1506;-0.1410;
-166.5000;0.1481;-0.1386;
-166.2000;0.1555;-0.1195;
-165.9000;0.1490;-0.1458;
-165.6000;0.1490;-0.1434;
-165.3000;0.1449;-0.1505;
-165.0000;0.1506;-0.1314;
-164.7000;0.1530;-0.1266;
-164.4000;0.1530;-0.1314;
-164.1000;0.1490;-0.1290;
-163.8000;0.1433;-0.1577;
-163.5000;0.1571;-0.1219;
-163.2000;0.1498;-0.1386;
-162.9000;0.1481;-0.1410;
-162.6000;0.1514;-0.1362;
-162.3000;0.1514;-0.1410;
-162.0000;0.1514;-0.1434;
-161.7000;0.1514;-0.1482;
-161.4000;0.1490;-0.1505;
-161.1000;0.1498;-0.1482;
-160.8000;0.1506;-0.1482;
-160.5000;0.1506;-0.1529;
-160.2000;0.1514;-0.1458;
-159.9000;0.1498;-0.1482;
-159.6000;0.1514;-0.1410;
-159.3000;0.1481;-0.1505;
-159.0000;0.1522;-0.1434;
-158.7000;0.1514;-0.1458;
-158.4000;0.1555;-0.1458;
-158.1000;0.1522;-0.1577;
-157.8000;0.1481;-0.1649;
-157.5000;0.1514;-0.1529;
-157.2000;0.1490;-0.1482;
-156.9000;0.1514;-0.1482;
-156.6000;0.1506;-0.1458;
-156.3000;0.1490;-0.1458;
-156.0000;0.1506;-0.1410;
-155.7000;0.1498;-0.1434;
-155.4000;0.1498;-0.1434;
-155.1000;0.1498;-0.1386;
-154.8000;0.1498;-0.1386;
-154.5000;0.1538;-0.1362;
-154.2000;0.1498;-0.1434;
-153.9000;0.1490;-0.1505;
-153.6000;0.1498;-0.1458;
-153.3000;0.1522;-0.1386;
-153.0000;0.1522;-0.1362;
-152.7000;0.1514;-0.1362;
-152.4000;0.1498;-0.1482;
-152.1000;0.1498;-0.1529;
-151.8000;0.1522;-0.1434;
-151.5000;0.1579;-0.1386;
-151.2000;0.1514;-0.1505;
-150.9000;0.1498;-0.1505;
-150.6000;0.1514;-0.1601;
-150.3000;0.1441;-0.1673;
-150.0000;0.1571;-0.1362;
-149.7000;0.1522;-0.1577;
-149.4000;0.1620;-0.1219;
-149.1000;0.1481;-0.1529;
-148.8000;0.1490;-0.1458;
-148.5000;0.1490;-0.1434;
-148.2000;0.1490;-0.1338;
-147.9000;0.1490;-0.1458;
-147.6000;0.1506;-0.1410;
-147.3000;0.1514;-0.1410;
-147.0000;0.1522;-0.1410;
-146.7000;0.1514;-0.1458;
-146.4000;0.1506;-0.1482;
-146.1000;0.1514;-0.1553;
-145.8000;0.1514;-0.1601;
-145.5000;0.1579;-0.1458;
-145.2000;0.1522;-0.1577;
-144.9000;0.1522;-0.1529;
-144.6000;0.1490;-0.1553;
-144.3000;0.1506;-0.1529;
-144.0000;0.1498;-0.1649;
-143.7000;0.1490;-0.1744;
-143.4000;0.1514;-0.1768;
-143.1000;0.1514;-0.1744;
-142.8000;0.1571;-0.1601;
-142.5000;0.1416;-0.1983;
-142.2000;0.1604;-0.1482;
-141.9000;0.1514;-0.1649;
-141.6000;0.1514;-0.1673;
-141.3000;0.1522;-0.1601;
-141.0000;0.1522;-0.1625;
-140.7000;0.1522;-0.1649;
-140.4000;0.1506;-0.1649;
-140.1000;0.1498;-0.1625;
-139.8000;0.1498;-0.1577;
-139.5000;0.1490;-0.1529;
-139.2000;0.1481;-0.1434;
-138.9000;0.1506;-0.1482;
-138.6000;0.1473;-0.1577;
-138.3000;0.1490;-0.1505;
-138.0000;0.1522;-0.1434;
-137.7000;0.1490;-0.1553;
-137.4000;0.1490;-0.1529;
-137.1000;0.1498;-0.1482;
-136.8000;0.1514;-0.1386;
-136.5000;0.1579;-0.1243;
-136.2000;0.1563;-0.1219;
-135.9000;0.1490;-0.1434;
-135.6000;0.1514;-0.1410;
-135.3000;0.1530;-0.1266;
-135.0000;0.1522;-0.1458;
-134.7000;0.1506;-0.1553;
-134.4000;0.1449;-0.1744;
-134.1000;0.1490;-0.1625;
-133.8000;0.1473;-0.1601;
-133.5000;0.1481;-0.1529;
-133.2000;0.1514;-0.1458;
-132.9000;0.1514;-0.1529;
-132.6000;0.1538;-0.1529;
-132.3000;0.1522;-0.1505;
-132.0000;0.1506;-0.1649;
-131.7000;0.1490;-0.1673;
-131.4000;0.1506;-0.1697;
-131.1000;0.1587;-0.1434;
-130.8000;0.1522;-0.1697;
-130.5000;0.1498;-0.1721;
-130.2000;0.1530;-0.1649;
-129.9000;0.1498;-0.1673;
-129.6000;0.1490;-0.1697;
-129.3000;0.1473;-0.1721;
-129.0000;0.1514;-0.1649;
-128.7000;0.1498;-0.1649;
-128.4000;0.1498;-0.1721;
-128.1000;0.1481;-0.1768;
-127.8000;0.1481;-0.1816;
-127.5000;0.1465;-0.1744;
-127.2000;0.1498;-0.1744;
-126.9000;0.1506;-0.1649;
-126.6000;0.1514;-0.1673;
-126.3000;0.1522;-0.1529;
-126.0000;0.1498;-0.1553;
-125.7000;0.1522;-0.1505;
-125.4000;0.1514;-0.1553;
-125.1000;0.1530;-0.1482;
-124.8000;0.1506;-0.1505;
-124.5000;0.1506;-0.1553;
-124.2000;0.1522;-0.1553;
-123.9000;0.1506;-0.1553;
-123.6000;0.1620;-0.1266;
-123.3000;0.1498;-0.1553;
-123.0000;0.1506;-0.1529;
-122.7000;0.1490;-0.1577;
-122.4000;0.1522;-0.1458;
-122.1000;0.1498;-0.1434;
-121.8000;0.1506;-0.1482;
-121.5000;0.1498;-0.1362;
-121.2000;0.1506;-0.1386;
-120.9000;0.1522;-0.1338;
-120.6000;0.1506;-0.1410;
-120.3000;0.1498;-0.1458;
-120.0000;0.1490;-0.1434;
-119.7000;0.1579;-0.1243;
-119.4000;0.1530;-0.1338;
-119.1000;0.1514;-0.1386;
-118.8000;0.1652;-0.1147;
-118.5000;0.1514;-0.1458;
-118.2000;0.1392;-0.1792;
-117.9000;0.1506;-0.1482;
-117.6000;0.1498;-0.1505;
-117.3000;0.1514;-0.1482;
-117.0000;0.1522;-0.1505;
-116.7000;0.1473;-0.1553;
-116.4000;0.1498;-0.1410;
-116.1000;0.1514;-0.1314;
-115.8000;0.1506;-0.1338;
-115.5000;0.1522;-0.1362;
-115.2000;0.1538;-0.1290;
-114.9000;0.1498;-0.1410;
-114.6000;0.1506;-0.1386;
-114.3000;0.1506;-0.1314;
-114.0000;0.1506;-0.1290;
-113.7000;0.1514;-0.1314;
-113.4000;0.1514;-0.1314;
-113.1000;0.1481;-0.1410;
-112.8000;0.1530;-0.1338;
-112.5000;0.1506;-0.1386;
-112.2000;0.1498;-0.1386;
-111.9000;0.1522;-0.1266;
-111.6000;0.1530;-0.1243;
-111.3000;0.1498;-0.1314;
-111.0000;0.1457;-0.1505;
-110.7000;0.1506;-0.1314;
-110.4000;0.1481;-0.1338;
-110.1000;0.1514;-0.1290;
-109.8000;0.1522;-0.1243;
-109.5000;0.1538;-0.1171;
-109.2000;0.1490;-0.1219;
-108.9000;0.1522;-0.1314;
-108.6000;0.1514;-0.1458;
-108.3000;0.1514;-0.1410;
-108.0000;0.1514;-0.1386;
-107.7000;0.1481;-0.1529;
-107.4000;0.1514;-0.1458;
-107.1000;0.1579;-0.1243;
-106.8000;0.1514;-0.1505;
-106.5000;0.1506;-0.1458;
-106.2000;0.1506;-0.1529;
-105.9000;0.1490;-0.1529;
-105.6000;0.1514;-0.1410;
-105.3000;0.1522;-0.1386;
-105.0000;0.1522;-0.1338;
-104.7000;0.1506;-0.1362;
-104.4000;0.1530;-0.1338;
-104.1000;0.1522;-0.1338;
-103.8000;0.1506;-0.1410;
-103.5000;0.1587;-0.1195;
-103.2000;0.1498;-0.1458;
-102.9000;0.1506;-0.1482;
-102.6000;0.1498;-0.1601;
-102.3000;0.1498;-0.1553;
-102.0000;0.1522;-0.1458;
-101.7000;0.1522;-0.1410;
-101.4000;0.1522;-0.1410;
-101.1000;0.1498;-0.1577;
-100.8000;0.1490;-0.1601;
-100.5000;0.1473;-0.1601;
-100.2000;0.1571;-0.1410;
-99.9000;0.1490;-0.1601;
-99.6000;0.1490;-0.1577;
-99.3000;0.1498;-0.1601;
-99.0000;0.1490;-0.1553;
-98.7000;0.1498;-0.1553;
-98.4000;0.1538;-0.1458;
-98.1000;0.1481;-0.1673;
-97.8000;0.1514;-0.1505;
-97.5000;0.1563;-0.1362;
-97.2000;0.1530;-0.1410;
-96.9000;0.1490;-0.1482;
-96.6000;0.1490;-0.1577;
-96.3000;0.1506;-0.1505;
-96.0000;0.1506;-0.1505;
-95.7000;0.1612;-0.1123;
-95.4000;0.1490;-0.1458;
-95.1000;0.1506;-0.1410;
-94.8000;0.1522;-0.1386;
-94.5000;0.1522;-0.1434;
-94.2000;0.1498;-0.1553;
-93.9000;0.1498;-0.1505;
-93.6000;0.1514;-0.1505;
-93.3000;0.1498;-0.1529;
-93.0000;0.1514;-0.1482;
-92.7000;0.1628;-0.1219;
-92.4000;0.1514;-0.1529;
-92.1000;0.1506;-0.1673;
-91.8000;0.1490;-0.1673;
-91.5000;0.1514;-0.1553;
-91.2000;0.1522;-0.1529;
-90.9000;0.1498;-0.1553;
-90.6000;0.1490;-0.1601;
-90.3000;0.1498;-0.1529;
-90.0000;0.1473;-0.1529;
-89.7000;0.1506;-0.1434;
-89.4000;0.1481;-0.1458;
-89.1000;0.1514;-0.1386;
-88.8000;0.1522;-0.1314;
-88.5000;0.1490;-0.1386;
-88.2000;0.1514;-0.1386;
-87.9000;0.1514;-0.1434;
-87.6000;0.1514;-0.1458;
-87.3000;0.1514;-0.1458;
-87.0000;0.1506;-0.1482;
-86.7000;0.1506;-0.1505;
-86.4000;0.1498;-0.1505;
-86.1000;0.1522;-0.1434;
-85.8000;0.1506;-0.1505;
-85.5000;0.1604;-0.1314;
-85.2000;0.1473;-0.1625;
-84.9000;0.1506;-0.1553;
-84.6000;0.1514;-0.1482;
-84.3000;0.1498;-0.1601;
-84.0000;0.1490;-0.1577;
-83.7000;0.1514;-0.1482;
-83.4000;0.1490;-0.1529;
-83.1000;0.1514;-0.1434;
-82.8000;0.1514;-0.1434;
-82.5000;0.1506;-0.1434;
-82.2000;0.1530;-0.1458;
-81.9000;0.1506;-0.1553;
-81.6000;0.1514;-0.1482;
-81.3000;0.1555;-0.1458;
-81.0000;0.1522;-0.1529;
-80.7000;0.1522;-0.1601;
-80.4000;0.1498;-0.1625;
-80.1000;0.1530;-0.1577;
-79.8000;0.1490;-0.1697;
-79.5000;0.1514;-0.1577;
-79.2000;0.1514;-0.1577;
-78.9000;0.1498;-0.1649;
-78.6000;0.1498;-0.1697;
-78.3000;0.1514;-0.1625;
-78.0000;0.1514;-0.1697;
-77.7000;0.1530;-0.1601;
-77.4000;0.1481;-0.1649;
-77.1000;0.1400;-0.1840;
-76.8000;0.1595;-0.1434;
-76.5000;0.1506;-0.1744;
-76.2000;0.1514;-0.1697;
-75.9000;0.1555;-0.1625;
-75.6000;0.1490;-0.1721;
-75.3000;0.1449;-0.1864;
-75.0000;0.1481;-0.1744;
-74.7000;0.1530;-0.1553;
-74.4000;0.1506;-0.1625;
-74.1000;0.1506;-0.1625;
-73.8000;0.1522;-0.1601;
-73.5000;0.1392;-0.2007;
-73.2000;0.1506;-0.1697;
-72.9000;0.1522;-0.1697;
-72.6000;0.1481;-0.1816;
-72.3000;0.1506;-0.1721;
-72.0000;0.1514;-0.1673;
-71.7000;0.1530;-0.1649;
-71.4000;0.1514;-0.1721;
-71.1000;0.1506;-0.1649;
-70.8000;0.1514;-0.1482;
-70.5000;0.1506;-0.1577;
-70.2000;0.1506;-0.1673;
-69.9000;0.1506;-0.1625;
-69.6000;0.1457;-0.1649;
-69.3000;0.1490;-0.1577;
-69.0000;0.1498;-0.1553;
-68.7000;0.1514;-0.1505;
-68.4000;0.1522;-0.1458;
-68.1000;0.1530;-0.1434;
-67.8000;0.1514;-0.1458;
-67.5000;0.1498;-0.1577;
-67.2000;0.1506;-0.1625;
-66.9000;0.1506;-0.1601;
-66.6000;0.1506;-0.1553;
-66.3000;0.1522;-0.1553;
-66.0000;0.1490;-0.1601;
-65.7000;0.1498;-0.1434;
-65.4000;0.1498;-0.1410;
-65.1000;0.1400;-0.1601;
-64.8000;0.1506;-0.1314;
-64.5000;0.1514;-0.1338;
-64.2000;0.1514;-0.1386;
-63.9000;0.1481;-0.1505;
-63.6000;0.1538;-0.1362;
-63.3000;0.1498;-0.1458;
-63.0000;0.1514;-0.1338;
-62.7000;0.1473;-0.1362;
-62.4000;0.1506;-0.1290;
-62.1000;0.1465;-0.1410;
-61.8000;0.1506;-0.1338;
-61.5000;0.1522;-0.1290;
-61.2000;0.1506;-0.1314;
-60.9000;0.1481;-0.1386;
-60.6000;0.1595;-0.1171;
-60.3000;0.1547;-0.1314;
-60.0000;0.1473;-0.1482;
-59.7000;0.1514;-0.1386;
-59.4000;0.1416;-0.1649;
-59.1000;0.1490;-0.1482;
-58.8000;0.1522;-0.1362;
-58.5000;0.1498;-0.1458;
-58.2000;0.1498;-0.1458;
-57.9000;0.1498;-0.1553;
-57.6000;0.1506;-0.1505;
-57.3000;0.1595;-0.1266;
-57.0000;0.1530;-0.1410;
-56.7000;0.1514;-0.1458;
-56.4000;0.1530;-0.1410;
-56.1000;0.1506;-0.1529;
-55.8000;0.1595;-0.1338;
-55.5000;0.1506;-0.1601;
-55.2000;0.1522;-0.1553;
-54.9000;0.1481;-0.1721;
-54.6000;0.1628;-0.1243;
-54.3000;0.1457;-0.1649;
-54.0000;0.1465;-0.1625;
-53.7000;0.1490;-0.1434;
-53.4000;0.1506;-0.1434;
-53.1000;0.1498;-0.1482;
-52.8000;0.1538;-0.1338;
-52.5000;0.1490;-0.1458;
-52.2000;0.1563;-0.1314;
-51.9000;0.1481;-0.1458;
-51.6000;0.1498;-0.1458;
-51.3000;0.1514;-0.1434;
-51.0000;0.1514;-0.1386;
-50.7000;0.1530;-0.1338;
-50.4000;0.1481;-0.1434;
-50.1000;0.1514;-0.1338;
-49.8000;0.1530;-0.1290;
-49.5000;0.1498;-0.1338;
-49.2000;0.1498;-0.1314;
-48.9000;0.1538;-0.1314;
-48.6000;0.1530;-0.1386;
-48.3000;0.1481;-0.1434;
-48.0000;0.1514;-0.1338;
-47.7000;0.1490;-0.1482;
-47.4000;0.1490;-0.1338;
-47.1000;0.1490;-0.1338;
-46.8000;0.1433;-0.1458;
-46.5000;0.1514;-0.1243;
-46.2000;0.1514;-0.1314;
-45.9000;0.1490;-0.1362;
-45.6000;0.1481;-0.1362;
-45.3000;0.1498;-0.1458;
-45.0000;0.1514;-0.1434;
-44.7000;0.1465;-0.1505;
-44.4000;0.1498;-0.1434;
-44.1000;0.1506;-0.1482;
-43.8000;0.1514;-0.1482;
-43.5000;0.1514;-0.1505;
-43.2000;0.1514;-0.1482;
-42.9000;0.1514;-0.1505;
-42.6000;0.1506;-0.1577;
-42.3000;0.1514;-0.1577;
-42.0000;0.1498;-0.1529;
-41.7000;0.1522;-0.1458;
-41.4000;0.1555;-0.1386;
-41.1000;0.1506;-0.1458;
-40.8000;0.1506;-0.1362;
-40.5000;0.1530;-0.1243;
-40.2000;0.1506;-0.1338;
-39.9000;0.1506;-0.1362;
-39.6000;0.1530;-0.1266;
-39.3000;0.1514;-0.1410;
-39.0000;0.1514;-0.1458;
-38.7000;0.1530;-0.1482;
-38.4000;0.1514;-0.1577;
-38.1000;0.1514;-0.1577;
-37.8000;0.1506;-0.1577;
-37.5000;0.1490;-0.1649;
-37.2000;0.1498;-0.1625;
-36.9000;0.1514;-0.1505;
-36.6000;0.1441;-0.1721;
-36.3000;0.1498;-0.1601;
-36.0000;0.1481;-0.1577;
-35.7000;0.1547;-0.1362;
-35.4000;0.1538;-0.1338;
-35.1000;0.1465;-0.1553;
-34.8000;0.1530;-0.1386;
-34.5000;0.1530;-0.1338;
-34.2000;0.1498;-0.1434;
-33.9000;0.1530;-0.1386;
-33.6000;0.1498;-0.1362;
-33.3000;0.1547;-0.1266;
-33.0000;0.1522;-0.1362;
-32.7000;0.1514;-0.1386;
-32.4000;0.1506;-0.1458;
-32.1000;0.1506;-0.1458;
-31.8000;0.1563;-0.1219;
-31.5000;0.1506;-0.1362;
-31.2000;0.1490;-0.1338;
-30.9000;0.1490;-0.1386;
-30.6000;0.1522;-0.1386;
-30.3000;0.1481;-0.1434;
-30.0000;0.1506;-0.1338;
-29.7000;0.1522;-0.1290;
-29.4000;0.1514;-0.1338;
-29.1000;0.1498;-0.1386;
-28.8000;0.1506;-0.1362;
-28.5000;0.1506;-0.1386;
-28.2000;0.1522;-0.1314;
-27.9000;0.1530;-0.1314;
-27.6000;0.1514;-0.1266;
-27.3000;0.1490;-0.1314;
-27.0000;0.1498;-0.1266;
-26.7000;0.1506;-0.1243;
-26.4000;0.1530;-0.1195;
-26.1000;0.1506;-0.1314;
-25.8000;0.1522;-0.1338;
-25.5000;0.1522;-0.1458;
-25.2000;0.1522;-0.1482;
-24.9000;0.1490;-0.1505;
-24.6000;0.1498;-0.1577;
-24.3000;0.1433;-0.1744;
-24.0000;0.1636;-0.1219;
-23.7000;0.1579;-0.1410;
-23.4000;0.1514;-0.1482;
-23.1000;0.1652;-0.1099;
-22.8000;0.1530;-0.1362;
-22.5000;0.1473;-0.1482;
-22.2000;0.1506;-0.1458;
-21.9000;0.1514;-0.1434;
-21.6000;0.1522;-0.1482;
-21.3000;0.1490;-0.1410;
-21.0000;0.1506;-0.1338;
-20.7000;0.1481;-0.1434;
-20.4000;0.1522;-0.1434;
-20.1000;0.1514;-0.1505;
-19.8000;0.1522;-0.1505;
-19.5000;0.1457;-0.1625;
-19.2000;0.1522;-0.1434;
-18.9000;0.1530;-0.1410;
-18.6000;0.1563;-0.1290;
-18.3000;0.1530;-0.1458;
-18.0000;0.1530;-0.1386;
-17.7000;0.1514;-0.1410;
-17.4000;0.1522;-0.1410;
-17.1000;0.1506;-0.1505;
-16.8000;0.1514;-0.1410;
-16.5000;0.1506;-0.1482;
-16.2000;0.1514;-0.1458;
-15.9000;0.1498;-0.1386;
-15.6000;0.1579;-0.1099;
-15.3000;0.1506;-0.1266;
-15.0000;0.1506;-0.1386;
-14.7000;0.1498;-0.1386;
-14.4000;0.1498;-0.1434;
-14.1000;0.1506;-0.1505;
-13.8000;0.1506;-0.1553;
-13.5000;0.1506;-0.1673;
-13.2000;0.1506;-0.1625;
-12.9000;0.1498;-0.1649;
-12.6000;0.1514;-0.1553;
-12.3000;0.1522;-0.1577;
-12.0000;0.1473;-0.1577;
-11.7000;0.1506;-0.1410;
-11.4000;0.1498;-0.1505;
-11.1000;0.1490;-0.1601;
-10.8000;0.1498;-0.1505;
-10.5000;0.1498;-0.1553;
-10.2000;0.1506;-0.1505;
-9.9000;0.1473;-0.1577;
-9.6000;0.1522;-0.1434;
-9.3000;0.1506;-0.1505;
-9.0000;0.1506;-0.1577;
-8.7000;0.1498;-0.1601;
-8.4000;0.1498;-0.1529;
-8.1000;0.1506;-0.1482;
-7.8000;0.1514;-0.1314;
-7.5000;0.1522;-0.1266;
-7.2000;0.1490;-0.1362;
-6.9000;0.1555;-0.1266;
-6.6000;0.1490;-0.1434;
-6.3000;0.1425;-0.1649;
-6.0000;0.1490;-0.1386;
-5.7000;0.1506;-0.1410;
-5.4000;0.1530;-0.1505;
-5.1000;0.1514;-0.1553;
-4.8000;0.1416;-0.1840;
-4.5000;0.1498;-0.1625;
-4.2000;0.1498;-0.1625;
-3.9000;0.1498;-0.1553;
-3.6000;0.1457;-0.1577;
-3.3000;0.1498;-0.1458;
-3.0000;0.1522;-0.1434;
-2.7000;0.1506;-0.1529;
-2.4000;0.1481;-0.1577;
-2.1000;0.1547;-0.1458;
-1.8000;0.1514;-0.1577;
-1.5000;0.1555;-0.1410;
-1.2000;0.1547;-0.1386;
-0.9000;0.1490;-0.1458;
-0.6000;0.1612;-0.1051;
-0.3000;0.1514;-0.1362;
0.0000;0.1514;-0.1362;
0.3000;0.1498;-0.1577;
0.6000;0.1490;-0.1458;
0.9000;0.1498;-0.1338;
1.2000;0.1522;-0.1195;
1.5000;0.1506;-0.1123;
1.8000;0.1522;-0.1028;
2.1000;0.1506;-0.0932;
2.4000;0.1514;-0.0908;
2.7000;0.1522;-0.0860;
3.0000;0.1498;-0.0860;
3.3000;0.1506;-0.0765;
3.6000;0.1579;-0.0597;
3.9000;0.1530;-0.0669;
4.2000;0.1538;-0.0621;
4.5000;0.1522;-0.0550;
4.8000;0.1498;-0.0621;
5.1000;0.1530;-0.0597;
5.4000;0.1530;-0.0645;
5.7000;0.1538;-0.0574;
6.0000;0.1538;-0.0574;
6.3000;0.1514;-0.0597;
6.6000;0.1628;-0.0287;
6.9000;0.1547;-0.0478;
7.2000;0.1555;-0.0454;
7.5000;0.1661;-0.0191;
7.8000;0.1547;-0.0478;
8.1000;0.1522;-0.0550;
8.4000;0.1612;-0.0287;
8.7000;0.1506;-0.0454;
9.0000;0.1555;-0.0311;
9.3000;0.1530;-0.0358;
9.6000;0.1538;-0.0287;
9.9000;0.1530;-0.0358;
10.2000;0.1498;-0.0406;
10.5000;0.1538;-0.0382;
10.8000;0.1530;-0.0406;
11.1000;0.1530;-0.0382;
11.4000;0.1514;-0.0382;
11.7000;0.1538;-0.0287;
12.0000;0.1522;-0.0335;
12.3000;0.1538;-0.0287;
12.6000;0.1522;-0.0263;
12.9000;0.1441;-0.0406;
13.2000;0.1579;-0.0072;
13.5000;0.1522;-0.0215;
13.8000;0.1530;-0.0239;
14.1000;0.1522;-0.0263;
14.4000;0.1555;-0.0167;
14.7000;0.1522;-0.0239;
15.0000;0.1465;-0.0382;
15.3000;0.1563;-0.0096;
15.6000;0.1490;-0.0358;
15.9000;0.1530;-0.0263;
16.2000;0.1473;-0.0478;
16.5000;0.1612;-0.0215;
16.8000;0.1530;-0.0430;
17.1000;0.1514;-0.0335;
17.4000;0.1538;-0.0239;
17.7000;0.1514;-0.0311;
18.0000;0.1514;-0.0335;
18.3000;0.1506;-0.0335;
18.6000;0.1514;-0.0358;
18.9000;0.1514;-0.0358;
19.2000;0.1628;-0.0143;
19.5000;0.1538;-0.0382;
19.8000;0.1530;-0.0335;
20.1000;0.1555;-0.0263;
20.4000;0.1530;-0.0239;
20.7000;0.1522;-0.0287;
21.0000;0.1538;-0.0287;
21.3000;0.1433;-0.0574;
21.6000;0.1555;-0.0287;
21.9000;0.1514;-0.0263;
22.2000;0.1563;-0.0096;
22.5000;0.1473;-0.0287;
22.8000;0.1530;-0.0167;
23.1000;0.1514;-0.0311;
23.4000;0.1514;-0.0311;
23.7000;0.1522;-0.0287;
24.0000;0.1522;-0.0287;
24.3000;0.1522;-0.0311;
24.6000;0.1530;-0.0335;
24.9000;0.1538;-0.0311;
25.2000;0.1547;-0.0335;
25.5000;0.1514;-0.0335;
25.8000;0.1555;-0.0239;
26.1000;0.1538;-0.0358;
26.4000;0.1522;-0.0406;
26.7000;0.1579;-0.0263;
27.0000;0.1620;-0.0143;
27.3000;0.1595;-0.0239;
27.6000;0.1514;-0.0454;
27.9000;0.1522;-0.0454;
28.2000;0.1490;-0.0502;
28.5000;0.1514;-0.0430;
28.8000;0.1522;-0.0430;
29.1000;0.1506;-0.0478;
29.4000;0.1506;-0.0502;
29.7000;0.1522;-0.0454;
30.0000;0.1530;-0.0358;
30.3000;0.1522;-0.0382;
30.6000;0.1514;-0.0454;
30.9000;0.1514;-0.0406;
31.2000;0.1514;-0.0358;
31.5000;0.1530;-0.0335;
31.8000;0.1555;-0.0239;
32.1000;0.1522;-0.0311;
32.4000;0.1547;-0.0287;
32.7000;0.1514;-0.0430;
33.0000;0.1612;-0.0263;
33.3000;0.1530;-0.0430;
33.6000;0.1530;-0.0335;
33.9000;0.1514;-0.0311;
34.2000;0.1538;-0.0335;
34.5000;0.1498;-0.0502;
34.8000;0.1579;-0.0263;
35.1000;0.1449;-0.0526;
35.4000;0.1522;-0.0358;
35.7000;0.1522;-0.0430;
36.0000;0.1490;-0.0526;
36.3000;0.1514;-0.0358;
36.6000;0.1530;-0.0263;
36.9000;0.1522;-0.0287;
37.2000;0.1441;-0.0550;
37.5000;0.1620;-0.0167;
37.8000;0.1555;-0.0406;
38.1000;0.1416;-0.0741;
38.4000;0.1441;-0.0621;
38.7000;0.1522;-0.0526;
39.0000;0.1530;-0.0382;
39.3000;0.1571;-0.0239;
39.6000;0.1498;-0.0406;
39.9000;0.1547;-0.0335;
40.2000;0.1506;-0.0287;
40.5000;0.1530;-0.0191;
40.8000;0.1563;-0.0167;
41.1000;0.1538;-0.0263;
41.4000;0.1538;-0.0287;
41.7000;0.1490;-0.0311;
42.0000;0.1530;-0.0311;
42.3000;0.1506;-0.0311;
42.6000;0.1498;-0.0335;
42.9000;0.1555;-0.0191;
43.2000;0.1514;-0.0335;
43.5000;0.1506;-0.0335;
43.8000;0.1506;-0.0335;
44.1000;0.1612;-0.0096;
44.4000;0.1587;-0.0096;
44.7000;0.1530;-0.0239;
45.0000;0.1522;-0.0239;
45.3000;0.1473;-0.0335;
45.6000;0.1563;-0.0096;
45.9000;0.1547;-0.0096;
46.2000;0.1538;-0.0167;
46.5000;0.1587;0.0024;
46.8000;0.1530;-0.0167;
47.1000;0.1538;-0.0143;
47.4000;0.1522;-0.0191;
47.7000;0.1514;-0.0263;
48.0000;0.1514;-0.0311;
48.3000;0.1522;-0.0263;
48.6000;0.1522;-0.0239;
48.9000;0.1514;-0.0263;
49.2000;0.1514;-0.0311;
49.5000;0.1563;-0.0287;
49.8000;0.1530;-0.0263;
50.1000;0.1530;-0.0239;
50.4000;0.1514;-0.0382;
50.7000;0.1538;-0.0454;
51.0000;0.1514;-0.0526;
51.3000;0.1465;-0.0621;
51.6000;0.1514;-0.0550;
51.9000;0.1514;-0.0502;
52.2000;0.1514;-0.0358;
52.5000;0.1522;-0.0287;
52.8000;0.1498;-0.0311;
53.1000;0.1530;-0.0167;
53.4000;0.1514;-0.0239;
53.7000;0.1522;-0.0215;
54.0000;0.1538;-0.0287;
54.3000;0.1530;-0.0382;
54.6000;0.1522;-0.0502;
54.9000;0.1587;-0.0311;
55.2000;0.1538;-0.0454;
55.5000;0.1522;-0.0382;
55.8000;0.1530;-0.0358;
56.1000;0.1530;-0.0406;
56.4000;0.1498;-0.0550;
56.7000;0.1522;-0.0382;
57.0000;0.1620;-0.0239;
57.3000;0.1547;-0.0454;
57.6000;0.1522;-0.0406;
57.9000;0.1595;-0.0311;
58.2000;0.1498;-0.0454;
58.5000;0.1514;-0.0406;
58.8000;0.1522;-0.0358;
59.1000;0.1457;-0.0550;
59.4000;0.1514;-0.0287;
59.7000;0.1481;-0.0478;
60.0000;0.1490;-0.0406;
60.3000;0.1498;-0.0358;
60.6000;0.1457;-0.0550;
60.9000;0.1506;-0.0430;
61.2000;0.1587;-0.0311;
61.5000;0.1555;-0.0502;
61.8000;0.1514;-0.0550;
62.1000;0.1538;-0.0406;
62.4000;0.1538;-0.0335;
62.7000;0.1506;-0.0382;
63.0000;0.1579;-0.0239;
63.3000;0.1522;-0.0311;
63.6000;0.1481;-0.0478;
63.9000;0.1465;-0.0478;
64.2000;0.1522;-0.0311;
64.5000;0.1538;-0.0335;
64.8000;0.1522;-0.0454;
65.1000;0.1538;-0.0454;
65.4000;0.1538;-0.0526;
65.7000;0.1514;-0.0550;
66.0000;0.1530;-0.0621;
66.3000;0.1555;-0.0645;
66.6000;0.1514;-0.0693;
66.9000;0.1522;-0.0669;
67.2000;0.1522;-0.0693;
67.5000;0.1555;-0.0574;
67.8000;0.1530;-0.0597;
68.1000;0.1522;-0.0621;
68.4000;0.1514;-0.0621;
68.7000;0.1555;-0.0502;
69.0000;0.1522;-0.0574;
69.3000;0.1514;-0.0621;
69.6000;0.1538;-0.0550;
69.9000;0.1522;-0.0597;
70.2000;0.1522;-0.0502;
70.5000;0.1506;-0.0526;
70.8000;0.1514;-0.0430;
71.1000;0.1522;-0.0454;
71.4000;0.1506;-0.0526;
71.7000;0.1514;-0.0550;
72.0000;0.1522;-0.0550;
72.3000;0.1490;-0.0597;
72.6000;0.1522;-0.0550;
72.9000;0.1547;-0.0502;
73.2000;0.1506;-0.0645;
73.5000;0.1481;-0.0693;
73.8000;0.1530;-0.0669;
74.1000;0.1530;-0.0597;
74.4000;0.1481;-0.0741;
74.7000;0.1522;-0.0693;
75.0000;0.1522;-0.0765;
75.3000;0.1530;-0.0669;
75.6000;0.1530;-0.0621;
75.9000;0.1522;-0.0717;
76.2000;0.1530;-0.0645;
76.5000;0.1538;-0.0621;
76.8000;0.1538;-0.0526;
77.1000;0.1514;-0.0478;
77.4000;0.1400;-0.0765;
77.7000;0.1514;-0.0526;
78.0000;0.1547;-0.0358;
78.3000;0.1522;-0.0406;
78.6000;0.1530;-0.0430;
78.9000;0.1490;-0.0526;
79.2000;0.1555;-0.0406;
79.5000;0.1457;-0.0717;
79.8000;0.1473;-0.0669;
80.1000;0.1538;-0.0406;
80.4000;0.1538;-0.0478;
80.7000;0.1522;-0.0597;
81.0000;0.1514;-0.0574;
81.3000;0.1563;-0.0430;
81.6000;0.1555;-0.0406;
81.9000;0.1522;-0.0406;
82.2000;0.1481;-0.0454;
82.5000;0.1498;-0.0526;
82.8000;0.1522;-0.0430;
83.1000;0.1547;-0.0406;
83.4000;0.1522;-0.0430;
83.7000;0.1530;-0.0335;
84.0000;0.1481;-0.0478;
84.3000;0.1604;-0.0119;
84.6000;0.1498;-0.0454;
84.9000;0.1538;-0.0311;
85.2000;0.1457;-0.0454;
85.5000;0.1547;-0.0287;
85.8000;0.1530;-0.0382;
86.1000;0.1457;-0.0597;
86.4000;0.1563;-0.0287;
86.7000;0.1538;-0.0382;
87.0000;0.1514;-0.0478;
87.3000;0.1514;-0.0478;
87.6000;0.1522;-0.0430;
87.9000;0.1522;-0.0215;
88.2000;0.1530;-0.0143;
88.5000;0.1538;-0.0096;
88.8000;0.1465;-0.0215;
89.1000;0.1522;-0.0119;
89.4000;0.1538;-0.0119;
89.7000;0.1522;-0.0215;
90.0000;0.1538;-0.0215;
90.3000;0.1522;-0.0287;
90.6000;0.1514;-0.0263;
90.9000;0.1522;-0.0287;
91.2000;0.1514;-0.0239;
91.5000;0.1530;-0.0239;
91.8000;0.1547;-0.0215;
92.1000;0.1522;-0.0167;
92.4000;0.1538;-0.0143;
92.7000;0.1522;-0.0191;
93.0000;0.1506;-0.0335;
93.3000;0.1538;-0.0263;
93.6000;0.1530;-0.0311;
93.9000;0.1522;-0.0335;
94.2000;0.1530;-0.0335;
94.5000;0.1547;-0.0287;
94.8000;0.1555;-0.0215;
95.1000;0.1514;-0.0358;
95.4000;0.1465;-0.0502;
95.7000;0.1514;-0.0406;
96.0000;0.1563;-0.0311;
96.3000;0.1530;-0.0382;
96.6000;0.1555;-0.0287;
96.9000;0.1538;-0.0239;
97.2000;0.1530;-0.0191;
97.5000;0.1449;-0.0335;
97.8000;0.1441;-0.0382;
98.1000;0.1530;-0.0119;
98.4000;0.1530;-0.0119;
98.7000;0.1538;-0.0143;
99.0000;0.1547;-0.0143;
99.3000;0.1506;-0.0287;
99.6000;0.1538;-0.0191;
99.9000;0.1547;-0.0191;
100.2000;0.1530;-0.0191;
100.5000;0.1514;-0.0191;
100.8000;0.1538;-0.0119;
101.1000;0.1538;-0.0167;
101.4000;0.1530;-0.0167;
101.7000;0.1530;-0.0119;
102.0000;0.1506;-0.0167;
102.3000;0.1530;-0.0119;
102.6000;0.1547;-0.0191;
102.9000;0.1579;-0.0048;
103.2000;0.1530;-0.0239;
103.5000;0.1514;-0.0263;
103.8000;0.1530;-0.0239;
104.1000;0.1579;-0.0096;
104.4000;0.1522;-0.0239;
104.7000;0.1538;-0.0024;
105.0000;0.1571;0.0024;
105.3000;0.1514;-0.0167;
105.6000;0.1473;-0.0358;
105.9000;0.1555;-0.0143;
106.2000;0.1506;-0.0311;
106.5000;0.1538;-0.0239;
106.8000;0.1506;-0.0311;
107.1000;0.1538;-0.0263;
107.4000;0.1563;-0.0167;
107.7000;0.1522;-0.0335;
108.0000;0.1522;-0.0335;
108.3000;0.1563;-0.0263;
108.6000;0.1522;-0.0358;
108.9000;0.1661;-0.0072;
109.2000;0.1522;-0.0358;
109.5000;0.1530;-0.0358;
109.8000;0.1522;-0.0287;
110.1000;0.1522;-0.0358;
110.4000;0.1522;-0.0287;
110.7000;0.1530;-0.0335;
111.0000;0.1514;-0.0454;
111.3000;0.1547;-0.0430;
111.6000;0.1490;-0.0454;
111.9000;0.1530;-0.0335;
112.2000;0.1530;-0.0430;
112.5000;0.1538;-0.0382;
112.8000;0.1538;-0.0335;
113.1000;0.1473;-0.0454;
113.4000;0.1538;-0.0311;
113.7000;0.1530;-0.0263;
114.0000;0.1522;-0.0287;
114.3000;0.1547;-0.0311;
114.6000;0.1538;-0.0335;
114.9000;0.1522;-0.0430;
115.2000;0.1514;-0.0550;
115.5000;0.1538;-0.0478;
115.8000;0.1530;-0.0406;
116.1000;0.1490;-0.0478;
116.4000;0.1473;-0.0597;
116.7000;0.1547;-0.0382;
117.0000;0.1538;-0.0430;
117.3000;0.1571;-0.0311;
117.6000;0.1538;-0.0311;
117.9000;0.1522;-0.0406;
118.2000;0.1498;-0.0478;
118.5000;0.1530;-0.0406;
118.8000;0.1522;-0.0358;
119.1000;0.1465;-0.0597;
119.4000;0.1555;-0.0382;
119.7000;0.1498;-0.0478;
120.0000;0.1522;-0.0430;
120.3000;0.1498;-0.0478;
120.6000;0.1530;-0.0406;
120.9000;0.1514;-0.0382;
121.2000;0.1522;-0.0382;
121.5000;0.1530;-0.0287;
121.8000;0.1530;-0.0335;
122.1000;0.1506;-0.0430;
122.4000;0.1498;-0.0526;
122.7000;0.1522;-0.0502;
123.0000;0.1538;-0.0454;
123.3000;0.1498;-0.0526;
123.6000;0.1538;-0.0430;
123.9000;0.1522;-0.0478;
124.2000;0.1530;-0.0478;
124.5000;0.1579;-0.0263;
124.8000;0.1587;-0.0335;
125.1000;0.1522;-0.0478;
125.4000;0.1538;-0.0478;
125.7000;0.1538;-0.0502;
126.0000;0.1522;-0.0526;
126.3000;0.1498;-0.0621;
126.6000;0.1522;-0.0597;
126.9000;0.1522;-0.0550;
127.2000;0.1538;-0.0526;
127.5000;0.1563;-0.0358;
127.8000;0.1481;-0.0574;
128.1000;0.1530;-0.0382;
128.4000;0.1547;-0.0287;
128.7000;0.1538;-0.0311;
129.0000;0.1538;-0.0311;
129.3000;0.1514;-0.0335;
129.6000;0.1538;-0.0287;
129.9000;0.1612;-0.0072;
130.2000;0.1441;-0.0550;
130.5000;0.1433;-0.0645;
130.8000;0.1530;-0.0358;
131.1000;0.1547;-0.0335;
131.4000;0.1514;-0.0430;
131.7000;0.1530;-0.0335;
132.0000;0.1522;-0.0358;
132.3000;0.1506;-0.0358;
132.6000;0.1538;-0.0454;
132.9000;0.1530;-0.0502;
133.2000;0.1563;-0.0335;
133.5000;0.1506;-0.0478;
133.8000;0.1522;-0.0335;
134.1000;0.1530;-0.0335;
134.4000;0.1538;-0.0382;
134.7000;0.1522;-0.0335;
135.0000;0.1481;-0.0382;
135.3000;0.1530;-0.0215;
135.6000;0.1522;-0.0215;
135.9000;0.1522;-0.0239;
136.2000;0.1522;-0.0239;
136.5000;0.1481;-0.0263;
136.8000;0.1522;-0.0287;
137.1000;0.1522;-0.0096;
137.4000;0.1571;-0.0024;
137.7000;0.1538;-0.0119;
138.0000;0.1538;-0.0096;
138.3000;0.1392;-0.0502;
138.6000;0.1522;-0.0215;
138.9000;0.1514;-0.0311;
139.2000;0.1490;-0.0382;
139.5000;0.1530;-0.0263;
139.8000;0.1522;-0.0287;
140.1000;0.1563;-0.0335;
140.4000;0.1530;-0.0382;
140.7000;0.1530;-0.0358;
141.0000;0.1530;-0.0335;
141.3000;0.1473;-0.0478;
141.6000;0.1514;-0.0406;
141.9000;0.1498;-0.0335;
142.2000;0.1514;-0.0287;
142.5000;0.1530;-0.0287;
142.8000;0.1522;-0.0311;
143.1000;0.1506;-0.0311;
143.4000;0.1473;-0.0311;
143.7000;0.1530;-0.0119;
144.0000;0.1522;-0.0167;
144.3000;0.1530;-0.0167;
144.6000;0.1506;-0.0311;
144.9000;0.1522;-0.0167;
145.2000;0.1522;-0.0167;
145.5000;0.1514;-0.0096;
145.8000;0.1555;-0.0167;
146.1000;0.1522;-0.0215;
146.4000;0.1538;-0.0167;
146.7000;0.1530;-0.0143;
147.0000;0.1538;-0.0119;
147.3000;0.1538;-0.0143;
147.6000;0.1530;-0.0239;
147.9000;0.1522;-0.0263;
148.2000;0.1522;-0.0215;
148.5000;0.1530;-0.0167;
148.8000;0.1547;-0.0239;
149.1000;0.1538;-0.0263;
149.4000;0.1514;-0.0406;
149.7000;0.1514;-0.0478;
150.0000;0.1498;-0.0430;
150.3000;0.1522;-0.0335;
150.6000;0.1514;-0.0263;
150.9000;0.1425;-0.0478;
151.2000;0.1506;-0.0239;
151.5000;0.1449;-0.0311;
151.8000;0.1530;-0.0119;
152.1000;0.1506;-0.0143;
152.4000;0.1498;-0.0191;
152.7000;0.1538;-0.0048;
153.0000;0.1498;-0.0239;
153.3000;0.1506;-0.0191;
153.6000;0.1481;-0.0311;
153.9000;0.1522;-0.0191;
154.2000;0.1506;-0.0335;
154.5000;0.1498;-0.0454;
154.8000;0.1506;-0.0430;
155.1000;0.1498;-0.0430;
155.4000;0.1514;-0.0263;
155.7000;0.1514;-0.0263;
156.0000;0.1522;-0.0287;
156.3000;0.1514;-0.0358;
156.6000;0.1481;-0.0526;
156.9000;0.1522;-0.0430;
157.2000;0.1547;-0.0430;
157.5000;0.1522;-0.0454;
157.8000;0.1506;-0.0502;
158.1000;0.1530;-0.0430;
158.4000;0.1538;-0.0430;
158.7000;0.1522;-0.0502;
159.0000;0.1563;-0.0358;
159.3000;0.1530;-0.0263;
159.6000;0.1481;-0.0358;
159.9000;0.1530;-0.0215;
160.2000;0.1547;-0.0191;
160.5000;0.1538;-0.0263;
160.8000;0.1555;-0.0215;
161.1000;0.1555;-0.0167;
161.4000;0.1465;-0.0430;
161.7000;0.1530;-0.0215;
162.0000;0.1514;-0.0263;
162.3000;0.1457;-0.0478;
162.6000;0.1522;-0.0215;
162.9000;0.1506;-0.0263;
163.2000;0.1522;-0.0239;
163.5000;0.1571;-0.0143;
163.8000;0.1530;-0.0191;
164.1000;0.1506;-0.0167;
164.4000;0.1514;-0.0167;
164.7000;0.1538;-0.0191;
165.0000;0.1514;-0.0263;
165.3000;0.1506;-0.0263;
165.6000;0.1514;-0.0287;
165.9000;0.1530;-0.0239;
166.2000;0.1498;-0.0358;
166.5000;0.1538;-0.0263;
166.8000;0.1555;-0.0239;
167.1000;0.1538;-0.0239;
167.4000;0.1465;-0.0382;
167.7000;0.1522;-0.0263;
168.0000;0.1555;-0.0167;
168.3000;0.1514;-0.0239;
168.6000;0.1628;0.0000;
168.9000;0.1530;-0.0263;
169.2000;0.1514;-0.0263;
169.5000;0.1473;-0.0430;
169.8000;0.1547;-0.0239;
170.1000;0.1514;-0.0358;
170.4000;0.1538;-0.0287;
170.7000;0.1522;-0.0335;
171.0000;0.1457;-0.0478;
171.3000;0.1530;-0.0311;
171.6000;0.1522;-0.0287;
171.9000;0.1506;-0.0215;
172.2000;0.1530;-0.0239;
172.5000;0.1530;-0.0239;
172.8000;0.1538;-0.0119;
173.1000;0.1522;-0.0048;
173.4000;0.1522;-0.0072;
173.7000;0.1530;-0.0096;
174.0000;0.1481;-0.0311;
174.3000;0.1498;-0.0215;
174.6000;0.1522;-0.0119;
174.9000;0.1433;-0.0406;
175.2000;0.1498;-0.0311;
175.5000;0.1506;-0.0263;
175.8000;0.1538;-0.0287;
176.1000;0.1522;-0.0358;
176.4000;0.1530;-0.0311;
176.7000;0.1587;-0.0239;
177.0000;0.1571;-0.0191;
177.3000;0.1465;-0.0478;
177.6000;0.1563;-0.0287;
177.9000;0.1563;-0.0239;
178.2000;0.1579;-0.0287;
178.5000;0.1538;-0.0454;
178.8000;0.1522;-0.0454;
179.1000;0.1498;-0.0645;
179.4000;0.1473;-0.0693;
179.7000;0.1522;-0.0574;
180.0000;0.1530;-0.0502;
180.3000;0.1514;-0.0597;
180.6000;0.1506;-0.0574;
180.9000;0.1498;-0.0478;
181.2000;0.1587;-0.0263;
181.5000;0.1490;-0.0502;
181.8000;0.1538;-0.0358;
182.1000;0.1522;-0.0382;
182.4000;0.1547;-0.0287;
182.7000;0.1506;-0.0430;
183.0000;0.1522;-0.0430;
183.3000;0.1530;-0.0430;
183.6000;0.1538;-0.0382;
183.9000;0.1563;-0.0335;
184.2000;0.1530;-0.0406;
184.5000;0.1530;-0.0358;
184.8000;0.1522;-0.0382;
185.1000;0.1538;-0.0311;
185.4000;0.1522;-0.0335;
185.7000;0.1481;-0.0478;
186.0000;0.1547;-0.0382;
186.3000;0.1473;-0.0574;
186.6000;0.1514;-0.0430;
186.9000;0.1530;-0.0382;
187.2000;0.1514;-0.0406;
187.5000;0.1530;-0.0358;
187.8000;0.1530;-0.0406;
188.1000;0.1522;-0.0454;
188.4000;0.1555;-0.0382;
188.7000;0.1547;-0.0335;
189.0000;0.1530;-0.0358;
189.3000;0.1538;-0.0287;
189.6000;0.1538;-0.0358;
189.9000;0.1530;-0.0454;
190.2000;0.1547;-0.0478;
190.5000;0.1530;-0.0502;
190.8000;0.1506;-0.0669;
191.1000;0.1514;-0.0621;
191.4000;0.1522;-0.0550;
191.7000;0.1514;-0.0526;
192.0000;0.1506;-0.0574;
192.3000;0.1530;-0.0502;
192.6000;0.1669;-0.0072;
192.9000;0.1522;-0.0430;
193.2000;0.1514;-0.0454;
193.5000;0.1563;-0.0382;
193.8000;0.1538;-0.0454;
194.1000;0.1522;-0.0526;
194.4000;0.1595;-0.0311;
194.7000;0.1522;-0.0430;
195.0000;0.1465;-0.0526;
195.3000;0.1530;-0.0430;
195.6000;0.1530;-0.0430;
195.9000;0.1441;-0.0645;
196.2000;0.1514;-0.0430;
196.5000;0.1530;-0.0478;
196.8000;0.1473;-0.0597;
197.1000;0.1522;-0.0406;
197.4000;0.1514;-0.0406;
197.7000;0.1506;-0.0454;
198.0000;0.1457;-0.0621;
198.3000;0.1498;-0.0502;
198.6000;0.1530;-0.0454;
198.9000;0.1522;-0.0335;
199.2000;0.1547;-0.0335;
199.5000;0.1457;-0.0621;
199.8000;0.1522;-0.0526;
200.1000;0.1530;-0.0502;
200.4000;0.1522;-0.0430;
200.7000;0.1522;-0.0502;
201.0000;0.1506;-0.0550;
201.3000;0.1473;-0.0645;
201.6000;0.1514;-0.0454;
201.9000;0.1392;-0.0789;
202.2000;0.1457;-0.0574;
202.5000;0.1506;-0.0430;
202.8000;0.1441;-0.0621;
203.1000;0.1522;-0.0311;
203.4000;0.1522;-0.0311;
203.7000;0.1506;-0.0358;
204.0000;0.1563;-0.0024;
204.3000;0.1514;-0.0167;
204.6000;0.1498;-0.0311;
204.9000;0.1514;-0.0191;
205.2000;0.1530;-0.0143;
205.5000;0.1547;-0.0167;
205.8000;0.1547;-0.0215;
206.1000;0.1514;-0.0287;
206.4000;0.1530;-0.0263;
206.7000;0.1530;-0.0239;
207.0000;0.1522;-0.0239;
207.3000;0.1506;-0.0239;
207.6000;0.1522;-0.0335;
207.9000;0.1522;-0.0263;
208.2000;0.1538;-0.0287;
208.5000;0.1465;-0.0430;
208.8000;0.1522;-0.0335;
209.1000;0.1530;-0.0287;
209.4000;0.1538;-0.0239;
209.7000;0.1538;-0.0287;
210.0000;0.1530;-0.0287;
210.3000;0.1522;-0.0382;
210.6000;0.1498;-0.0430;
210.9000;0.1514;-0.0478;
211.2000;0.1514;-0.0406;
211.5000;0.1506;-0.0478;
211.8000;0.1514;-0.0430;
212.1000;0.1506;-0.0454;
212.4000;0.1547;-0.0311;
212.7000;0.1506;-0.0382;
213.0000;0.1522;-0.0358;
213.3000;0.1514;-0.0358;
213.6000;0.1522;-0.0430;
213.9000;0.1506;-0.0382;
214.2000;0.1498;-0.0358;
214.5000;0.1506;-0.0263;
214.8000;0.1522;-0.0167;
215.1000;0.1530;-0.0143;
215.4000;0.1473;-0.0335;
215.7000;0.1514;-0.0382;
216.0000;0.1563;-0.0406;
216.3000;0.1530;-0.0430;
216.6000;0.1530;-0.0454;
216.9000;0.1538;-0.0454;
217.2000;0.1522;-0.0478;
217.5000;0.1490;-0.0526;
217.8000;0.1514;-0.0454;
218.1000;0.1506;-0.0382;
218.4000;0.1612;-0.0167;
218.7000;0.1522;-0.0430;
219.0000;0.1522;-0.0406;
219.3000;0.1604;-0.0215;
219.6000;0.1506;-0.0430;
219.9000;0.1530;-0.0287;
220.2000;0.1522;-0.0335;
220.5000;0.1530;-0.0358;
220.8000;0.1465;-0.0502;
221.1000;0.1538;-0.0287;
221.4000;0.1547;-0.0239;
221.7000;0.1522;-0.0287;
222.0000;0.1530;-0.0287;
222.3000;0.1555;-0.0191;
222.6000;0.1563;-0.0191;
222.9000;0.1522;-0.0239;
223.2000;0.1498;-0.0335;
223.5000;0.1530;-0.0263;
223.8000;0.1522;-0.0167;
224.1000;0.1473;-0.0358;
224.4000;0.1555;-0.0048;
224.7000;0.1595;-0.0048;
225.0000;0.1522;-0.0311;
225.3000;0.1522;-0.0311;
225.6000;0.1522;-0.0335;
225.9000;0.1506;-0.0382;
226.2000;0.1506;-0.0335;
226.5000;0.1538;-0.0358;
226.8000;0.1514;-0.0406;
227.1000;0.1661;-0.0048;
227.4000;0.1547;-0.0430;
227.7000;0.1522;-0.0502;
228.0000;0.1514;-0.0454;
228.3000;0.1538;-0.0430;
228.6000;0.1522;-0.0478;
228.9000;0.1530;-0.0382;
229.2000;0.1522;-0.0406;
229.5000;0.1514;-0.0335;
229.8000;0.1514;-0.0287;
230.1000;0.1530;-0.0239;
230.4000;0.1547;-0.0215;
230.7000;0.1514;-0.0263;
231.0000;0.1514;-0.0191;
231.3000;0.1530;-0.0167;
231.6000;0.1522;-0.0239;
231.9000;0.1530;-0.0215;
232.2000;0.1514;-0.0263;
232.5000;0.1604;0.0000;
232.8000;0.1506;-0.0239;
233.1000;0.1530;-0.0191;
233.4000;0.1481;-0.0263;
233.7000;0.1514;-0.0191;
234.0000;0.1547;-0.0167;
234.3000;0.1571;-0.0024;
234.6000;0.1490;-0.0335;
234.9000;0.1506;-0.0263;
235.2000;0.1506;-0.0335;
235.5000;0.1620;-0.0119;
235.8000;0.1514;-0.0358;
236.1000;0.1498;-0.0382;
236.4000;0.1514;-0.0382;
236.7000;0.1522;-0.0358;
237.0000;0.1555;-0.0239;
237.3000;0.1530;-0.0287;
237.6000;0.1514;-0.0358;
237.9000;0.1522;-0.0335;
238.2000;0.1538;-0.0311;
238.5000;0.1514;-0.0382;
238.8000;0.1530;-0.0358;
239.1000;0.1538;-0.0382;
239.4000;0.1506;-0.0382;
239.7000;0.1522;-0.0263;
240.0000;0.1514;-0.0263;
240.3000;0.1530;-0.0215;
240.6000;0.1522;-0.0287;
240.9000;0.1514;-0.0287;
241.2000;0.1514;-0.0358;
241.5000;0.1522;-0.0358;
241.8000;0.1547;-0.0311;
242.1000;0.1514;-0.0335;
242.4000;0.1392;-0.0645;
242.7000;0.1473;-0.0430;
243.0000;0.1555;-0.0239;
243.3000;0.1449;-0.0526;
243.6000;0.1490;-0.0358;
243.9000;0.1498;-0.0287;
244.2000;0.1506;-0.0311;
244.5000;0.1547;-0.0143;
244.8000;0.1506;-0.0287;
245.1000;0.1522;-0.0143;
245.4000;0.1563;0.0024;
245.7000;0.1522;-0.0143;
246.0000;0.1449;-0.0311;
246.3000;0.1514;-0.0263;
246.6000;0.1538;-0.0215;
246.9000;0.1530;-0.0239;
247.2000;0.1506;-0.0215;
247.5000;0.1514;-0.0191;
247.8000;0.1514;-0.0167;
248.1000;0.1547;-0.0143;
248.4000;0.1530;-0.0215;
248.7000;0.1547;-0.0096;
249.0000;0.1563;-0.0024;
249.3000;0.1530;-0.0191;
249.6000;0.1563;0.0000;
249.9000;0.1514;-0.0119;
250.2000;0.1644;0.0191;
250.5000;0.1579;-0.0072;
250.8000;0.1522;-0.0287;
251.1000;0.1571;-0.0167;
251.4000;0.1579;-0.0119;
251.7000;0.1530;-0.0239;
252.0000;0.1522;-0.0239;
252.3000;0.1547;-0.0215;
252.6000;0.1522;-0.0215;
252.9000;0.1530;-0.0191;
253.2000;0.1498;-0.0311;
253.5000;0.1506;-0.0335;
253.8000;0.1490;-0.0287;
254.1000;0.1530;-0.0167;
254.4000;0.1473;-0.0382;
254.7000;0.1538;-0.0239;
255.0000;0.1555;-0.0239;
255.3000;0.1514;-0.0287;
255.6000;0.1530;-0.0263;
255.9000;0.1530;-0.0239;
256.2000;0.1506;-0.0311;
256.5000;0.1514;-0.0287;
256.8000;0.1538;-0.0287;
257.1000;0.1530;-0.0263;
257.4000;0.1514;-0.0239;
257.7000;0.1522;-0.0167;
258.0000;0.1514;-0.0167;
258.3000;0.1514;-0.0215;
258.6000;0.1530;-0.0072;
258.9000;0.1514;-0.0143;
259.2000;0.1522;-0.0143;
259.5000;0.1514;-0.0119;
259.8000;0.1530;-0.0119;
260.1000;0.1506;-0.0215;
260.4000;0.1547;-0.0191;
260.7000;0.1530;-0.0191;
261.0000;0.1538;-0.0143;
261.3000;0.1490;-0.0239;
261.6000;0.1514;-0.0215;
261.9000;0.1514;-0.0239;
262.2000;0.1457;-0.0311;
262.5000;0.1555;-0.0096;
262.8000;0.1538;-0.0191;
263.1000;0.1514;-0.0239;
263.4000;0.1547;-0.0119;
263.7000;0.1522;-0.0119;
264.0000;0.1522;-0.0048;
264.3000;0.1522;0.0000;
264.6000;0.1571;0.0167;
264.9000;0.1538;0.0096;
265.2000;0.1400;-0.0239;
265.5000;0.1538;0.0143;
265.8000;0.1538;0.0096;
266.1000;0.1514;-0.0072;
266.4000;0.1563;0.0048;
266.7000;0.1506;-0.0215;
267.0000;0.1620;0.0024;
267.3000;0.1522;-0.0215;
267.6000;0.1506;-0.0335;
267.9000;0.1441;-0.0621;
268.2000;0.1522;-0.0335;
268.5000;0.1514;-0.0239;
268.8000;0.1433;-0.0454;
269.1000;0.1481;-0.0287;
269.4000;0.1538;-0.0167;
269.7000;0.1506;-0.0239;
270.0000;0.1522;-0.0239;
270.3000;0.1604;-0.0072;
270.6000;0.1547;-0.0167;
270.9000;0.1530;-0.0143;
271.2000;0.1530;-0.0096;
271.5000;0.1530;-0.0167;
271.8000;0.1481;-0.0287;
272.1000;0.1465;-0.0311;
272.4000;0.1514;-0.0167;
272.7000;0.1636;0.0167;
273.0000;0.1490;-0.0335;
273.3000;0.1571;-0.0096;
273.6000;0.1538;-0.0119;
273.9000;0.1547;-0.0119;
274.2000;0.1547;-0.0119;
274.5000;0.1473;-0.0335;
274.8000;0.1522;-0.0263;
275.1000;0.1514;-0.0263;
275.4000;0.1498;-0.0430;
275.7000;0.1506;-0.0335;
276.0000;0.1481;-0.0406;
276.3000;0.1514;-0.0358;
276.6000;0.1530;-0.0287;
276.9000;0.1538;-0.0287;
277.2000;0.1514;-0.0358;
277.5000;0.1514;-0.0382;
277.8000;0.1514;-0.0311;
278.1000;0.1547;-0.0311;
278.4000;0.1506;-0.0287;
278.7000;0.1522;-0.0263;
279.0000;0.1547;-0.0191;
279.3000;0.1530;-0.0311;
279.6000;0.1538;-0.0287;
279.9000;0.1522;-0.0311;
280.2000;0.1555;-0.0215;
280.5000;0.1457;-0.0382;
280.8000;0.1538;-0.0143;
281.1000;0.1530;-0.0167;
281.4000;0.1547;-0.0072;
281.7000;0.1514;-0.0215;
282.0000;0.1538;-0.0167;
282.3000;0.1522;-0.0239;
282.6000;0.1490;-0.0382;
282.9000;0.1538;-0.0311;
283.2000;0.1522;-0.0358;
283.5000;0.1392;-0.0669;
283.8000;0.1530;-0.0287;
284.1000;0.1571;-0.0167;
284.4000;0.1538;-0.0215;
284.7000;0.1506;-0.0358;
285.0000;0.1506;-0.0382;
285.3000;0.1530;-0.0358;
285.6000;0.1547;-0.0358;
285.9000;0.1538;-0.0406;
286.2000;0.1522;-0.0502;
286.5000;0.1538;-0.0382;
286.8000;0.1522;-0.0335;
287.1000;0.1530;-0.0263;
287.4000;0.1538;-0.0215;
287.7000;0.1506;-0.0239;
288.0000;0.1555;-0.0096;
288.3000;0.1514;-0.0191;
288.6000;0.1530;-0.0263;
288.9000;0.1506;-0.0382;
289.2000;0.1538;-0.0287;
289.5000;0.1481;-0.0311;
289.8000;0.1530;-0.0191;
290.1000;0.1506;-0.0215;
290.4000;0.1547;-0.0191;
290.7000;0.1514;-0.0311;
291.0000;0.1538;-0.0311;
291.3000;0.1538;-0.0406;
291.6000;0.1506;-0.0454;
291.9000;0.1465;-0.0502;
292.2000;0.1506;-0.0358;
292.5000;0.1514;-0.0335;
292.8000;0.1522;-0.0215;
293.1000;0.1522;-0.0191;
293.4000;0.1498;-0.0215;
293.7000;0.1530;-0.0263;
294.0000;0.1579;-0.0263;
294.3000;0.1522;-0.0454;
294.6000;0.1587;-0.0263;
294.9000;0.1498;-0.0478;
295.2000;0.1530;-0.0406;
295.5000;0.1522;-0.0382;
295.8000;0.1522;-0.0406;
296.1000;0.1620;-0.0263;
296.4000;0.1530;-0.0430;
296.7000;0.1457;-0.0621;
297.0000;0.1465;-0.0574;
297.3000;0.1522;-0.0430;
297.6000;0.1530;-0.0406;
297.9000;0.1522;-0.0287;
298.2000;0.1481;-0.0406;
298.5000;0.1514;-0.0311;
298.8000;0.1522;-0.0335;
299.1000;0.1506;-0.0311;
299.4000;0.1514;-0.0287;
299.7000;0.1555;-0.0263;
300.0000;0.1563;-0.0191;
300.3000;0.1465;-0.0478;
300.6000;0.1514;-0.0263;
300.9000;0.1514;-0.0287;
301.2000;0.1522;-0.0335;
301.5000;0.1628;-0.0072;
301.8000;0.1522;-0.0287;
302.1000;0.1498;-0.0382;
302.4000;0.1522;-0.0311;
302.7000;0.1522;-0.0406;
303.0000;0.1522;-0.0526;
303.3000;0.1522;-0.0550;
303.6000;0.1547;-0.0502;
303.9000;0.1530;-0.0621;
304.2000;0.1538;-0.0574;
304.5000;0.1416;-0.1028;
304.8000;0.1530;-0.0693;
305.1000;0.1522;-0.0645;
305.4000;0.1530;-0.0621;
305.7000;0.1538;-0.0526;
306.0000;0.1498;-0.0526;
306.3000;0.1538;-0.0430;
306.6000;0.1481;-0.0502;
306.9000;0.1498;-0.0406;
307.2000;0.1481;-0.0406;
307.5000;0.1538;-0.0215;
307.8000;0.1547;-0.0143;
308.1000;0.1506;-0.0191;
308.4000;0.1530;-0.0215;
308.7000;0.1530;-0.0167;
309.0000;0.1498;-0.0263;
309.3000;0.1490;-0.0287;
309.6000;0.1579;-0.0048;
309.9000;0.1547;-0.0167;
310.2000;0.1490;-0.0239;
310.5000;0.1457;-0.0406;
310.8000;0.1522;-0.0311;
311.1000;0.1538;-0.0287;
311.4000;0.1514;-0.0287;
311.7000;0.1522;-0.0263;
312.0000;0.1522;-0.0215;
312.3000;0.1652;0.0048;
312.6000;0.1522;-0.0215;
312.9000;0.1530;-0.0287;
313.2000;0.1514;-0.0335;
313.5000;0.1522;-0.0430;
313.8000;0.1538;-0.0406;
314.1000;0.1547;-0.0382;
314.4000;0.1522;-0.0502;
314.7000;0.1522;-0.0430;
315.0000;0.1506;-0.0454;
315.3000;0.1506;-0.0478;
315.6000;0.1490;-0.0550;
315.9000;0.1522;-0.0526;
316.2000;0.1498;-0.0597;
316.5000;0.1538;-0.0406;
316.8000;0.1530;-0.0430;
317.1000;0.1506;-0.0406;
317.4000;0.1506;-0.0454;
317.7000;0.1514;-0.0526;
318.0000;0.1514;-0.0454;
318.3000;0.1530;-0.0358;
318.6000;0.1530;-0.0382;
318.9000;0.1514;-0.0358;
319.2000;0.1530;-0.0263;
319.5000;0.1571;-0.0191;
319.8000;0.1514;-0.0287;
320.1000;0.1530;-0.0215;
320.4000;0.1506;-0.0263;
320.7000;0.1522;-0.0143;
321.0000;0.1514;-0.0167;
321.3000;0.1498;-0.0191;
321.6000;0.1473;-0.0335;
321.9000;0.1530;-0.0215;
322.2000;0.1498;-0.0263;
322.5000;0.1522;-0.0143;
322.8000;0.1530;-0.0191;
323.1000;0.1506;-0.0311;
323.4000;0.1514;-0.0311;
323.7000;0.1522;-0.0311;
324.0000;0.1530;-0.0335;
324.3000;0.1433;-0.0526;
324.6000;0.1514;-0.0382;
324.9000;0.1514;-0.0382;
325.2000;0.1522;-0.0335;
325.5000;0.1547;-0.0287;
325.8000;0.1530;-0.0287;
326.1000;0.1498;-0.0335;
326.4000;0.1522;-0.0263;
326.7000;0.1530;-0.0239;
327.0000;0.1514;-0.0287;
327.3000;0.1506;-0.0335;
327.6000;0.1514;-0.0263;
327.9000;0.1530;-0.0215;
328.2000;0.1530;-0.0239;
328.5000;0.1522;-0.0382;
328.8000;0.1514;-0.0406;
329.1000;0.1514;-0.0358;
329.4000;0.1514;-0.0406;
329.7000;0.1530;-0.0382;
330.0000;0.1490;-0.0454;
330.3000;0.1538;-0.0478;
330.6000;0.1498;-0.0574;
330.9000;0.1538;-0.0358;
331.2000;0.1522;-0.0311;
331.5000;0.1506;-0.0287;
331.8000;0.1530;-0.0119;
332.1000;0.1506;-0.0239;
332.4000;0.1490;-0.0311;
332.7000;0.1498;-0.0311;
333.0000;0.1661;0.0119;
333.3000;0.1571;-0.0096;
333.6000;0.1522;-0.0215;
333.9000;0.1392;-0.0454;
334.2000;0.1538;-0.0048;
334.5000;0.1579;0.0024;
334.8000;0.1530;-0.0143;
335.1000;0.1530;-0.0143;
335.4000;0.1506;-0.0215;
335.7000;0.1547;-0.0119;
336.0000;0.1506;-0.0287;
336.3000;0.1522;-0.0263;
336.6000;0.1522;-0.0287;
336.9000;0.1514;-0.0215;
337.2000;0.1514;-0.0191;
337.5000;0.1498;-0.0263;
337.8000;0.1538;-0.0143;
338.1000;0.1547;-0.0167;
338.4000;0.1506;-0.0263;
338.7000;0.1530;-0.0215;
339.0000;0.1522;-0.0191;
339.3000;0.1514;-0.0191;
339.6000;0.1530;-0.0239;
339.9000;0.1522;-0.0311;
340.2000;0.1473;-0.0478;
340.5000;0.1473;-0.0502;
340.8000;0.1498;-0.0478;
341.1000;0.1530;-0.0478;
341.4000;0.1481;-0.0574;
341.7000;0.1506;-0.0406;
342.0000;0.1522;-0.0358;
342.3000;0.1457;-0.0502;
342.6000;0.1506;-0.0335;
342.9000;0.1498;-0.0454;
343.2000;0.1481;-0.0574;
343.5000;0.1579;-0.0287;
343.8000;0.1522;-0.0478;
344.1000;0.1644;-0.0096;
344.4000;0.1522;-0.0382;
344.7000;0.1514;-0.0358;
345.0000;0.1514;-0.0335;
345.3000;0.1522;-0.0311;
345.6000;0.1514;-0.0406;
345.9000;0.1522;-0.0311;
346.2000;0.1530;-0.0335;
346.5000;0.1555;-0.0335;
346.8000;0.1514;-0.0430;
347.1000;0.1457;-0.0597;
347.4000;0.1530;-0.0382;
347.7000;0.1538;-0.0263;
348.0000;0.1587;-0.0143;
348.3000;0.1538;-0.0335;
348.6000;0.1514;-0.0287;
348.9000;0.1530;-0.0311;
349.2000;0.1530;-0.0358;
349.5000;0.1514;-0.0454;
349.8000;0.1530;-0.0454;
350.1000;0.1498;-0.0478;
350.4000;0.1384;-0.0765;
350.7000;0.1530;-0.0478;
351.0000;0.1522;-0.0454;
351.3000;0.1555;-0.0358;
351.6000;0.1522;-0.0478;
351.9000;0.1514;-0.0454;
352.2000;0.1530;-0.0454;
352.5000;0.1530;-0.0478;
352.8000;0.1522;-0.0382;
353.1000;0.1522;-0.0406;
353.4000;0.1506;-0.0478;
353.7000;0.1514;-0.0454;
354.0000;0.1522;-0.0358;
354.3000;0.1506;-0.0358;
354.6000;0.1514;-0.0287;
354.9000;0.1522;-0.0167;
355.2000;0.1538;-0.0167;
355.5000;0.1587;-0.0048;
355.8000;0.1514;-0.0287;
356.1000;0.1408;-0.0574;
356.4000;0.1530;-0.0358;
356.7000;0.1506;-0.0454;
357.0000;0.1530;-0.0335;
357.3000;0.1587;-0.0143;
357.6000;0.1522;-0.0263;
357.9000;0.1514;-0.0358;
358.2000;0.1522;-0.0406;
358.5000;0.1547;-0.0311;
358.8000;0.1522;-0.0335;
359.1000;0.1563;-0.0167;
359.4000;0.1522;-0.0335;
359.7000;0.1522;-0.0287;
360.0000;0.1457;-0.0478;
360.3000;0.1498;-0.0406;
360.6000;0.1498;-0.0454;
360.9000;0.1498;-0.0406;
361.2000;0.1530;-0.0358;
361.5000;0.1530;-0.0287;
361.8000;0.1530;-0.0358;
362.1000;0.1522;-0.0406;
362.4000;0.1530;-0.0358;
362.7000;0.1530;-0.0406;
363.0000;0.1465;-0.0645;
363.3000;0.1530;-0.0478;
363.6000;0.1506;-0.0574;
363.9000;0.1514;-0.0502;
364.2000;0.1579;-0.0406;
364.5000;0.1514;-0.0526;
364.8000;0.1408;-0.0789;
365.1000;0.1604;-0.0239;
365.4000;0.1522;-0.0502;
365.7000;0.1498;-0.0454;
366.0000;0.1522;-0.0382;
366.3000;0.1506;-0.0311;
366.6000;0.1506;-0.0406;
366.9000;0.1400;-0.0717;
367.2000;0.1522;-0.0502;
367.5000;0.1530;-0.0430;
367.8000;0.1538;-0.0263;
368.1000;0.1538;-0.0311;
368.4000;0.1514;-0.0406;
368.7000;0.1538;-0.0311;
369.0000;0.1538;-0.0311;
369.3000;0.1498;-0.0406;
369.6000;0.1530;-0.0287;
369.9000;0.1481;-0.0430;
370.2000;0.1522;-0.0335;
370.5000;0.1547;-0.0215;
370.8000;0.1465;-0.0502;
371.1000;0.1465;-0.0550;
371.4000;0.1498;-0.0502;
371.7000;0.1530;-0.0382;
372.0000;0.1579;-0.0263;
372.3000;0.1538;-0.0263;
372.6000;0.1514;-0.0382;
372.9000;0.1514;-0.0335;
373.2000;0.1514;-0.0358;
373.5000;0.1522;-0.0287;
373.8000;0.1538;-0.0311;
374.1000;0.1522;-0.0358;
374.4000;0.1506;-0.0382;
374.7000;0.1522;-0.0406;
375.0000;0.1522;-0.0406;
375.3000;0.1498;-0.0382;
375.6000;0.1522;-0.0311;
375.9000;0.1530;-0.0311;
376.2000;0.1530;-0.0287;
376.5000;0.1522;-0.0358;
376.8000;0.1530;-0.0335;
377.1000;0.1514;-0.0406;
377.4000;0.1538;-0.0311;
377.7000;0.1522;-0.0335;
378.0000;0.1522;-0.0311;
378.3000;0.1538;-0.0287;
378.6000;0.1522;-0.0430;
378.9000;0.1530;-0.0358;
379.2000;0.1530;-0.0406;
379.5000;0.1547;-0.0335;
379.8000;0.1547;-0.0311;
380.1000;0.1514;-0.0287;
380.4000;0.1538;-0.0239;
380.7000;0.1522;-0.0382;
381.0000;0.1522;-0.0382;
381.3000;0.1547;-0.0430;
381.6000;0.1498;-0.0478;
381.9000;0.1514;-0.0406;
382.2000;0.1563;-0.0311;
382.5000;0.1579;-0.0287;
382.8000;0.1530;-0.0454;
383.1000;0.1473;-0.0645;
383.4000;0.1530;-0.0478;
383.7000;0.1514;-0.0454;
384.0000;0.1563;-0.0263;
384.3000;0.1571;-0.0215;
384.6000;0.1514;-0.0454;
384.9000;0.1498;-0.0550;
385.2000;0.1563;-0.0335;
385.5000;0.1538;-0.0311;
385.8000;0.1506;-0.0287;
386.1000;0.1555;-0.0096;
386.4000;0.1441;-0.0406;
386.7000;0.1506;-0.0215;
387.0000;0.1514;-0.0263;
387.3000;0.1547;-0.0215;
387.6000;0.1506;-0.0287;
387.9000;0.1490;-0.0430;
388.2000;0.1628;-0.0048;
388.5000;0.1506;-0.0406;
388.8000;0.1530;-0.0311;
389.1000;0.1555;-0.0311;
389.4000;0.1465;-0.0478;
389.7000;0.1547;-0.0335;
390.0000;0.1514;-0.0382;
390.3000;0.1522;-0.0311;
390.6000;0.1563;-0.0215;
390.9000;0.1522;-0.0382;
391.2000;0.1522;-0.0430;
391.5000;0.1514;-0.0430;
391.8000;0.1481;-0.0550;
392.1000;0.1481;-0.0454;
392.4000;0.1514;-0.0215;
392.7000;0.1547;-0.0119;
393.0000;0.1465;-0.0263;
393.3000;0.1506;-0.0311;
393.6000;0.1530;-0.0406;
393.9000;0.1538;-0.0335;
394.2000;0.1514;-0.0382;
394.5000;0.1514;-0.0478;
394.8000;0.1555;-0.0430;
395.1000;0.1555;-0.0358;
395.4000;0.1514;-0.0478;
395.7000;0.1522;-0.0454;
396.0000;0.1506;-0.0597;
396.3000;0.1522;-0.0502;
396.6000;0.1498;-0.0526;
396.9000;0.1506;-0.0526;
397.2000;0.1514;-0.0574;
397.5000;0.1514;-0.0574;
397.8000;0.1530;-0.0454;
398.1000;0.1547;-0.0358;
398.4000;0.1604;-0.0191;
398.7000;0.1547;-0.0382;
399.0000;0.1506;-0.0526;
399.3000;0.1538;-0.0430;
399.6000;0.1514;-0.0478;
399.9000;0.1522;-0.0382;
400.2000;0.1522;-0.0311;
400.5000;0.1530;-0.0263;
400.8000;0.1506;-0.0382;
401.1000;0.1506;-0.0430;
401.4000;0.1538;-0.0311;
401.7000;0.1490;-0.0406;
402.0000;0.1530;-0.0335;
402.3000;0.1514;-0.0454;
402.6000;0.1538;-0.0358;
402.9000;0.1522;-0.0263;
403.2000;0.1530;-0.0287;
403.5000;0.1530;-0.0335;
403.8000;0.1530;-0.0382;
404.1000;0.1661;-0.0024;
404.4000;0.1587;-0.0239;
404.7000;0.1547;-0.0358;
405.0000;0.1547;-0.0335;
405.3000;0.1547;-0.0215;
405.6000;0.1628;0.0000;
405.9000;0.1547;-0.0263;
406.2000;0.1547;-0.0263;
406.5000;0.1579;-0.0191;
406.8000;0.1506;-0.0430;
407.1000;0.1506;-0.0502;
407.4000;0.1506;-0.0574;
407.7000;0.1522;-0.0550;
408.0000;0.1628;-0.0191;
408.3000;0.1547;-0.0454;
408.6000;0.1522;-0.0574;
408.9000;0.1571;-0.0382;
409.2000;0.1457;-0.0597;
409.5000;0.1547;-0.0406;
409.8000;0.1522;-0.0430;
410.1000;0.1612;-0.0167;
410.4000;0.1522;-0.0454;
410.7000;0.1530;-0.0430;
411.0000;0.1530;-0.0382;
411.3000;0.1530;-0.0311;
411.6000;0.1506;-0.0335;
411.9000;0.1530;-0.0263;
412.2000;0.1587;-0.0096;
412.5000;0.1522;-0.0287;
412.8000;0.1530;-0.0263;
413.1000;0.1530;-0.0215;
413.4000;0.1530;-0.0215;
413.7000;0.1506;-0.0263;
414.0000;0.1498;-0.0287;
414.3000;0.1473;-0.0382;
414.6000;0.1498;-0.0311;
414.9000;0.1530;-0.0287;
415.2000;0.1506;-0.0263;
415.5000;0.1514;-0.0311;
415.8000;0.1400;-0.0574;
416.1000;0.1522;-0.0311;
416.4000;0.1522;-0.0311;
416.7000;0.1514;-0.0406;
417.0000;0.1530;-0.0382;
417.3000;0.1522;-0.0335;
417.6000;0.1530;-0.0311;
417.9000;0.1514;-0.0335;
418.2000;0.1530;-0.0239;
418.5000;0.1425;-0.0597;
418.8000;0.1506;-0.0311;
419.1000;0.1522;-0.0287;
419.4000;0.1612;-0.0048;
419.7000;0.1563;-0.0096;
420.0000;0.1490;-0.0215;
420.3000;0.1498;-0.0167;
420.6000;0.1530;-0.0072;
420.9000;0.1522;-0.0072;
421.2000;0.1514;-0.0143;
421.5000;0.1506;-0.0167;
421.8000;0.1522;-0.0143;
422.1000;0.1506;-0.0072;
422.4000;0.1538;0.0024;
422.7000;0.1498;-0.0072;
423.0000;0.1498;-0.0072;
423.3000;0.1514;-0.0215;
423.6000;0.1530;-0.0215;
423.9000;0.1538;-0.0287;
424.2000;0.1547;-0.0287;
424.5000;0.1498;-0.0430;
424.8000;0.1538;-0.0239;
425.1000;0.1506;-0.0311;
425.4000;0.1530;-0.0263;
425.7000;0.1514;-0.0358;
426.0000;0.1538;-0.0287;
426.3000;0.1465;-0.0454;
426.6000;0.1636;0.0048;
426.9000;0.1530;-0.0239;
427.2000;0.1538;-0.0143;
427.5000;0.1538;-0.0191;
427.8000;0.1538;-0.0287;
428.1000;0.1547;-0.0096;
428.4000;0.1522;-0.0167;
428.7000;0.1538;-0.0191;
429.0000;0.1530;-0.0239;
429.3000;0.1538;-0.0263;
429.6000;0.1514;-0.0287;
429.9000;0.1514;-0.0287;
430.2000;0.1506;-0.0191;
430.5000;0.1465;-0.0287;
430.8000;0.1514;-0.0167;
431.1000;0.1604;-0.0024;
431.4000;0.1522;-0.0191;
431.7000;0.1498;-0.0287;
432.0000;0.1579;-0.0167;
432.3000;0.1522;-0.0358;
432.6000;0.1506;-0.0287;
432.9000;0.1555;-0.0143;
433.2000;0.1514;-0.0311;
433.5000;0.1498;-0.0454;
433.8000;0.1490;-0.0502;
434.1000;0.1522;-0.0406;
434.4000;0.1530;-0.0358;
434.7000;0.1514;-0.0311;
435.0000;0.1522;-0.0311;
435.3000;0.1538;-0.0335;
435.6000;0.1555;-0.0215;
435.9000;0.1490;-0.0430;
436.2000;0.1506;-0.0454;
436.5000;0.1538;-0.0478;
436.8000;0.1522;-0.0454;
437.1000;0.1481;-0.0454;
437.4000;0.1530;-0.0406;
437.7000;0.1538;-0.0382;
438.0000;0.1522;-0.0406;
438.3000;0.1522;-0.0430;
438.6000;0.1538;-0.0406;
438.9000;0.1530;-0.0335;
439.2000;0.1547;-0.0263;
439.5000;0.1514;-0.0358;
439.8000;0.1522;-0.0311;
440.1000;0.1530;-0.0287;
440.4000;0.1538;-0.0239;
440.7000;0.1530;-0.0335;
441.0000;0.1506;-0.0406;
441.3000;0.1465;-0.0502;
441.6000;0.1514;-0.0454;
441.9000;0.1506;-0.0454;
442.2000;0.1514;-0.0382;
442.5000;0.1547;-0.0335;
442.8000;0.1408;-0.0693;
443.1000;0.1522;-0.0287;
443.4000;0.1522;-0.0311;
443.7000;0.1538;-0.0311;
444.0000;0.1530;-0.0430;
444.3000;0.1522;-0.0335;
444.6000;0.1538;-0.0335;
444.9000;0.1522;-0.0406;
445.2000;0.1530;-0.0382;
445.5000;0.1628;-0.0143;
445.8000;0.1498;-0.0382;
446.1000;0.1490;-0.0382;
446.4000;0.1514;-0.0335;
446.7000;0.1514;-0.0335;
447.0000;0.1522;-0.0358;
447.3000;0.1376;-0.0645;
447.6000;0.1530;-0.0263;
447.9000;0.1498;-0.0287;
448.2000;0.1620;0.0048;
448.5000;0.1514;-0.0191;
448.8000;0.1506;-0.0287;
449.1000;0.1522;-0.0263;
449.4000;0.1530;-0.0287;
449.7000;0.1530;-0.0239;
450.0000;0.1506;-0.0311;
450.3000;0.1473;-0.0382;
450.6000;0.1522;-0.0263;
450.9000;0.1506;-0.0287;
451.2000;0.1522;-0.0263;
451.5000;0.1555;-0.0119;
451.8000;0.1538;-0.0215;
452.1000;0.1538;-0.0239;
452.4000;0.1506;-0.0167;
452.7000;0.1514;-0.0263;
453.0000;0.1490;-0.0382;
453.3000;0.1571;-0.0191;
453.6000;0.1538;-0.0335;
453.9000;0.1506;-0.0335;
454.2000;0.1522;-0.0143;
454.5000;0.1547;-0.0072;
454.8000;0.1538;-0.0096;
455.1000;0.1425;-0.0430;
455.4000;0.1490;-0.0287;
455.7000;0.1555;-0.0167;
456.0000;0.1571;-0.0191;
456.3000;0.1506;-0.0239;
456.6000;0.1514;-0.0335;
456.9000;0.1555;-0.0191;
457.2000;0.1620;-0.0048;
457.5000;0.1522;-0.0335;
457.8000;0.1522;-0.0358;
458.1000;0.1286;-0.0908;
458.4000;0.1506;-0.0382;
458.7000;0.1522;-0.0287;
459.0000;0.1506;-0.0311;
459.3000;0.1514;-0.0263;
459.6000;0.1579;-0.0048;
459.9000;0.1538;-0.0119;
460.2000;0.1416;-0.0430;
460.5000;0.1522;-0.0167;
460.8000;0.1547;-0.0072;
461.1000;0.1612;0.0096;
461.4000;0.1514;-0.0143;
461.7000;0.1522;-0.0239;
462.0000;0.1538;-0.0263;
462.3000;0.1506;-0.0311;
462.6000;0.1538;-0.0287;
462.9000;0.1506;-0.0382;
463.2000;0.1490;-0.0382;
463.5000;0.1522;-0.0335;
463.8000;0.1506;-0.0454;
464.1000;0.1498;-0.0406;
464.4000;0.1490;-0.0454;
464.7000;0.1530;-0.0335;
465.0000;0.1514;-0.0382;
465.3000;0.1514;-0.0311;
465.6000;0.1538;-0.0406;
465.9000;0.1530;-0.0430;
466.2000;0.1530;-0.0382;
466.5000;0.1530;-0.0335;
466.8000;0.1514;-0.0335;
467.1000;0.1506;-0.0382;
467.4000;0.1498;-0.0382;
467.7000;0.1530;-0.0287;
468.0000;0.1514;-0.0311;
468.3000;0.1490;-0.0311;
468.6000;0.1530;-0.0167;
468.9000;0.1530;-0.0191;
469.2000;0.1530;-0.0096;
469.5000;0.1555;-0.0048;
469.8000;0.1538;-0.0191;
470.1000;0.1506;-0.0239;
470.4000;0.1547;-0.0119;
470.7000;0.1498;-0.0167;
471.0000;0.1522;-0.0119;
471.3000;0.1392;-0.0358;
471.6000;0.1522;-0.0119;
471.9000;0.1530;-0.0167;
472.2000;0.1514;-0.0311;
472.5000;0.1498;-0.0358;
472.8000;0.1498;-0.0382;
473.1000;0.1514;-0.0406;
473.4000;0.1522;-0.0287;
473.7000;0.1522;-0.0191;
474.0000;0.1538;-0.0143;
474.3000;0.1587;0.0000;
474.6000;0.1530;-0.0215;
474.9000;0.1571;-0.0072;
475.2000;0.1538;-0.0215;
475.5000;0.1514;-0.0287;
475.8000;0.1530;-0.0263;
476.1000;0.1490;-0.0335;
476.4000;0.1538;-0.0239;
476.7000;0.1530;-0.0287;
477.0000;0.1506;-0.0287;
477.3000;0.1514;-0.0311;
477.6000;0.1514;-0.0239;
477.9000;0.1563;-0.0024;
478.2000;0.1506;-0.0167;
478.5000;0.1506;-0.0263;
478.8000;0.1433;-0.0430;
479.1000;0.1400;-0.0526;
479.4000;0.1530;-0.0167;
479.7000;0.1498;-0.0239;
480.0000;0.1547;-0.0096;
480.3000;0.1514;-0.0167;
480.6000;0.1555;-0.0119;
480.9000;0.1677;0.0167;
481.2000;0.1514;-0.0358;
481.5000;0.1514;-0.0239;
481.8000;0.1457;-0.0454;
482.1000;0.1579;-0.0167;
482.4000;0.1555;-0.0143;
482.7000;0.1669;0.0263;
483.0000;0.1538;-0.0024;
483.3000;0.1465;-0.0311;
483.6000;0.1522;-0.0143;
483.9000;0.1547;-0.0072;
484.2000;0.1538;0.0000;
484.5000;0.1563;0.0143;
484.8000;0.1506;0.0096;
485.1000;0.1595;0.0358;
485.4000;0.1514;0.0143;
485.7000;0.1506;0.0072;
486.0000;0.1522;0.0072;
486.3000;0.1547;0.0072;
486.6000;0.1514;-0.0024;
486.9000;0.1522;0.0000;
487.2000;0.1538;0.0048;
487.5000;0.1522;0.0096;
487.8000;0.1538;0.0143;
488.1000;0.1514;0.0119;
488.4000;0.1522;0.0048;
488.7000;0.1530;-0.0024;
489.0000;0.1530;-0.0048;
489.3000;0.1538;0.0000;
489.6000;0.1514;-0.0119;
489.9000;0.1506;-0.0191;
490.2000;0.1506;-0.0191;
490.5000;0.1506;-0.0143;
490.8000;0.1530;-0.0191;
491.1000;0.1498;-0.0287;
491.4000;0.1498;-0.0311;
491.7000;0.1530;-0.0263;
492.0000;0.1522;-0.0406;
492.3000;0.1530;-0.0358;
492.6000;0.1522;-0.0406;
492.9000;0.1522;-0.0335;
493.2000;0.1555;-0.0287;
493.5000;0.1530;-0.0287;
493.8000;0.1506;-0.0358;
494.1000;0.1538;-0.0311;
494.4000;0.1547;-0.0239;
494.7000;0.1530;-0.0287;
495.0000;0.1457;-0.0406;
495.3000;0.1506;-0.0287;
495.6000;0.1514;-0.0239;
495.9000;0.1522;-0.0167;
496.2000;0.1538;-0.0119;
496.5000;0.1514;-0.0096;
496.8000;0.1465;-0.0263;
497.1000;0.1498;-0.0119;
497.4000;0.1498;-0.0167;
497.7000;0.1514;-0.0119;
498.0000;0.1473;-0.0239;
498.3000;0.1498;-0.0191;
498.6000;0.1465;-0.0311;
498.9000;0.1538;-0.0143;
499.2000;0.1514;-0.0191;
499.5000;0.1571;-0.0072;
499.8000;0.1530;-0.0239;
500.1000;0.1530;-0.0215;
500.4000;0.1441;-0.0526;
500.7000;0.1514;-0.0287;
501.0000;0.1490;-0.0263;
501.3000;0.1506;-0.0215;
501.6000;0.1538;-0.0143;
501.9000;0.1514;-0.0287;
502.2000;0.1522;-0.0191;
502.5000;0.1522;-0.0287;
502.8000;0.1506;-0.0311;
503.1000;0.1563;-0.0096;
503.4000;0.1563;-0.0167;
503.7000;0.1595;-0.0096;
504.0000;0.1498;-0.0382;
504.3000;0.1538;-0.0239;
504.6000;0.1522;-0.0287;
504.9000;0.1514;-0.0311;
505.2000;0.1506;-0.0287;
505.5000;0.1514;-0.0263;
505.8000;0.1506;-0.0335;
506.1000;0.1538;-0.0358;
506.4000;0.1538;-0.0382;
506.7000;0.1506;-0.0382;
507.0000;0.1514;-0.0430;
507.3000;0.1506;-0.0502;
507.6000;0.1522;-0.0430;
507.9000;0.1506;-0.0406;
508.2000;0.1514;-0.0406;
508.5000;0.1530;-0.0358;
508.8000;0.1498;-0.0406;
509.1000;0.1587;-0.0143;
509.4000;0.1490;-0.0382;
509.7000;0.1506;-0.0311;
510.0000;0.1538;-0.0287;
510.3000;0.1506;-0.0382;
510.6000;0.1514;-0.0311;
510.9000;0.1490;-0.0335;
511.2000;0.1498;-0.0358;
511.5000;0.1522;-0.0215;
511.8000;0.1498;-0.0263;
512.1000;0.1490;-0.0263;
512.4000;0.1449;-0.0406;
512.7000;0.1522;-0.0239;
513.0000;0.1498;-0.0239;
513.3000;0.1571;0.0000;
513.6000;0.1514;-0.0143;
513.9000;0.1538;-0.0119;
514.2000;0.1547;-0.0048;
514.5000;0.1514;-0.0143;
514.8000;0.1522;-0.0024;
515.1000;0.1555;0.0072;
515.4000;0.1530;0.0072;
515.7000;0.1506;0.0000;
516.0000;0.1530;-0.0072;
516.3000;0.1506;-0.0191;
516.6000;0.1530;-0.0239;
516.9000;0.1490;-0.0311;
517.2000;0.1498;-0.0263;
517.5000;0.1522;-0.0215;
517.8000;0.1530;-0.0191;
518.1000;0.1522;-0.0239;
518.4000;0.1514;-0.0167;
518.7000;0.1538;-0.0096;
519.0000;0.1522;-0.0119;
519.3000;0.1547;-0.0048;
519.6000;0.1522;-0.0191;
519.9000;0.1530;-0.0119;
520.2000;0.1595;0.0119;
520.5000;0.1522;-0.0072;
520.8000;0.1530;-0.0024;
521.1000;0.1612;0.0191;
521.4000;0.1506;-0.0119;
521.7000;0.1530;-0.0048;
522.0000;0.1490;-0.0119;
522.3000;0.1563;0.0096;
522.6000;0.1408;-0.0358;
522.9000;0.1465;-0.0167;
523.2000;0.1522;0.0000;
523.5000;0.1538;-0.0048;
523.8000;0.1538;-0.0096;
524.1000;0.1514;-0.0096;
524.4000;0.1522;-0.0072;
524.7000;0.1514;0.0000;
525.0000;0.1506;-0.0096;
525.3000;0.1538;-0.0048;
525.6000;0.1490;-0.0191;
525.9000;0.1514;-0.0096;
526.2000;0.1514;-0.0215;
526.5000;0.1506;-0.0215;
526.8000;0.1514;-0.0263;
527.1000;0.1530;-0.0239;
527.4000;0.1433;-0.0454;
527.7000;0.1498;-0.0215;
528.0000;0.1522;-0.0143;
528.3000;0.1514;-0.0096;
528.6000;0.1506;-0.0048;
528.9000;0.1514;-0.0119;
529.2000;0.1457;-0.0263;
529.5000;0.1538;-0.0119;
529.8000;0.1538;-0.0072;
530.1000;0.1522;-0.0119;
530.4000;0.1620;0.0119;
530.7000;0.1514;-0.0167;
531.0000;0.1547;-0.0119;
531.3000;0.1538;-0.0263;
531.6000;0.1522;-0.0287;
531.9000;0.1514;-0.0263;
532.2000;0.1538;-0.0263;
532.5000;0.1506;-0.0311;
532.8000;0.1538;-0.0215;
533.1000;0.1514;-0.0239;
533.4000;0.1547;-0.0167;
533.7000;0.1506;-0.0215;
534.0000;0.1514;-0.0143;
534.3000;0.1522;-0.0167;
534.6000;0.1530;-0.0167;
534.9000;0.1514;-0.0215;
535.2000;0.1473;-0.0335;
535.5000;0.1506;-0.0263;
535.8000;0.1530;-0.0191;
536.1000;0.1530;-0.0167;
536.4000;0.1530;-0.0143;
536.7000;0.1449;-0.0358;
537.0000;0.1522;-0.0143;
537.3000;0.1604;0.0024;
537.6000;0.1506;-0.0287;
537.9000;0.1538;-0.0191;
538.2000;0.1490;-0.0335;
538.5000;0.1449;-0.0478;
538.8000;0.1506;-0.0335;
539.1000;0.1490;-0.0311;
539.4000;0.1514;-0.0311;
539.7000;0.1530;-0.0335;
540.0000;0.1481;-0.0526;
540.3000;0.1530;-0.0406;
540.6000;0.1547;-0.0430;
540.9000;0.1595;-0.0215;
541.2000;0.1506;-0.0335;
541.5000;0.1514;-0.0311;
541.8000;0.1506;-0.0287;
542.1000;0.1547;-0.0263;
542.4000;0.1530;-0.0263;
542.7000;0.1514;-0.0382;
543.0000;0.1522;-0.0478;
543.3000;0.1538;-0.0502;
543.6000;0.1547;-0.0454;
543.9000;0.1530;-0.0574;
544.2000;0.1555;-0.0430;
544.5000;0.1522;-0.0478;
544.8000;0.1530;-0.0430;
545.1000;0.1522;-0.0526;
545.4000;0.1514;-0.0526;
545.7000;0.1522;-0.0502;
546.0000;0.1498;-0.0550;
546.3000;0.1579;-0.0382;
546.6000;0.1530;-0.0430;
546.9000;0.1587;-0.0335;
547.2000;0.1522;-0.0526;
547.5000;0.1530;-0.0526;
547.8000;0.1522;-0.0478;
548.1000;0.1490;-0.0526;
548.4000;0.1514;-0.0502;
548.7000;0.1506;-0.0502;
549.0000;0.1506;-0.0550;
549.3000;0.1490;-0.0669;
549.6000;0.1538;-0.0526;
549.9000;0.1514;-0.0550;
550.2000;0.1522;-0.0454;
550.5000;0.1522;-0.0478;
550.8000;0.1514;-0.0478;
551.1000;0.1522;-0.0454;
551.4000;0.1506;-0.0454;
551.7000;0.1522;-0.0358;
552.0000;0.1530;-0.0311;
552.3000;0.1473;-0.0430;
552.6000;0.1522;-0.0335;
552.9000;0.1514;-0.0335;
553.2000;0.1538;-0.0287;
553.5000;0.1530;-0.0358;
553.8000;0.1538;-0.0358;
554.1000;0.1530;-0.0382;
554.4000;0.1538;-0.0406;
554.7000;0.1506;-0.0430;
555.0000;0.1506;-0.0382;
555.3000;0.1522;-0.0311;
555.6000;0.1538;-0.0335;
555.9000;0.1506;-0.0526;
556.2000;0.1538;-0.0502;
556.5000;0.1522;-0.0406;
556.8000;0.1506;-0.0335;
557.1000;0.1506;-0.0287;
557.4000;0.1538;-0.0096;
557.7000;0.1530;-0.0167;
558.0000;0.1547;-0.0072;
558.3000;0.1522;-0.0167;
558.6000;0.1514;-0.0335;
558.9000;0.1506;-0.0335;
559.2000;0.1538;-0.0382;
559.5000;0.1506;-0.0478;
559.8000;0.1481;-0.0550;
560.1000;0.1514;-0.0478;
560.4000;0.1473;-0.0502;
560.7000;0.1514;-0.0406;
561.0000;0.1498;-0.0478;
561.3000;0.1514;-0.0430;
561.6000;0.1514;-0.0430;
561.9000;0.1538;-0.0335;
562.2000;0.1530;-0.0358;
562.5000;0.1587;-0.0191;
562.8000;0.1522;-0.0311;
563.1000;0.1530;-0.0263;
563.4000;0.1490;-0.0454;
563.7000;0.1514;-0.0454;
564.0000;0.1547;-0.0358;
564.3000;0.1498;-0.0454;
564.6000;0.1530;-0.0406;
564.9000;0.1514;-0.0406;
565.2000;0.1538;-0.0287;
565.5000;0.1555;-0.0287;
565.8000;0.1538;-0.0335;
566.1000;0.1457;-0.0574;
566.4000;0.1506;-0.0454;
566.7000;0.1506;-0.0454;
567.0000;0.1530;-0.0382;
567.3000;0.1481;-0.0526;
567.6000;0.1506;-0.0454;
567.9000;0.1522;-0.0502;
568.2000;0.1595;-0.0382;
568.5000;0.1514;-0.0693;
568.8000;0.1514;-0.0645;
569.1000;0.1530;-0.0621;
569.4000;0.1514;-0.0693;
569.7000;0.1514;-0.0597;
570.0000;0.1514;-0.0645;
570.3000;0.1506;-0.0621;
570.6000;0.1506;-0.0574;
570.9000;0.1652;-0.0191;
571.2000;0.1473;-0.0669;
571.5000;0.1530;-0.0454;
571.8000;0.1522;-0.0430;
572.1000;0.1425;-0.0693;
572.4000;0.1522;-0.0382;
572.7000;0.1514;-0.0454;
573.0000;0.1604;-0.0239;
573.3000;0.1555;-0.0430;
573.6000;0.1514;-0.0526;
573.9000;0.1530;-0.0406;
574.2000;0.1506;-0.0478;
574.5000;0.1522;-0.0526;
574.8000;0.1530;-0.0478;
575.1000;0.1514;-0.0550;
575.4000;0.1498;-0.0597;
575.7000;0.1530;-0.0526;
576.0000;0.1514;-0.0574;
576.3000;0.1449;-0.0693;
576.6000;0.1506;-0.0645;
576.9000;0.1506;-0.0621;
577.2000;0.1530;-0.0550;
577.5000;0.1498;-0.0621;
577.8000;0.1538;-0.0478;
578.1000;0.1530;-0.0502;
578.4000;0.1555;-0.0430;
578.7000;0.1514;-0.0502;
579.0000;0.1530;-0.0478;
579.3000;0.1530;-0.0502;
579.6000;0.1522;-0.0550;
579.9000;0.1547;-0.0478;
580.2000;0.1538;-0.0574;
580.5000;0.1530;-0.0621;
580.8000;0.1522;-0.0621;
581.1000;0.1506;-0.0597;
581.4000;0.1506;-0.0502;
581.7000;0.1506;-0.0478;
582.0000;0.1538;-0.0335;
582.3000;0.1538;-0.0335;
582.6000;0.1514;-0.0406;
582.9000;0.1538;-0.0311;
583.2000;0.1506;-0.0358;
583.5000;0.1514;-0.0454;
583.8000;0.1571;-0.0406;
584.1000;0.1498;-0.0574;
584.4000;0.1514;-0.0526;
584.7000;0.1522;-0.0430;
585.0000;0.1522;-0.0430;
585.3000;0.1547;-0.0502;
585.6000;0.1522;-0.0526;
585.9000;0.1506;-0.0478;
586.2000;0.1530;-0.0454;
586.5000;0.1514;-0.0478;
586.8000;0.1522;-0.0502;
587.1000;0.1538;-0.0502;
587.4000;0.1530;-0.0550;
587.7000;0.1514;-0.0526;
588.0000;0.1490;-0.0621;
588.3000;0.1514;-0.0550;
588.6000;0.1522;-0.0597;
588.9000;0.1530;-0.0693;
589.2000;0.1490;-0.0812;
589.5000;0.1506;-0.0812;
589.8000;0.1514;-0.0741;
590.1000;0.1595;-0.0621;
590.4000;0.1514;-0.0860;
590.7000;0.1514;-0.0860;
591.0000;0.1522;-0.0860;
591.3000;0.1514;-0.0860;
591.6000;0.1506;-0.0860;
591.9000;0.1514;-0.0812;
592.2000;0.1506;-0.0908;
592.5000;0.1587;-0.0693;
592.8000;0.1530;-0.0789;
593.1000;0.1612;-0.0597;
593.4000;0.1514;-0.0884;
593.7000;0.1522;-0.0812;
594.0000;0.1538;-0.0741;
594.3000;0.1514;-0.0789;
594.6000;0.1522;-0.0765;
594.9000;0.1522;-0.0717;
595.2000;0.1498;-0.0717;
595.5000;0.1587;-0.0502;
595.8000;0.1506;-0.0621;
596.1000;0.1514;-0.0621;
596.4000;0.1514;-0.0526;
596.7000;0.1538;-0.0526;
597.0000;0.1604;-0.0335;
597.3000;0.1522;-0.0478;
597.6000;0.1522;-0.0550;
597.9000;0.1530;-0.0502;
598.2000;0.1571;-0.0478;
598.5000;0.1506;-0.0669;
598.8000;0.1522;-0.0693;
599.1000;0.1506;-0.0717;
599.4000;0.1522;-0.0669;
599.7000;0.1506;-0.0645;
600.0000;0.1441;-0.0908;
600.3000;0.1514;-0.0812;
600.6000;0.1514;-0.0812;
600.9000;0.1522;-0.0789;
601.2000;0.1433;-0.1075;
601.5000;0.1514;-0.0932;
601.8000;0.1538;-0.0956;
602.1000;0.1530;-0.0980;
602.4000;0.1481;-0.1147;
602.7000;0.1506;-0.1075;
603.0000;0.1506;-0.1147;
603.3000;0.1555;-0.1051;
603.6000;0.1538;-0.1171;
603.9000;0.1522;-0.1362;
604.2000;0.1522;-0.1362;
604.5000;0.1490;-0.1410;
604.8000;0.1498;-0.1362;
605.1000;0.1506;-0.1410;
605.4000;0.1490;-0.1434;
605.7000;0.1506;-0.1410;
606.0000;0.1522;-0.1386;
606.3000;0.1506;-0.1410;
606.6000;0.1481;-0.1482;
606.9000;0.1506;-0.1505;
607.2000;0.1547;-0.1505;
607.5000;0.1506;-0.1649;
607.8000;0.1506;-0.1649;
608.1000;0.1530;-0.1577;
608.4000;0.1587;-0.1434;
608.7000;0.1490;-0.1625;
609.0000;0.1359;-0.1912;
609.3000;0.1498;-0.1505;
609.6000;0.1498;-0.1505;
609.9000;0.1449;-0.1601;
610.2000;0.1498;-0.1458;
610.5000;0.1490;-0.1386;
610.8000;0.1498;-0.1314;
611.1000;0.1506;-0.1266;
611.4000;0.1530;-0.1290;
611.7000;0.1490;-0.1434;
612.0000;0.1481;-0.1482;
612.3000;0.1506;-0.1529;
612.6000;0.1490;-0.1625;
612.9000;0.1514;-0.1577;
613.2000;0.1481;-0.1721;
613.5000;0.1530;-0.1721;
613.8000;0.1490;-0.1792;
614.1000;0.1530;-0.1649;
614.4000;0.1408;-0.2007;
614.7000;0.1490;-0.1744;
615.0000;0.1506;-0.1768;
615.3000;0.1465;-0.1816;
615.6000;0.1530;-0.1625;
615.9000;0.1522;-0.1697;
616.2000;0.1457;-0.1888;
616.5000;0.1457;-0.1792;
616.8000;0.1498;-0.1721;
617.1000;0.1514;-0.1697;
617.4000;0.1555;-0.1529;
617.7000;0.1490;-0.1649;
618.0000;0.1490;-0.1768;
618.3000;0.1498;-0.1744;
618.6000;0.1481;-0.1649;
618.9000;0.1481;-0.1577;
619.2000;0.1481;-0.1458;
619.5000;0.1530;-0.1290;
619.8000;0.1481;-0.1434;
620.1000;0.1498;-0.1458;
620.4000;0.1481;-0.1505;
620.7000;0.1359;-0.1744;
621.0000;0.1490;-0.1362;
621.3000;0.1490;-0.1410;
621.6000;0.1498;-0.1505;
621.9000;0.1441;-0.1625;
622.2000;0.1506;-0.1553;
622.5000;0.1514;-0.1553;
622.8000;0.1481;-0.1553;
623.1000;0.1473;-0.1553;
623.4000;0.1465;-0.1529;
623.7000;0.1441;-0.1482;
624.0000;0.1490;-0.1314;
624.3000;0.1481;-0.1362;
624.6000;0.1490;-0.1290;
624.9000;0.1481;-0.1290;
625.2000;0.1506;-0.1219;
625.5000;0.1465;-0.1386;
625.8000;0.1473;-0.1362;
626.1000;0.1498;-0.1290;
626.4000;0.1473;-0.1314;
626.7000;0.1490;-0.1338;
627.0000;0.1473;-0.1362;
627.3000;0.1498;-0.1266;
627.6000;0.1506;-0.1266;
627.9000;0.1490;-0.1314;
628.2000;0.1481;-0.1362;
628.5000;0.1481;-0.1386;
628.8000;0.1498;-0.1434;
629.1000;0.1481;-0.1505;
629.4000;0.1481;-0.1529;
629.7000;0.1481;-0.1649;
630.0000;0.1481;-0.1673;
630.3000;0.1530;-0.1625;
630.6000;0.1490;-0.1697;
630.9000;0.1473;-0.1721;
631.2000;0.1449;-0.1673;
631.5000;0.1481;-0.1601;
631.8000;0.1490;-0.1649;
632.1000;0.1498;-0.1673;
632.4000;0.1498;-0.1577;
632.7000;0.1481;-0.1673;
633.0000;0.1563;-0.1434;
633.3000;0.1604;-0.1410;
633.6000;0.1473;-0.1697;
633.9000;0.1498;-0.1553;
634.2000;0.1473;-0.1625;
634.5000;0.1481;-0.1649;
634.8000;0.1490;-0.1577;
635.1000;0.1604;-0.1195;
635.4000;0.1514;-0.1434;
635.7000;0.1498;-0.1458;
636.0000;0.1441;-0.1601;
636.3000;0.1506;-0.1410;
636.6000;0.1490;-0.1577;
636.9000;0.1465;-0.1625;
637.2000;0.1465;-0.1553;
637.5000;0.1441;-0.1792;
637.8000;0.1490;-0.1625;
638.1000;0.1490;-0.1577;
638.4000;0.1490;-0.1529;
638.7000;0.1473;-0.1482;
639.0000;0.1481;-0.1553;
639.3000;0.1490;-0.1529;
639.6000;0.1514;-0.1458;
639.9000;0.1481;-0.1625;
640.2000;0.1465;-0.1697;
640.5000;0.1473;-0.1673;
640.8000;0.1490;-0.1601;
641.1000;0.1498;-0.1553;
641.4000;0.1498;-0.1601;
641.7000;0.1514;-0.1553;
642.0000;0.1473;-0.1601;
642.3000;0.1481;-0.1577;
642.6000;0.1481;-0.1601;
642.9000;0.1490;-0.1649;
643.2000;0.1514;-0.1625;
643.5000;0.1498;-0.1697;
643.8000;0.1498;-0.1673;
644.1000;0.1473;-0.1625;
644.4000;0.1506;-0.1529;
644.7000;0.1481;-0.1625;
645.0000;0.1473;-0.1625;
645.3000;0.1498;-0.1601;
645.6000;0.1473;-0.1768;
645.9000;0.1498;-0.1744;
646.2000;0.1538;-0.1577;
646.5000;0.1481;-0.1697;
646.8000;0.1506;-0.1625;
647.1000;0.1490;-0.1625;
647.4000;0.1498;-0.1577;
647.7000;0.1473;-0.1625;
648.0000;0.1490;-0.1482;
648.3000;0.1530;-0.1458;
648.6000;0.1433;-0.1744;
648.9000;0.1457;-0.1625;
649.2000;0.1481;-0.1601;
649.5000;0.1506;-0.1553;
649.8000;0.1506;-0.1553;
650.1000;0.1473;-0.1601;
650.4000;0.1506;-0.1577;
650.7000;0.1514;-0.1625;
651.0000;0.1490;-0.1697;
651.3000;0.1416;-0.1936;
651.6000;0.1481;-0.1697;
651.9000;0.1490;-0.1649;
652.2000;0.1498;-0.1625;
652.5000;0.1449;-0.1864;
652.8000;0.1506;-0.1601;
653.1000;0.1490;-0.1625;
653.4000;0.1555;-0.1458;
653.7000;0.1473;-0.1744;
654.0000;0.1522;-0.1768;
654.3000;0.1490;-0.1840;
654.6000;0.1498;-0.1744;
654.9000;0.1498;-0.1649;
655.2000;0.1506;-0.1601;
655.5000;0.1490;-0.1625;
655.8000;0.1392;-0.1936;
656.1000;0.1481;-0.1673;
656.4000;0.1490;-0.1649;
656.7000;0.1481;-0.1649;
657.0000;0.1433;-0.1840;
657.3000;0.1473;-0.1697;
657.6000;0.1498;-0.1625;
657.9000;0.1465;-0.1721;
658.2000;0.1481;-0.1601;
658.5000;0.1498;-0.1577;
658.8000;0.1441;-0.1721;
659.1000;0.1530;-0.1458;
659.4000;0.1506;-0.1601;
659.7000;0.1490;-0.1553;
660.0000;0.1433;-0.1577;
660.3000;0.1473;-0.1529;
660.6000;0.1473;-0.1577;
660.9000;0.1481;-0.1553;
661.2000;0.1400;-0.1840;
661.5000;0.1498;-0.1673;
661.8000;0.1473;-0.1721;
662.1000;0.1530;-0.1529;
662.4000;0.1490;-0.1697;
662.7000;0.1465;-0.1649;
663.0000;0.1506;-0.1649;
663.3000;0.1506;-0.1625;
663.6000;0.1481;-0.1697;
663.9000;0.1498;-0.1744;
664.2000;0.1506;-0.1697;
664.5000;0.1481;-0.1673;
664.8000;0.1514;-0.1649;
665.1000;0.1498;-0.1721;
665.4000;0.1490;-0.1744;
665.7000;0.1473;-0.1697;
666.0000;0.1579;-0.1410;
666.3000;0.1498;-0.1649;
666.6000;0.1481;-0.1673;
666.9000;0.1547;-0.1505;
667.2000;0.1465;-0.1673;
667.5000;0.1481;-0.1673;
667.8000;0.1457;-0.1792;
668.1000;0.1490;-0.1816;
668.4000;0.1481;-0.1864;
668.7000;0.1465;-0.1912;
669.0000;0.1392;-0.2246;
669.3000;0.1506;-0.1912;
669.6000;0.1481;-0.2031;
669.9000;0.1498;-0.1912;
670.2000;0.1587;-0.1649;
670.5000;0.1481;-0.2007;
670.8000;0.1465;-0.1959;
671.1000;0.1498;-0.1816;
671.4000;0.1506;-0.1744;
671.7000;0.1490;-0.1721;
672.0000;0.1490;-0.1649;
672.3000;0.1514;-0.1601;
672.6000;0.1498;-0.1721;
672.9000;0.1506;-0.1768;
673.2000;0.1498;-0.1768;
673.5000;0.1481;-0.1768;
673.8000;0.1465;-0.1816;
674.1000;0.1498;-0.1721;
674.4000;0.1490;-0.1721;
674.7000;0.1481;-0.1744;
675.0000;0.1498;-0.1697;
675.3000;0.1514;-0.1649;
675.6000;0.1514;-0.1601;
675.9000;0.1490;-0.1768;
676.2000;0.1481;-0.1721;
676.5000;0.1498;-0.1721;
676.8000;0.1490;-0.1697;
677.1000;0.1514;-0.1697;
677.4000;0.1481;-0.1816;
677.7000;0.1473;-0.1744;
678.0000;0.1490;-0.1649;
678.3000;0.1490;-0.1673;
678.6000;0.1498;-0.1744;
678.9000;0.1473;-0.1721;
679.2000;0.1376;-0.2031;
679.5000;0.1490;-0.1697;
679.8000;0.1498;-0.1649;
680.1000;0.1433;-0.1792;
680.4000;0.1465;-0.1721;
680.7000;0.1481;-0.1649;
681.0000;0.1473;-0.1625;
681.3000;0.1473;-0.1601;
681.6000;0.1457;-0.1625;
681.9000;0.1490;-0.1553;
682.2000;0.1433;-0.1792;
682.5000;0.1490;-0.1649;
682.8000;0.1465;-0.1816;
683.1000;0.1481;-0.1768;
683.4000;0.1498;-0.1840;
683.7000;0.1481;-0.1864;
684.0000;0.1490;-0.1792;
684.3000;0.1473;-0.1888;
684.6000;0.1490;-0.1912;
684.9000;0.1498;-0.1864;
685.2000;0.1441;-0.1959;
685.5000;0.1490;-0.1744;
685.8000;0.1481;-0.1721;
686.1000;0.1490;-0.1792;
686.4000;0.1547;-0.1744;
686.7000;0.1498;-0.1864;
687.0000;0.1514;-0.1912;
687.3000;0.1506;-0.1983;
687.6000;0.1473;-0.2031;
687.9000;0.1441;-0.2151;
688.2000;0.1498;-0.1936;
688.5000;0.1498;-0.1864;
688.8000;0.1481;-0.1983;
689.1000;0.1522;-0.1840;
689.4000;0.1481;-0.1912;
689.7000;0.1481;-0.1912;
690.0000;0.1408;-0.2127;
690.3000;0.1481;-0.1888;
690.6000;0.1481;-0.1864;
690.9000;0.1514;-0.1840;
691.2000;0.1465;-0.1983;
691.5000;0.1579;-0.1792;
691.8000;0.1498;-0.2031;
692.1000;0.1498;-0.1983;
692.4000;0.1490;-0.1959;
692.7000;0.1473;-0.1983;
693.0000;0.1441;-0.2127;
693.3000;0.1506;-0.1983;
693.6000;0.1465;-0.2127;
693.9000;0.1490;-0.2079;
694.2000;0.1473;-0.2031;
694.5000;0.1506;-0.1983;
694.8000;0.1490;-0.1983;
695.1000;0.1465;-0.2055;
695.4000;0.1473;-0.2079;
695.7000;0.1490;-0.1912;
696.0000;0.1490;-0.1840;
696.3000;0.1490;-0.1816;
696.6000;0.1571;-0.1577;
696.9000;0.1457;-0.1816;
697.2000;0.1514;-0.1625;
697.5000;0.1490;-0.1601;
697.8000;0.1498;-0.1505;
698.1000;0.1498;-0.1410;
698.4000;0.1481;-0.1338;
698.7000;0.1498;-0.1362;
699.0000;0.1481;-0.1410;
699.3000;0.1416;-0.1601;
699.6000;0.1449;-0.1505;
699.9000;0.1473;-0.1410;
700.2000;0.1506;-0.1266;
700.5000;0.1498;-0.1290;
700.8000;0.1481;-0.1314;
701.1000;0.1506;-0.1266;
701.4000;0.1498;-0.1338;
701.7000;0.1490;-0.1362;
702.0000;0.1538;-0.1290;
702.3000;0.1498;-0.1386;
702.6000;0.1481;-0.1386;
702.9000;0.1457;-0.1458;
703.2000;0.1457;-0.1362;
703.5000;0.1522;-0.1195;
703.8000;0.1465;-0.1314;
704.1000;0.1522;-0.1195;
704.4000;0.1473;-0.1338;
704.7000;0.1490;-0.1410;
705.0000;0.1490;-0.1482;
705.3000;0.1490;-0.1529;
705.6000;0.1465;-0.1601;
705.9000;0.1481;-0.1505;
706.2000;0.1408;-0.1601;
706.5000;0.1473;-0.1386;
706.8000;0.1473;-0.1458;
707.1000;0.1498;-0.1338;
707.4000;0.1473;-0.1410;
707.7000;0.1457;-0.1482;
708.0000;0.1473;-0.1434;
708.3000;0.1514;-0.1338;
708.6000;0.1522;-0.1434;
708.9000;0.1498;-0.1482;
709.2000;0.1498;-0.1458;
709.5000;0.1473;-0.1529;
709.8000;0.1490;-0.1458;
710.1000;0.1498;-0.1434;
710.4000;0.1473;-0.1553;
710.7000;0.1490;-0.1362;
711.0000;0.1425;-0.1505;
711.3000;0.1490;-0.1410;
711.6000;0.1498;-0.1434;
711.9000;0.1457;-0.1577;
712.2000;0.1465;-0.1625;
712.5000;0.1473;-0.1577;
712.8000;0.1481;-0.1505;
713.1000;0.1465;-0.1482;
713.4000;0.1506;-0.1482;
713.7000;0.1481;-0.1601;
714.0000;0.1498;-0.1529;
714.3000;0.1473;-0.1601;
714.6000;0.1490;-0.1601;
714.9000;0.1514;-0.1577;
715.2000;0.1498;-0.1721;
715.5000;0.1490;-0.1673;
715.8000;0.1465;-0.1673;
716.1000;0.1555;-0.1482;
716.4000;0.1481;-0.1697;
716.7000;0.1473;-0.1768;
717.0000;0.1473;-0.1792;
717.3000;0.1490;-0.1816;
717.6000;0.1473;-0.1792;
717.9000;0.1506;-0.1649;
718.2000;0.1490;-0.1625;
718.5000;0.1481;-0.1673;
718.8000;0.1473;-0.1649;
719.1000;0.1490;-0.1625;
719.4000;0.1490;-0.1625;
719.7000;0.1473;-0.1553;
720.0000;0.1481;-0.1529;
720.3000;0.1481;-0.1649;
720.6000;0.1481;-0.1625;
720.9000;0.1506;-0.1410;
721.2000;0.1465;-0.1434;
721.5000;0.1498;-0.1386;
721.8000;0.1473;-0.1458;
722.1000;0.1465;-0.1458;
722.4000;0.1473;-0.1458;
722.7000;0.1490;-0.1505;
723.0000;0.1481;-0.1553;
723.3000;0.1465;-0.1673;
723.6000;0.1514;-0.1601;
723.9000;0.1506;-0.1649;
724.2000;0.1490;-0.1721;
724.5000;0.1595;-0.1314;
724.8000;0.1587;-0.1314;
725.1000;0.1481;-0.1553;
725.4000;0.1392;-0.1888;
725.7000;0.1498;-0.1625;
726.0000;0.1449;-0.1744;
726.3000;0.1490;-0.1673;
726.6000;0.1498;-0.1697;
726.9000;0.1514;-0.1601;
727.2000;0.1490;-0.1577;
727.5000;0.1449;-0.1601;
727.8000;0.1481;-0.1482;
728.1000;0.1563;-0.1266;
728.4000;0.1481;-0.1482;
728.7000;0.1481;-0.1458;
729.0000;0.1563;-0.1314;
729.3000;0.1547;-0.1386;
729.6000;0.1465;-0.1601;
729.9000;0.1490;-0.1577;
730.2000;0.1514;-0.1505;
730.5000;0.1473;-0.1577;
730.8000;0.1490;-0.1577;
731.1000;0.1481;-0.1577;
731.4000;0.1506;-0.1577;
731.7000;0.1490;-0.1577;
732.0000;0.1481;-0.1553;
732.3000;0.1514;-0.1529;
732.6000;0.1481;-0.1625;
732.9000;0.1506;-0.1505;
733.2000;0.1481;-0.1601;
733.5000;0.1473;-0.1625;
733.8000;0.1465;-0.1601;
734.1000;0.1449;-0.1625;
734.4000;0.1547;-0.1338;
734.7000;0.1473;-0.1410;
735.0000;0.1481;-0.1410;
735.3000;0.1425;-0.1553;
735.6000;0.1481;-0.1410;
735.9000;0.1490;-0.1362;
736.2000;0.1473;-0.1434;
736.5000;0.1481;-0.1529;
736.8000;0.1490;-0.1458;
737.1000;0.1498;-0.1386;
737.4000;0.1449;-0.1529;
737.7000;0.1490;-0.1505;
738.0000;0.1498;-0.1410;
738.3000;0.1506;-0.1410;
738.6000;0.1522;-0.1386;
738.9000;0.1498;-0.1458;
739.2000;0.1465;-0.1505;
739.5000;0.1579;-0.1195;
739.8000;0.1465;-0.1505;
740.1000;0.1498;-0.1410;
740.4000;0.1490;-0.1505;
740.7000;0.1490;-0.1505;
741.0000;0.1481;-0.1505;
741.3000;0.1425;-0.1577;
741.6000;0.1408;-0.1649;
741.9000;0.1506;-0.1386;
742.2000;0.1481;-0.1434;
742.5000;0.1490;-0.1482;
742.8000;0.1522;-0.1386;
743.1000;0.1490;-0.1482;
743.4000;0.1498;-0.1529;
743.7000;0.1498;-0.1482;
744.0000;0.1473;-0.1505;
744.3000;0.1481;-0.1458;
744.6000;0.1473;-0.1529;
744.9000;0.1498;-0.1434;
745.2000;0.1490;-0.1458;
745.5000;0.1473;-0.1505;
745.8000;0.1481;-0.1649;
746.1000;0.1498;-0.1697;
746.4000;0.1514;-0.1697;
746.7000;0.1514;-0.1721;
747.0000;0.1481;-0.1768;
747.3000;0.1449;-0.1864;
747.6000;0.1465;-0.1864;
747.9000;0.1433;-0.1840;
748.2000;0.1498;-0.1553;
748.5000;0.1498;-0.1482;
748.8000;0.1538;-0.1410;
749.1000;0.1490;-0.1505;
749.4000;0.1481;-0.1529;
749.7000;0.1465;-0.1553;
750.0000;0.1425;-0.1673;
750.3000;0.1555;-0.1362;
750.6000;0.1490;-0.1529;
750.9000;0.1481;-0.1553;
751.2000;0.1465;-0.1577;
751.5000;0.1449;-0.1721;
751.8000;0.1465;-0.1601;
752.1000;0.1449;-0.1673;
752.4000;0.1481;-0.1553;
752.7000;0.1498;-0.1505;
753.0000;0.1473;-0.1577;
753.3000;0.1449;-0.1649;
753.6000;0.1465;-0.1553;
753.9000;0.1481;-0.1529;
754.2000;0.1498;-0.1577;
754.5000;0.1538;-0.1362;
754.8000;0.1498;-0.1458;
755.1000;0.1490;-0.1458;
755.4000;0.1490;-0.1482;
755.7000;0.1473;-0.1529;
756.0000;0.1473;-0.1577;
756.3000;0.1465;-0.1577;
756.6000;0.1490;-0.1458;
756.9000;0.1506;-0.1410;
757.2000;0.1490;-0.1362;
757.5000;0.1522;-0.1314;
757.8000;0.1481;-0.1434;
758.1000;0.1506;-0.1410;
758.4000;0.1441;-0.1505;
758.7000;0.1506;-0.1386;
759.0000;0.1490;-0.1482;
759.3000;0.1547;-0.1386;
759.6000;0.1514;-0.1434;
759.9000;0.1490;-0.1482;
760.2000;0.1481;-0.1529;
760.5000;0.1514;-0.1529;
760.8000;0.1530;-0.1434;
761.1000;0.1498;-0.1553;
761.4000;0.1441;-0.1673;
761.7000;0.1498;-0.1649;
762.0000;0.1506;-0.1529;
762.3000;0.1473;-0.1697;
762.6000;0.1522;-0.1505;
762.9000;0.1490;-0.1601;
763.2000;0.1514;-0.1482;
763.5000;0.1522;-0.1458;
763.8000;0.1465;-0.1482;
764.1000;0.1481;-0.1482;
764.4000;0.1628;-0.1004;
764.7000;0.1473;-0.1482;
765.0000;0.1498;-0.1529;
765.3000;0.1547;-0.1386;
765.6000;0.1547;-0.1338;
765.9000;0.1481;-0.1505;
766.2000;0.1473;-0.1553;
766.5000;0.1384;-0.1792;
766.8000;0.1506;-0.1505;
767.1000;0.1481;-0.1601;
767.4000;0.1498;-0.1482;
767.7000;0.1481;-0.1434;
768.0000;0.1506;-0.1482;
768.3000;0.1481;-0.1410;
768.6000;0.1628;-0.1028;
768.9000;0.1465;-0.1386;
769.2000;0.1481;-0.1362;
769.5000;0.1506;-0.1290;
769.8000;0.1514;-0.1219;
770.1000;0.1465;-0.1410;
770.4000;0.1498;-0.1410;
770.7000;0.1595;-0.1147;
771.0000;0.1514;-0.1386;
771.3000;0.1473;-0.1458;
771.6000;0.1465;-0.1458;
771.9000;0.1473;-0.1482;
772.2000;0.1498;-0.1482;
772.5000;0.1481;-0.1505;
772.8000;0.1530;-0.1290;
773.1000;0.1481;-0.1458;
773.4000;0.1490;-0.1434;
773.7000;0.1498;-0.1434;
774.0000;0.1498;-0.1362;
774.3000;0.1490;-0.1386;
774.6000;0.1473;-0.1482;
774.9000;0.1506;-0.1362;
775.2000;0.1473;-0.1434;
775.5000;0.1473;-0.1458;
775.8000;0.1481;-0.1410;
776.1000;0.1481;-0.1505;
776.4000;0.1490;-0.1410;
776.7000;0.1473;-0.1434;
777.0000;0.1538;-0.1314;
777.3000;0.1473;-0.1482;
777.6000;0.1481;-0.1529;
777.9000;0.1457;-0.1529;
778.2000;0.1473;-0.1458;
778.5000;0.1498;-0.1434;
778.8000;0.1473;-0.1505;
779.1000;0.1481;-0.1458;
779.4000;0.1490;-0.1434;
779.7000;0.1506;-0.1386;
780.0000;0.1522;-0.1338;
780.3000;0.1490;-0.1458;
780.6000;0.1400;-0.1673;
780.9000;0.1473;-0.1458;
781.2000;0.1604;-0.1195;
781.5000;0.1498;-0.1458;
781.8000;0.1441;-0.1625;
782.1000;0.1514;-0.1434;
782.4000;0.1506;-0.1386;
782.7000;0.1433;-0.1553;
783.0000;0.1530;-0.1338;
783.3000;0.1433;-0.1577;
783.6000;0.1514;-0.1338;
783.9000;0.1506;-0.1410;
784.2000;0.1490;-0.1482;
784.5000;0.1498;-0.1434;
784.8000;0.1563;-0.1219;
785.1000;0.1376;-0.1721;
785.4000;0.1547;-0.1410;
785.7000;0.1490;-0.1553;
786.0000;0.1490;-0.1553;
786.3000;0.1506;-0.1529;
786.6000;0.1490;-0.1553;
786.9000;0.1498;-0.1529;
787.2000;0.1433;-0.1721;
787.5000;0.1481;-0.1553;
787.8000;0.1490;-0.1625;
788.1000;0.1473;-0.1673;
788.4000;0.1490;-0.1625;
788.7000;0.1481;-0.1625;
789.0000;0.1498;-0.1625;
789.3000;0.1473;-0.1721;
789.6000;0.1473;-0.1697;
789.9000;0.1498;-0.1625;
790.2000;0.1490;-0.1697;
790.5000;0.1384;-0.1888;
790.8000;0.1490;-0.1529;
791.1000;0.1449;-0.1649;
791.4000;0.1514;-0.1482;
791.7000;0.1457;-0.1673;
792.0000;0.1481;-0.1601;
792.3000;0.1481;-0.1553;
792.6000;0.1384;-0.1888;
792.9000;0.1481;-0.1577;
793.2000;0.1481;-0.1649;
793.5000;0.1473;-0.1649;
793.8000;0.1481;-0.1649;
794.1000;0.1498;-0.1505;
794.4000;0.1473;-0.1649;
794.7000;0.1457;-0.1792;
795.0000;0.1490;-0.1721;
795.3000;0.1473;-0.1673;
795.6000;0.1595;-0.1338;
795.9000;0.1481;-0.1577;
796.2000;0.1490;-0.1553;
796.5000;0.1587;-0.1290;
796.8000;0.1481;-0.1577;
797.1000;0.1473;-0.1482;
797.4000;0.1376;-0.1744;
797.7000;0.1506;-0.1386;
798.0000;0.1490;-0.1434;
798.3000;0.1465;-0.1482;
798.6000;0.1465;-0.1434;
798.9000;0.1481;-0.1505;
799.2000;0.1392;-0.1744;
799.5000;0.1465;-0.1601;
799.8000;0.1490;-0.1529;
800.1000;0.1368;-0.1888;
800.4000;0.1481;-0.1649;
800.7000;0.1498;-0.1625;
801.0000;0.1490;-0.1697;
801.3000;0.1481;-0.1721;
801.6000;0.1490;-0.1721;
801.9000;0.1490;-0.1649;
802.2000;0.1473;-0.1721;
802.5000;0.1481;-0.1721;
802.8000;0.1522;-0.1601;
803.1000;0.1514;-0.1553;
803.4000;0.1465;-0.1649;
803.7000;0.1481;-0.1601;
804.0000;0.1481;-0.1505;
804.3000;0.1400;-0.1840;
804.6000;0.1506;-0.1505;
804.9000;0.1433;-0.1625;
805.2000;0.1547;-0.1482;
805.5000;0.1538;-0.1386;
805.8000;0.1522;-0.1314;
806.1000;0.1514;-0.1505;
806.4000;0.1514;-0.1482;
806.7000;0.1481;-0.1553;
807.0000;0.1514;-0.1529;
807.3000;0.1563;-0.1410;
807.6000;0.1473;-0.1577;
807.9000;0.1538;-0.1338;
808.2000;0.1498;-0.1410;
808.5000;0.1490;-0.1458;
808.8000;0.1457;-0.1458;
809.1000;0.1457;-0.1505;
809.4000;0.1604;-0.1147;
809.7000;0.1506;-0.1434;
810.0000;0.1473;-0.1625;
810.3000;0.1481;-0.1625;
810.6000;0.1498;-0.1673;
810.9000;0.1522;-0.1577;
811.2000;0.1473;-0.1649;
811.5000;0.1481;-0.1577;
811.8000;0.1506;-0.1577;
812.1000;0.1506;-0.1625;
812.4000;0.1547;-0.1482;
812.7000;0.1490;-0.1553;
813.0000;0.1481;-0.1577;
813.3000;0.1490;-0.1505;
813.6000;0.1506;-0.1505;
813.9000;0.1498;-0.1625;
814.2000;0.1490;-0.1697;
814.5000;0.1498;-0.1649;
814.8000;0.1481;-0.1673;
815.1000;0.1465;-0.1625;
815.4000;0.1473;-0.1553;
815.7000;0.1481;-0.1553;
816.0000;0.1490;-0.1577;
816.3000;0.1481;-0.1505;
816.6000;0.1498;-0.1553;
816.9000;0.1481;-0.1625;
817.2000;0.1506;-0.1601;
817.5000;0.1368;-0.1983;
817.8000;0.1538;-0.1505;
818.1000;0.1514;-0.1553;
818.4000;0.1530;-0.1553;
818.7000;0.1506;-0.1649;
819.0000;0.1457;-0.1792;
819.3000;0.1433;-0.1744;
819.6000;0.1490;-0.1601;
819.9000;0.1579;-0.1338;
820.2000;0.1465;-0.1673;
820.5000;0.1465;-0.1697;
820.8000;0.1490;-0.1482;
821.1000;0.1506;-0.1482;
821.4000;0.1490;-0.1625;
821.7000;0.1473;-0.1673;
822.0000;0.1498;-0.1625;
822.3000;0.1514;-0.1553;
822.6000;0.1465;-0.1721;
822.9000;0.1490;-0.1744;
823.2000;0.1490;-0.1721;
823.5000;0.1392;-0.1792;
823.8000;0.1498;-0.1529;
824.1000;0.1547;-0.1505;
824.4000;0.1465;-0.1697;
824.7000;0.1473;-0.1625;
825.0000;0.1555;-0.1362;
825.3000;0.1481;-0.1577;
825.6000;0.1473;-0.1601;
825.9000;0.1490;-0.1601;
826.2000;0.1473;-0.1625;
826.5000;0.1490;-0.1553;
826.8000;0.1506;-0.1529;
827.1000;0.1473;-0.1553;
827.4000;0.1490;-0.1577;
827.7000;0.1490;-0.1505;
828.0000;0.1490;-0.1529;
828.3000;0.1490;-0.1482;
828.6000;0.1490;-0.1482;
828.9000;0.1506;-0.1434;
829.2000;0.1481;-0.1482;
829.5000;0.1498;-0.1482;
829.8000;0.1490;-0.1482;
830.1000;0.1473;-0.1577;
830.4000;0.1514;-0.1458;
830.7000;0.1506;-0.1505;
831.0000;0.1465;-0.1434;
831.3000;0.1498;-0.1410;
831.6000;0.1522;-0.1338;
831.9000;0.1498;-0.1362;
832.2000;0.1473;-0.1386;
832.5000;0.1465;-0.1434;
832.8000;0.1490;-0.1362;
833.1000;0.1498;-0.1482;
833.4000;0.1490;-0.1458;
833.7000;0.1514;-0.1458;
834.0000;0.1490;-0.1577;
834.3000;0.1506;-0.1553;
834.6000;0.1498;-0.1601;
834.9000;0.1506;-0.1601;
835.2000;0.1490;-0.1649;
835.5000;0.1506;-0.1577;
835.8000;0.1490;-0.1553;
836.1000;0.1506;-0.1458;
836.4000;0.1473;-0.1529;
836.7000;0.1498;-0.1386;
837.0000;0.1465;-0.1458;
837.3000;0.1473;-0.1434;
837.6000;0.1506;-0.1410;
837.9000;0.1481;-0.1458;
838.2000;0.1490;-0.1386;
838.5000;0.1481;-0.1410;
838.8000;0.1490;-0.1410;
839.1000;0.1481;-0.1386;
839.4000;0.1498;-0.1243;
839.7000;0.1490;-0.1243;
840.0000;0.1473;-0.1338;
840.3000;0.1514;-0.1266;
840.6000;0.1490;-0.1290;
840.9000;0.1457;-0.1362;
841.2000;0.1490;-0.1290;
841.5000;0.1465;-0.1338;
841.8000;0.1538;-0.1266;
842.1000;0.1490;-0.1410;
842.4000;0.1343;-0.1744;
842.7000;0.1481;-0.1482;
843.0000;0.1506;-0.1505;
843.3000;0.1547;-0.1434;
843.6000;0.1481;-0.1601;
843.9000;0.1595;-0.1266;
844.2000;0.1514;-0.1362;
844.5000;0.1530;-0.1362;
844.8000;0.1473;-0.1505;
845.1000;0.1644;-0.1123;
845.4000;0.1490;-0.1553;
845.7000;0.1498;-0.1434;
846.0000;0.1555;-0.1314;
846.3000;0.1498;-0.1553;
846.6000;0.1465;-0.1697;
846.9000;0.1481;-0.1649;
847.2000;0.1481;-0.1625;
847.5000;0.1449;-0.1673;
847.8000;0.1481;-0.1529;
848.1000;0.1490;-0.1529;
848.4000;0.1498;-0.1505;
848.7000;0.1481;-0.1553;
849.0000;0.1473;-0.1601;
849.3000;0.1465;-0.1649;
849.6000;0.1498;-0.1553;
849.9000;0.1465;-0.1625;
850.2000;0.1555;-0.1410;
850.5000;0.1465;-0.1553;
850.8000;0.1498;-0.1458;
851.1000;0.1416;-0.1649;
851.4000;0.1481;-0.1505;
851.7000;0.1473;-0.1625;
852.0000;0.1506;-0.1601;
852.3000;0.1490;-0.1625;
852.6000;0.1473;-0.1673;
852.9000;0.1498;-0.1649;
853.2000;0.1465;-0.1673;
853.5000;0.1506;-0.1601;
853.8000;0.1481;-0.1601;
854.1000;0.1473;-0.1529;
854.4000;0.1506;-0.1362;
854.7000;0.1498;-0.1410;
855.0000;0.1490;-0.1362;
855.3000;0.1506;-0.1338;
855.6000;0.1481;-0.1266;
855.9000;0.1481;-0.1362;
856.2000;0.1490;-0.1410;
856.5000;0.1498;-0.1434;
856.8000;0.1400;-0.1577;
857.1000;0.1473;-0.1482;
857.4000;0.1604;-0.1219;
857.7000;0.1465;-0.1577;
858.0000;0.1481;-0.1601;
858.3000;0.1514;-0.1529;
858.6000;0.1498;-0.1577;
858.9000;0.1473;-0.1577;
859.2000;0.1490;-0.1601;
859.5000;0.1481;-0.1577;
859.8000;0.1498;-0.1505;
860.1000;0.1506;-0.1410;
860.4000;0.1481;-0.1458;
860.7000;0.1481;-0.1434;
861.0000;0.1514;-0.1314;
861.3000;0.1490;-0.1410;
861.6000;0.1481;-0.1458;
861.9000;0.1481;-0.1434;
862.2000;0.1522;-0.1362;
862.5000;0.1490;-0.1386;
862.8000;0.1449;-0.1505;
863.1000;0.1481;-0.1458;
863.4000;0.1490;-0.1386;
863.7000;0.1465;-0.1458;
864.0000;0.1514;-0.1458;
864.3000;0.1555;-0.1290;
864.6000;0.1498;-0.1458;
864.9000;0.1538;-0.1434;
865.2000;0.1481;-0.1553;
865.5000;0.1604;-0.1195;
865.8000;0.1490;-0.1458;
866.1000;0.1514;-0.1505;
866.4000;0.1481;-0.1553;
866.7000;0.1473;-0.1505;
867.0000;0.1449;-0.1505;
867.3000;0.1498;-0.1410;
867.6000;0.1498;-0.1362;
867.9000;0.1522;-0.1338;
868.2000;0.1465;-0.1529;
868.5000;0.1498;-0.1577;
868.8000;0.1465;-0.1744;
869.1000;0.1481;-0.1721;
869.4000;0.1457;-0.1697;
869.7000;0.1473;-0.1625;
870.0000;0.1441;-0.1673;
870.3000;0.1498;-0.1553;
870.6000;0.1490;-0.1553;
870.9000;0.1490;-0.1529;
871.2000;0.1490;-0.1577;
871.5000;0.1498;-0.1553;
871.8000;0.1514;-0.1577;
872.1000;0.1481;-0.1625;
872.4000;0.1473;-0.1697;
872.7000;0.1514;-0.1577;
873.0000;0.1498;-0.1577;
873.3000;0.1473;-0.1649;
873.6000;0.1481;-0.1673;
873.9000;0.1481;-0.1721;
874.2000;0.1481;-0.1792;
874.5000;0.1465;-0.1888;
874.8000;0.1498;-0.1816;
875.1000;0.1490;-0.1888;
875.4000;0.1506;-0.1864;
875.7000;0.1490;-0.1840;
876.0000;0.1481;-0.1840;
876.3000;0.1465;-0.1792;
876.6000;0.1498;-0.1601;
876.9000;0.1498;-0.1625;
877.2000;0.1490;-0.1577;
877.5000;0.1498;-0.1529;
877.8000;0.1514;-0.1505;
878.1000;0.1498;-0.1482;
878.4000;0.1498;-0.1482;
878.7000;0.1490;-0.1553;
879.0000;0.1506;-0.1553;
879.3000;0.1441;-0.1625;
879.6000;0.1490;-0.1529;
879.9000;0.1506;-0.1505;
880.2000;0.1522;-0.1505;
880.5000;0.1490;-0.1697;
880.8000;0.1457;-0.1744;
881.1000;0.1490;-0.1601;
881.4000;0.1538;-0.1458;
881.7000;0.1473;-0.1625;
882.0000;0.1522;-0.1505;
882.3000;0.1473;-0.1625;
882.6000;0.1481;-0.1649;
882.9000;0.1498;-0.1625;
883.2000;0.1506;-0.1601;
883.5000;0.1473;-0.1649;
883.8000;0.1490;-0.1553;
884.1000;0.1498;-0.1625;
884.4000;0.1490;-0.1625;
884.7000;0.1481;-0.1673;
885.0000;0.1498;-0.1625;
885.3000;0.1481;-0.1697;
885.6000;0.1498;-0.1625;
885.9000;0.1473;-0.1673;
886.2000;0.1498;-0.1625;
886.5000;0.1498;-0.1505;
886.8000;0.1490;-0.1505;
887.1000;0.1490;-0.1553;
887.4000;0.1498;-0.1577;
887.7000;0.1465;-0.1673;
888.0000;0.1481;-0.1649;
888.3000;0.1481;-0.1625;
888.6000;0.1473;-0.1673;
888.9000;0.1465;-0.1673;
889.2000;0.1506;-0.1577;
889.5000;0.1506;-0.1601;
889.8000;0.1498;-0.1649;
890.1000;0.1498;-0.1673;
890.4000;0.1457;-0.1768;
890.7000;0.1490;-0.1721;
891.0000;0.1465;-0.1649;
891.3000;0.1473;-0.1577;
891.6000;0.1490;-0.1553;
891.9000;0.1490;-0.1505;
892.2000;0.1490;-0.1482;
892.5000;0.1490;-0.1505;
892.8000;0.1481;-0.1577;
893.1000;0.1498;-0.1577;
893.4000;0.1490;-0.1577;
893.7000;0.1547;-0.1434;
894.0000;0.1490;-0.1601;
894.3000;0.1449;-0.1673;
894.6000;0.1481;-0.1577;
894.9000;0.1473;-0.1601;
895.2000;0.1481;-0.1529;
895.5000;0.1481;-0.1434;
895.8000;0.1514;-0.1338;
896.1000;0.1522;-0.1266;
896.4000;0.1481;-0.1458;
896.7000;0.1490;-0.1553;
897.0000;0.1490;-0.1505;
897.3000;0.1506;-0.1529;
897.6000;0.1514;-0.1649;
897.9000;0.1473;-0.1697;
898.2000;0.1481;-0.1673;
898.5000;0.1457;-0.1649;
898.8000;0.1498;-0.1601;
899.1000;0.1416;-0.1840;
899.4000;0.1490;-0.1601;
899.7000;0.1514;-0.1505;
900.0000;0.1481;-0.1505;
900.3000;0.1473;-0.1625;
900.6000;0.1384;-0.1816;
900.9000;0.1555;-0.1505;
901.2000;0.1473;-0.1816;
901.5000;0.1473;-0.1840;
901.8000;0.1490;-0.1816;
902.1000;0.1498;-0.1792;
902.4000;0.1490;-0.1768;
902.7000;0.1547;-0.1673;
903.0000;0.1490;-0.1792;
903.3000;0.1506;-0.1768;
903.6000;0.1514;-0.1768;
903.9000;0.1490;-0.1697;
904.2000;0.1465;-0.1792;
904.5000;0.1506;-0.1673;
904.8000;0.1481;-0.1673;
905.1000;0.1490;-0.1673;
905.4000;0.1514;-0.1577;
905.7000;0.1498;-0.1649;
906.0000;0.1490;-0.1649;
906.3000;0.1514;-0.1625;
906.6000;0.1522;-0.1697;
906.9000;0.1490;-0.1673;
907.2000;0.1506;-0.1625;
907.5000;0.1506;-0.1649;
907.8000;0.1481;-0.1744;
908.1000;0.1481;-0.1744;
908.4000;0.1465;-0.1768;
908.7000;0.1506;-0.1625;
909.0000;0.1490;-0.1697;
909.3000;0.1506;-0.1625;
909.6000;0.1498;-0.1721;
909.9000;0.1498;-0.1816;
910.2000;0.1506;-0.1816;
910.5000;0.1433;-0.1936;
910.8000;0.1490;-0.1768;
911.1000;0.1498;-0.1768;
911.4000;0.1490;-0.1721;
911.7000;0.1449;-0.1840;
912.0000;0.1481;-0.1721;
912.3000;0.1481;-0.1816;
912.6000;0.1538;-0.1577;
912.9000;0.1465;-0.1816;
913.2000;0.1481;-0.1697;
913.5000;0.1506;-0.1649;
913.8000;0.1571;-0.1505;
914.1000;0.1498;-0.1649;
914.4000;0.1490;-0.1697;
914.7000;0.1481;-0.1792;
915.0000;0.1490;-0.1816;
915.3000;0.1457;-0.1936;
915.6000;0.1514;-0.1744;
915.9000;0.1481;-0.1864;
916.2000;0.1490;-0.1792;
916.5000;0.1490;-0.1768;
916.8000;0.1433;-0.1959;
917.1000;0.1498;-0.1721;
917.4000;0.1498;-0.1697;
917.7000;0.1506;-0.1721;
918.0000;0.1498;-0.1744;
918.3000;0.1490;-0.1744;
918.6000;0.1490;-0.1864;
918.9000;0.1490;-0.1816;
919.2000;0.1498;-0.1673;
919.5000;0.1473;-0.1721;
919.8000;0.1465;-0.1721;
920.1000;0.1465;-0.1673;
920.4000;0.1481;-0.1625;
920.7000;0.1506;-0.1505;
921.0000;0.1481;-0.1482;
921.3000;0.1563;-0.1219;
921.6000;0.1506;-0.1290;
921.9000;0.1490;-0.1386;
922.2000;0.1555;-0.1290;
922.5000;0.1490;-0.1482;
922.8000;0.1490;-0.1458;
923.1000;0.1433;-0.1577;
923.4000;0.1490;-0.1434;
923.7000;0.1481;-0.1458;
924.0000;0.1490;-0.1577;
924.3000;0.1490;-0.1577;
924.6000;0.1498;-0.1649;
924.9000;0.1465;-0.1721;
925.2000;0.1490;-0.1744;
925.5000;0.1490;-0.1768;
925.8000;0.1506;-0.1792;
926.1000;0.1457;-0.1912;
926.4000;0.1481;-0.1744;
926.7000;0.1498;-0.1601;
927.0000;0.1506;-0.1601;
927.3000;0.1457;-0.1744;
927.6000;0.1481;-0.1673;
927.9000;0.1498;-0.1673;
928.2000;0.1547;-0.1577;
928.5000;0.1490;-0.1697;
928.8000;0.1498;-0.1673;
929.1000;0.1490;-0.1721;
929.4000;0.1498;-0.1744;
929.7000;0.1481;-0.1792;
930.0000;0.1481;-0.1840;
930.3000;0.1481;-0.1816;
930.6000;0.1490;-0.1768;
930.9000;0.1473;-0.1744;
931.2000;0.1481;-0.1744;
931.5000;0.1530;-0.1601;
931.8000;0.1368;-0.1983;
932.1000;0.1498;-0.1721;
932.4000;0.1473;-0.1744;
932.7000;0.1473;-0.1744;
933.0000;0.1522;-0.1553;
933.3000;0.1490;-0.1601;
933.6000;0.1490;-0.1625;
933.9000;0.1506;-0.1601;
934.2000;0.1514;-0.1625;
934.5000;0.1473;-0.1721;
934.8000;0.1473;-0.1816;
935.1000;0.1547;-0.1601;
935.4000;0.1490;-0.1697;
935.7000;0.1514;-0.1553;
936.0000;0.1538;-0.1505;
936.3000;0.1433;-0.1768;
936.6000;0.1490;-0.1697;
936.9000;0.1522;-0.1673;
937.2000;0.1498;-0.1816;
937.5000;0.1376;-0.2198;
937.8000;0.1595;-0.1673;
938.1000;0.1481;-0.1864;
938.4000;0.1498;-0.1864;
938.7000;0.1465;-0.1912;
939.0000;0.1416;-0.2103;
939.3000;0.1457;-0.1959;
939.6000;0.1498;-0.1840;
939.9000;0.1490;-0.1792;
940.2000;0.1465;-0.1864;
940.5000;0.1498;-0.1744;
940.8000;0.1498;-0.1625;
941.1000;0.1311;-0.2031;
941.4000;0.1481;-0.1577;
941.7000;0.1490;-0.1553;
942.0000;0.1473;-0.1625;
942.3000;0.1530;-0.1458;
942.6000;0.1506;-0.1482;
942.9000;0.1490;-0.1434;
943.2000;0.1449;-0.1553;
943.5000;0.1498;-0.1434;
943.8000;0.1481;-0.1482;
944.1000;0.1547;-0.1434;
944.4000;0.1506;-0.1553;
944.7000;0.1490;-0.1434;
945.0000;0.1498;-0.1434;
945.3000;0.1425;-0.1673;
945.6000;0.1506;-0.1482;
945.9000;0.1498;-0.1482;
946.2000;0.1506;-0.1458;
946.5000;0.1490;-0.1505;
946.8000;0.1490;-0.1505;
947.1000;0.1498;-0.1458;
947.4000;0.1481;-0.1458;
947.7000;0.1498;-0.1434;
948.0000;0.1514;-0.1458;
948.3000;0.1498;-0.1410;
948.6000;0.1506;-0.1386;
948.9000;0.1490;-0.1434;
949.2000;0.1538;-0.1314;
949.5000;0.1473;-0.1482;
949.8000;0.1490;-0.1529;
950.1000;0.1514;-0.1529;
950.4000;0.1490;-0.1529;
950.7000;0.1481;-0.1505;
951.0000;0.1514;-0.1410;
951.3000;0.1514;-0.1338;
951.6000;0.1514;-0.1434;
951.9000;0.1441;-0.1673;
952.2000;0.1481;-0.1553;
952.5000;0.1490;-0.1529;
952.8000;0.1498;-0.1553;
953.1000;0.1473;-0.1553;
953.4000;0.1498;-0.1482;
953.7000;0.1490;-0.1434;
954.0000;0.1473;-0.1482;
954.3000;0.1481;-0.1529;
954.6000;0.1481;-0.1553;
954.9000;0.1473;-0.1625;
955.2000;0.1465;-0.1625;
955.5000;0.1481;-0.1649;
955.8000;0.1473;-0.1649;
956.1000;0.1498;-0.1601;
956.4000;0.1530;-0.1577;
956.7000;0.1481;-0.1673;
957.0000;0.1498;-0.1649;
957.3000;0.1530;-0.1601;
957.6000;0.1481;-0.1744;
957.9000;0.1506;-0.1601;
958.2000;0.1481;-0.1601;
958.5000;0.1465;-0.1744;
958.8000;0.1376;-0.1864;
959.1000;0.1506;-0.1482;
959.4000;0.1465;-0.1505;
959.7000;0.1498;-0.1338;
960.0000;0.1506;-0.1362;
960.3000;0.1563;-0.1266;
960.6000;0.1481;-0.1482;
960.9000;0.1368;-0.1768;
961.2000;0.1481;-0.1505;
961.5000;0.1490;-0.1529;
961.8000;0.1433;-0.1721;
962.1000;0.1498;-0.1529;
962.4000;0.1498;-0.1482;
962.7000;0.1498;-0.1529;
963.0000;0.1579;-0.1314;
963.3000;0.1514;-0.1505;
963.6000;0.1506;-0.1434;
963.9000;0.1498;-0.1386;
964.2000;0.1481;-0.1362;
964.5000;0.1449;-0.1505;
964.8000;0.1465;-0.1410;
965.1000;0.1376;-0.1744;
965.4000;0.1498;-0.1410;
965.7000;0.1498;-0.1338;
966.0000;0.1547;-0.1195;
966.3000;0.1555;-0.1290;
966.6000;0.1498;-0.1434;
966.9000;0.1481;-0.1529;
967.2000;0.1514;-0.1482;
967.5000;0.1506;-0.1529;
967.8000;0.1506;-0.1458;
968.1000;0.1490;-0.1505;
968.4000;0.1481;-0.1482;
968.7000;0.1498;-0.1458;
969.0000;0.1490;-0.1458;
969.3000;0.1522;-0.1386;
969.6000;0.1498;-0.1338;
969.9000;0.1490;-0.1386;
970.2000;0.1490;-0.1386;
970.5000;0.1498;-0.1266;
970.8000;0.1433;-0.1601;
971.1000;0.1612;-0.1147;
971.4000;0.1465;-0.1505;
971.7000;0.1481;-0.1553;
972.0000;0.1506;-0.1529;
972.3000;0.1498;-0.1577;
972.6000;0.1506;-0.1529;
972.9000;0.1481;-0.1577;
973.2000;0.1400;-0.1792;
973.5000;0.1498;-0.1553;
973.8000;0.1506;-0.1553;
974.1000;0.1571;-0.1482;
974.4000;0.1416;-0.1840;
974.7000;0.1587;-0.1434;
975.0000;0.1481;-0.1673;
975.3000;0.1490;-0.1697;
975.6000;0.1498;-0.1601;
975.9000;0.1498;-0.1553;
976.2000;0.1555;-0.1458;
976.5000;0.1490;-0.1625;
976.8000;0.1547;-0.1553;
977.1000;0.1457;-0.1744;
977.4000;0.1490;-0.1649;
977.7000;0.1473;-0.1601;
978.0000;0.1465;-0.1505;
978.3000;0.1465;-0.1458;
978.6000;0.1498;-0.1410;
978.9000;0.1498;-0.1482;
979.2000;0.1473;-0.1434;
979.5000;0.1481;-0.1410;
979.8000;0.1522;-0.1434;
980.1000;0.1465;-0.1553;
980.4000;0.1498;-0.1482;
980.7000;0.1498;-0.1410;
981.0000;0.1498;-0.1434;
981.3000;0.1425;-0.1673;
981.6000;0.1490;-0.1577;
981.9000;0.1498;-0.1529;
982.2000;0.1473;-0.1553;
982.5000;0.1490;-0.1529;
982.8000;0.1457;-0.1601;
983.1000;0.1465;-0.1553;
983.4000;0.1481;-0.1505;
983.7000;0.1457;-0.1625;
984.0000;0.1481;-0.1649;
984.3000;0.1457;-0.1721;
984.6000;0.1587;-0.1410;
984.9000;0.1514;-0.1505;
985.2000;0.1498;-0.1601;
985.5000;0.1498;-0.1673;
985.8000;0.1506;-0.1697;
986.1000;0.1481;-0.1816;
986.4000;0.1481;-0.1840;
986.7000;0.1433;-0.1959;
987.0000;0.1473;-0.1840;
987.3000;0.1490;-0.1673;
987.6000;0.1473;-0.1649;
987.9000;0.1498;-0.1601;
988.2000;0.1563;-0.1505;
988.5000;0.1481;-0.1721;
988.8000;0.1490;-0.1673;
989.1000;0.1514;-0.1553;
989.4000;0.1481;-0.1649;
989.7000;0.1473;-0.1697;
990.0000;0.1481;-0.1721;
990.3000;0.1481;-0.1744;
990.6000;0.1530;-0.1649;
990.9000;0.1498;-0.1744;
991.2000;0.1473;-0.1721;
991.5000;0.1490;-0.1721;
991.8000;0.1465;-0.1721;
992.1000;0.1481;-0.1744;
992.4000;0.1498;-0.1697;
992.7000;0.1506;-0.1625;
993.0000;0.1514;-0.1577;
993.3000;0.1481;-0.1601;
993.6000;0.1481;-0.1577;
993.9000;0.1498;-0.1505;
994.2000;0.1449;-0.1625;
994.5000;0.1563;-0.1482;
994.8000;0.1514;-0.1601;
995.1000;0.1490;-0.1673;
995.4000;0.1490;-0.1721;
995.7000;0.1498;-0.1721;
996.0000;0.1490;-0.1721;
996.3000;0.1457;-0.1768;
996.6000;0.1514;-0.1601;
996.9000;0.1595;-0.1219;
997.2000;0.1498;-0.1553;
997.5000;0.1490;-0.1601;
997.8000;0.1530;-0.1505;
998.1000;0.1498;-0.1529;
998.4000;0.1473;-0.1505;
998.7000;0.1530;-0.1434;
999.0000;0.1465;-0.1673;
999.3000;0.1481;-0.1625;
999.6000;0.1465;-0.1625;
999.9000;0.1359;-0.1959;
1000.2000;0.1473;-0.1601;
1000.5000;0.1481;-0.1649;
1000.8000;0.1481;-0.1649;
1001.1000;0.1490;-0.1649;
1001.4000;0.1425;-0.1792;
1001.7000;0.1522;-0.1505;
1002.0000;0.1490;-0.1505;
1002.3000;0.1473;-0.1577;
1002.6000;0.1400;-0.1768;
1002.9000;0.1490;-0.1529;
1003.2000;0.1498;-0.1529;
1003.5000;0.1490;-0.1553;
1003.8000;0.1473;-0.1649;
1004.1000;0.1490;-0.1649;
1004.4000;0.1506;-0.1577;
1004.7000;0.1481;-0.1577;
1005.0000;0.1498;-0.1482;
1005.3000;0.1481;-0.1458;
1005.6000;0.1538;-0.1362;
1005.9000;0.1490;-0.1529;
1006.2000;0.1490;-0.1482;
1006.5000;0.1506;-0.1553;
1006.8000;0.1506;-0.1601;
1007.1000;0.1490;-0.1553;
1007.4000;0.1449;-0.1649;
1007.7000;0.1481;-0.1601;
1008.0000;0.1490;-0.1505;
1008.3000;0.1490;-0.1505;
1008.6000;0.1473;-0.1505;
1008.9000;0.1506;-0.1338;
1009.2000;0.1465;-0.1386;
1009.5000;0.1473;-0.1386;
1009.8000;0.1555;-0.1219;
1010.1000;0.1490;-0.1434;
1010.4000;0.1514;-0.1505;
1010.7000;0.1506;-0.1505;
1011.0000;0.1481;-0.1553;
1011.3000;0.1587;-0.1266;
1011.6000;0.1506;-0.1434;
1011.9000;0.1522;-0.1434;
1012.2000;0.1457;-0.1529;
1012.5000;0.1481;-0.1529;
1012.8000;0.1498;-0.1505;
1013.1000;0.1685;-0.0956;
1013.4000;0.1498;-0.1434;
1013.7000;0.1490;-0.1434;
1014.0000;0.1473;-0.1529;
1014.3000;0.1490;-0.1529;
1014.6000;0.1481;-0.1553;
1014.9000;0.1481;-0.1553;
1015.2000;0.1579;-0.1243;
1015.5000;0.1481;-0.1458;
1015.8000;0.1498;-0.1434;
1016.1000;0.1490;-0.1434;
1016.4000;0.1481;-0.1529;
1016.7000;0.1498;-0.1386;
1017.0000;0.1481;-0.1458;
1017.3000;0.1498;-0.1434;
1017.6000;0.1465;-0.1458;
1017.9000;0.1473;-0.1386;
1018.2000;0.1490;-0.1458;
1018.5000;0.1490;-0.1482;
1018.8000;0.1490;-0.1410;
1019.1000;0.1473;-0.1482;
1019.4000;0.1473;-0.1529;
1019.7000;0.1473;-0.1577;
1020.0000;0.1481;-0.1482;
1020.3000;0.1498;-0.1482;
1020.6000;0.1465;-0.1505;
1020.9000;0.1514;-0.1553;
1021.2000;0.1490;-0.1625;
1021.5000;0.1490;-0.1625;
1021.8000;0.1514;-0.1529;
1022.1000;0.1498;-0.1482;
1022.4000;0.1506;-0.1505;
1022.7000;0.1530;-0.1505;
1023.0000;0.1490;-0.1505;
1023.3000;0.1490;-0.1410;
1023.6000;0.1498;-0.1290;
1023.9000;0.1481;-0.1338;
1024.2000;0.1473;-0.1553;
1024.5000;0.1490;-0.1482;
1024.8000;0.1587;-0.1243;
1025.1000;0.1481;-0.1601;
1025.4000;0.1506;-0.1458;
1025.7000;0.1490;-0.1458;
1026.0000;0.1506;-0.1482;
1026.3000;0.1498;-0.1482;
1026.6000;0.1433;-0.1649;
1026.9000;0.1481;-0.1529;
1027.2000;0.1506;-0.1505;
1027.5000;0.1498;-0.1529;
1027.8000;0.1506;-0.1458;
1028.1000;0.1514;-0.1434;
1028.4000;0.1498;-0.1482;
1028.7000;0.1522;-0.1410;
1029.0000;0.1465;-0.1577;
1029.3000;0.1473;-0.1601;
1029.6000;0.1538;-0.1458;
1029.9000;0.1490;-0.1529;
1030.2000;0.1473;-0.1553;
1030.5000;0.1465;-0.1625;
1030.8000;0.1490;-0.1529;
1031.1000;0.1481;-0.1482;
1031.4000;0.1481;-0.1482;
1031.7000;0.1465;-0.1505;
1032.0000;0.1490;-0.1553;
1032.3000;0.1498;-0.1625;
1032.6000;0.1465;-0.1673;
1032.9000;0.1579;-0.1458;
1033.2000;0.1490;-0.1673;
1033.5000;0.1481;-0.1649;
1033.8000;0.1465;-0.1721;
1034.1000;0.1538;-0.1577;
1034.4000;0.1498;-0.1577;
1034.7000;0.1473;-0.1697;
1035.0000;0.1490;-0.1625;
1035.3000;0.1449;-0.1792;
1035.6000;0.1490;-0.1697;
1035.9000;0.1473;-0.1768;
1036.2000;0.1530;-0.1601;
1036.5000;0.1506;-0.1744;
1036.8000;0.1481;-0.1768;
1037.1000;0.1498;-0.1625;
1037.4000;0.1481;-0.1601;
1037.7000;0.1481;-0.1601;
1038.0000;0.1481;-0.1529;
1038.3000;0.1506;-0.1482;
1038.6000;0.1498;-0.1434;
1038.9000;0.1473;-0.1458;
1039.2000;0.1465;-0.1529;
1039.5000;0.1449;-0.1553;
1039.8000;0.1490;-0.1434;
1040.1000;0.1514;-0.1386;
1040.4000;0.1473;-0.1434;
1040.7000;0.1514;-0.1362;
1041.0000;0.1481;-0.1458;
1041.3000;0.1490;-0.1529;
1041.6000;0.1490;-0.1505;
1041.9000;0.1473;-0.1529;
1042.2000;0.1490;-0.1458;
1042.5000;0.1465;-0.1577;
1042.8000;0.1425;-0.1768;
1043.1000;0.1481;-0.1577;
1043.4000;0.1433;-0.1649;
1043.7000;0.1604;-0.1266;
1044.0000;0.1506;-0.1458;
1044.3000;0.1555;-0.1243;
1044.6000;0.1498;-0.1386;
1044.9000;0.1416;-0.1625;
1045.2000;0.1465;-0.1482;
1045.5000;0.1490;-0.1386;
1045.8000;0.1506;-0.1410;
1046.1000;0.1514;-0.1458;
1046.4000;0.1490;-0.1505;
1046.7000;0.1522;-0.1410;
1047.0000;0.1481;-0.1529;
1047.3000;0.1481;-0.1458;
1047.6000;0.1457;-0.1577;
1047.9000;0.1498;-0.1482;
1048.2000;0.1522;-0.1529;
1048.5000;0.1481;-0.1577;
1048.8000;0.1547;-0.1410;
1049.1000;0.1538;-0.1386;
1049.4000;0.1498;-0.1577;
1049.7000;0.1506;-0.1529;
1050.0000;0.1538;-0.1314;
1050.3000;0.1498;-0.1386;
1050.6000;0.1490;-0.1482;
1050.9000;0.1506;-0.1458;
1051.2000;0.1473;-0.1529;
1051.5000;0.1481;-0.1505;
1051.8000;0.1595;-0.1147;
1052.1000;0.1506;-0.1386;
1052.4000;0.1490;-0.1410;
1052.7000;0.1490;-0.1434;
1053.0000;0.1604;-0.1075;
1053.3000;0.1498;-0.1386;
1053.6000;0.1506;-0.1362;
1053.9000;0.1490;-0.1362;
1054.2000;0.1498;-0.1338;
1054.5000;0.1514;-0.1266;
1054.8000;0.1490;-0.1266;
1055.1000;0.1490;-0.1314;
1055.4000;0.1498;-0.1362;
1055.7000;0.1425;-0.1601;
1056.0000;0.1628;-0.0956;
1056.3000;0.1481;-0.1338;
1056.6000;0.1506;-0.1338;
1056.9000;0.1490;-0.1266;
1057.2000;0.1522;-0.1243;
1057.5000;0.1498;-0.1266;
1057.8000;0.1490;-0.1290;
1058.1000;0.1465;-0.1434;
1058.4000;0.1498;-0.1314;
1058.7000;0.1490;-0.1266;
1059.0000;0.1481;-0.1266;
1059.3000;0.1514;-0.1195;
1059.6000;0.1547;-0.1171;
1059.9000;0.1490;-0.1290;
1060.2000;0.1490;-0.1266;
1060.5000;0.1481;-0.1266;
1060.8000;0.1514;-0.1219;
1061.1000;0.1343;-0.1625;
1061.4000;0.1490;-0.1219;
1061.7000;0.1490;-0.1314;
1062.0000;0.1506;-0.1219;
1062.3000;0.1490;-0.1314;
1062.6000;0.1481;-0.1290;
1062.9000;0.1481;-0.1434;
1063.2000;0.1433;-0.1625;
1063.5000;0.1490;-0.1529;
1063.8000;0.1473;-0.1577;
1064.1000;0.1490;-0.1577;
1064.4000;0.1498;-0.1625;
1064.7000;0.1498;-0.1649;
1065.0000;0.1498;-0.1625;
1065.3000;0.1514;-0.1553;
1065.6000;0.1490;-0.1529;
1065.9000;0.1498;-0.1505;
1066.2000;0.1571;-0.1362;
1066.5000;0.1514;-0.1505;
1066.8000;0.1481;-0.1529;
1067.1000;0.1498;-0.1505;
1067.4000;0.1498;-0.1458;
1067.7000;0.1490;-0.1577;
1068.0000;0.1579;-0.1386;
1068.3000;0.1498;-0.1577;
1068.6000;0.1506;-0.1625;
1068.9000;0.1481;-0.1649;
1069.2000;0.1433;-0.1721;
1069.5000;0.1473;-0.1577;
1069.8000;0.1465;-0.1601;
1070.1000;0.1547;-0.1482;
1070.4000;0.1538;-0.1553;
1070.7000;0.1498;-0.1744;
1071.0000;0.1481;-0.1816;
1071.3000;0.1376;-0.1983;
1071.6000;0.1506;-0.1601;
1071.9000;0.1514;-0.1577;
1072.2000;0.1530;-0.1625;
1072.5000;0.1506;-0.1697;
1072.8000;0.1441;-0.1888;
1073.1000;0.1490;-0.1792;
1073.4000;0.1555;-0.1553;
1073.7000;0.1514;-0.1697;
1074.0000;0.1416;-0.2007;
1074.3000;0.1490;-0.1792;
1074.6000;0.1473;-0.1816;
1074.9000;0.1465;-0.1792;
1075.2000;0.1498;-0.1649;
1075.5000;0.1490;-0.1697;
1075.8000;0.1449;-0.1744;
1076.1000;0.1490;-0.1601;
1076.4000;0.1498;-0.1577;
1076.7000;0.1522;-0.1601;
1077.0000;0.1441;-0.1744;
1077.3000;0.1473;-0.1649;
1077.6000;0.1490;-0.1553;
1077.9000;0.1538;-0.1410;
1078.2000;0.1514;-0.1458;
1078.5000;0.1433;-0.1697;
1078.8000;0.1441;-0.1649;
1079.1000;0.1498;-0.1434;
1079.4000;0.1481;-0.1482;
1079.7000;0.1408;-0.1410;
1080.0000;0.1465;-0.1386;
1080.3000;0.1506;-0.1266;
1080.6000;0.1506;-0.1266;
1080.9000;0.1473;-0.1386;
1081.2000;0.1498;-0.1362;
1081.5000;0.1392;-0.1673;
1081.8000;0.1449;-0.1577;
1082.1000;0.1481;-0.1458;
1082.4000;0.1490;-0.1482;
1082.7000;0.1530;-0.1243;
1083.0000;0.1498;-0.1386;
1083.3000;0.1498;-0.1434;
1083.6000;0.1400;-0.1697;
1083.9000;0.1473;-0.1505;
1084.2000;0.1530;-0.1290;
1084.5000;0.1506;-0.1290;
1084.8000;0.1433;-0.1482;
1085.1000;0.1490;-0.1338;
1085.4000;0.1506;-0.1362;
1085.7000;0.1514;-0.1458;
1086.0000;0.1490;-0.1553;
1086.3000;0.1473;-0.1601;
1086.6000;0.1498;-0.1601;
1086.9000;0.1498;-0.1697;
1087.2000;0.1481;-0.1697;
1087.5000;0.1473;-0.1744;
1087.8000;0.1490;-0.1697;
1088.1000;0.1490;-0.1744;
1088.4000;0.1522;-0.1673;
1088.7000;0.1490;-0.1744;
1089.0000;0.1465;-0.1721;
1089.3000;0.1530;-0.1577;
1089.6000;0.1368;-0.1864;
1089.9000;0.1506;-0.1553;
1090.2000;0.1384;-0.1912;
1090.5000;0.1416;-0.1721;
1090.8000;0.1498;-0.1505;
1091.1000;0.1530;-0.1434;
1091.4000;0.1506;-0.1553;
1091.7000;0.1481;-0.1553;
1092.0000;0.1506;-0.1553;
1092.3000;0.1384;-0.1840;
1092.6000;0.1481;-0.1601;
1092.9000;0.1587;-0.1314;
1093.2000;0.1522;-0.1482;
1093.5000;0.1514;-0.1410;
1093.8000;0.1522;-0.1482;
1094.1000;0.1441;-0.1697;
1094.4000;0.1473;-0.1673;
1094.7000;0.1425;-0.1768;
1095.0000;0.1473;-0.1625;
1095.3000;0.1384;-0.1912;
1095.6000;0.1490;-0.1625;
1095.9000;0.1530;-0.1553;
1096.2000;0.1481;-0.1601;
1096.5000;0.1384;-0.1864;
1096.8000;0.1465;-0.1577;
1097.1000;0.1490;-0.1601;
1097.4000;0.1514;-0.1482;
1097.7000;0.1498;-0.1482;
1098.0000;0.1506;-0.1505;
1098.3000;0.1506;-0.1553;
1098.6000;0.1506;-0.1601;
1098.9000;0.1473;-0.1673;
1099.2000;0.1498;-0.1553;
1099.5000;0.1498;-0.1553;
1099.8000;0.1530;-0.1529;
1100.1000;0.1465;-0.1673;
1100.4000;0.1490;-0.1625;
1100.7000;0.1563;-0.1410;
1101.0000;0.1506;-0.1601;
1101.3000;0.1498;-0.1649;
1101.6000;0.1514;-0.1553;
1101.9000;0.1498;-0.1601;
1102.2000;0.1473;-0.1697;
1102.5000;0.1490;-0.1625;
1102.8000;0.1538;-0.1529;
1103.1000;0.1547;-0.1434;
1103.4000;0.1514;-0.1577;
1103.7000;0.1481;-0.1649;
1104.0000;0.1490;-0.1649;
1104.3000;0.1506;-0.1577;
1104.6000;0.1522;-0.1505;
1104.9000;0.1481;-0.1625;
1105.2000;0.1506;-0.1505;
1105.5000;0.1555;-0.1362;
1105.8000;0.1481;-0.1553;
1106.1000;0.1416;-0.1744;
1106.4000;0.1506;-0.1577;
1106.7000;0.1498;-0.1577;
1107.0000;0.1481;-0.1649;
1107.3000;0.1473;-0.1577;
1107.6000;0.1449;-0.1625;
1107.9000;0.1481;-0.1553;
1108.2000;0.1506;-0.1434;
1108.5000;0.1514;-0.1386;
1108.8000;0.1481;-0.1482;
1109.1000;0.1490;-0.1482;
1109.4000;0.1490;-0.1577;
1109.7000;0.1506;-0.1482;
1110.0000;0.1481;-0.1577;
1110.3000;0.1498;-0.1601;
1110.6000;0.1555;-0.1553;
1110.9000;0.1498;-0.1697;
1111.2000;0.1481;-0.1625;
1111.5000;0.1473;-0.1577;
1111.8000;0.1441;-0.1625;
1112.1000;0.1522;-0.1434;
1112.4000;0.1506;-0.1458;
1112.7000;0.1465;-0.1649;
1113.0000;0.1514;-0.1553;
1113.3000;0.1473;-0.1697;
1113.6000;0.1473;-0.1625;
1113.9000;0.1506;-0.1505;
1114.2000;0.1506;-0.1434;
1114.5000;0.1498;-0.1458;
1114.8000;0.1498;-0.1410;
1115.1000;0.1481;-0.1458;
1115.4000;0.1514;-0.1434;
1115.7000;0.1506;-0.1410;
1116.0000;0.1522;-0.1410;
1116.3000;0.1490;-0.1505;
1116.6000;0.1498;-0.1529;
1116.9000;0.1506;-0.1458;
1117.2000;0.1473;-0.1482;
1117.5000;0.1490;-0.1505;
1117.8000;0.1481;-0.1529;
1118.1000;0.1481;-0.1529;
1118.4000;0.1490;-0.1458;
1118.7000;0.1490;-0.1434;
1119.0000;0.1571;-0.1290;
1119.3000;0.1498;-0.1505;
1119.6000;0.1547;-0.1386;
1119.9000;0.1473;-0.1577;
1120.2000;0.1457;-0.1625;
1120.5000;0.1506;-0.1529;
1120.8000;0.1498;-0.1529;
1121.1000;0.1465;-0.1601;
1121.4000;0.1538;-0.1362;
1121.7000;0.1498;-0.1434;
1122.0000;0.1490;-0.1505;
1122.3000;0.1490;-0.1482;
1122.6000;0.1498;-0.1505;
1122.9000;0.1506;-0.1482;
1123.2000;0.1481;-0.1577;
1123.5000;0.1457;-0.1625;
1123.8000;0.1481;-0.1529;
1124.1000;0.1465;-0.1505;
1124.4000;0.1547;-0.1362;
1124.7000;0.1490;-0.1505;
1125.0000;0.1449;-0.1553;
1125.3000;0.1400;-0.1792;
1125.6000;0.1481;-0.1553;
1125.9000;0.1506;-0.1458;
1126.2000;0.1490;-0.1482;
1126.5000;0.1555;-0.1338;
1126.8000;0.1514;-0.1458;
1127.1000;0.1498;-0.1458;
1127.4000;0.1498;-0.1458;
1127.7000;0.1473;-0.1482;
1128.0000;0.1498;-0.1458;
1128.3000;0.1506;-0.1458;
1128.6000;0.1514;-0.1482;
1128.9000;0.1481;-0.1482;
1129.2000;0.1473;-0.1458;
1129.5000;0.1514;-0.1386;
1129.8000;0.1481;-0.1529;
1130.1000;0.1481;-0.1458;
1130.4000;0.1514;-0.1386;
1130.7000;0.1555;-0.1290;
1131.0000;0.1514;-0.1410;
1131.3000;0.1498;-0.1458;
1131.6000;0.1498;-0.1482;
1131.9000;0.1490;-0.1505;
1132.2000;0.1522;-0.1386;
1132.5000;0.1538;-0.1290;
1132.8000;0.1498;-0.1482;
1133.1000;0.1506;-0.1458;
1133.4000;0.1457;-0.1482;
1133.7000;0.1490;-0.1410;
1134.0000;0.1490;-0.1482;
1134.3000;0.1490;-0.1338;
1134.6000;0.1481;-0.1386;
1134.9000;0.1490;-0.1314;
1135.2000;0.1465;-0.1362;
1135.5000;0.1441;-0.1458;
1135.8000;0.1490;-0.1314;
1136.1000;0.1522;-0.1219;
1136.4000;0.1498;-0.1219;
1136.7000;0.1506;-0.1219;
1137.0000;0.1498;-0.1219;
1137.3000;0.1490;-0.1219;
1137.6000;0.1490;-0.1266;
1137.9000;0.1498;-0.1219;
1138.2000;0.1498;-0.1266;
1138.5000;0.1522;-0.1195;
1138.8000;0.1481;-0.1314;
1139.1000;0.1473;-0.1386;
1139.4000;0.1433;-0.1529;
1139.7000;0.1481;-0.1386;
1140.0000;0.1514;-0.1386;
1140.3000;0.1481;-0.1458;
1140.6000;0.1490;-0.1434;
1140.9000;0.1441;-0.1553;
1141.2000;0.1490;-0.1362;
1141.5000;0.1498;-0.1362;
1141.8000;0.1490;-0.1386;
1142.1000;0.1506;-0.1362;
1142.4000;0.1506;-0.1314;
1142.7000;0.1498;-0.1266;
1143.0000;0.1498;-0.1338;
1143.3000;0.1490;-0.1338;
1143.6000;0.1498;-0.1314;
1143.9000;0.1457;-0.1410;
1144.2000;0.1498;-0.1362;
1144.5000;0.1506;-0.1410;
1144.8000;0.1490;-0.1386;
1145.1000;0.1506;-0.1386;
1145.4000;0.1490;-0.1410;
1145.7000;0.1490;-0.1386;
1146.0000;0.1473;-0.1505;
1146.3000;0.1498;-0.1505;
1146.6000;0.1498;-0.1410;
1146.9000;0.1490;-0.1505;
1147.2000;0.1563;-0.1386;
1147.5000;0.1514;-0.1458;
1147.8000;0.1547;-0.1410;
1148.1000;0.1514;-0.1505;
1148.4000;0.1547;-0.1338;
1148.7000;0.1465;-0.1482;
1149.0000;0.1457;-0.1577;
1149.3000;0.1481;-0.1553;
1149.6000;0.1481;-0.1434;
1149.9000;0.1538;-0.1243;
1150.2000;0.1498;-0.1386;
1150.5000;0.1473;-0.1386;
1150.8000;0.1481;-0.1410;
1151.1000;0.1481;-0.1386;
1151.4000;0.1441;-0.1529;
1151.7000;0.1514;-0.1362;
1152.0000;0.1425;-0.1529;
1152.3000;0.1473;-0.1338;
1152.6000;0.1514;-0.1219;
1152.9000;0.1547;-0.1195;
1153.2000;0.1490;-0.1386;
1153.5000;0.1473;-0.1482;
1153.8000;0.1498;-0.1410;
1154.1000;0.1416;-0.1577;
1154.4000;0.1514;-0.1482;
1154.7000;0.1604;-0.1243;
1155.0000;0.1481;-0.1553;
1155.3000;0.1498;-0.1553;
1155.6000;0.1481;-0.1601;
1155.9000;0.1481;-0.1649;
1156.2000;0.1449;-0.1649;
1156.5000;0.1441;-0.1697;
1156.8000;0.1490;-0.1505;
1157.1000;0.1490;-0.1434;
1157.4000;0.1481;-0.1482;
1157.7000;0.1481;-0.1505;
1158.0000;0.1465;-0.1482;
1158.3000;0.1506;-0.1314;
1158.6000;0.1587;-0.1147;
1158.9000;0.1490;-0.1362;
1159.2000;0.1506;-0.1314;
1159.5000;0.1514;-0.1386;
1159.8000;0.1490;-0.1458;
1160.1000;0.1506;-0.1458;
1160.4000;0.1416;-0.1721;
1160.7000;0.1481;-0.1529;
1161.0000;0.1498;-0.1482;
1161.3000;0.1481;-0.1577;
1161.6000;0.1481;-0.1625;
1161.9000;0.1465;-0.1697;
1162.2000;0.1481;-0.1625;
1162.5000;0.1506;-0.1553;
1162.8000;0.1490;-0.1529;
1163.1000;0.1547;-0.1386;
1163.4000;0.1457;-0.1601;
1163.7000;0.1481;-0.1601;
1164.0000;0.1506;-0.1482;
1164.3000;0.1433;-0.1625;
1164.6000;0.1498;-0.1505;
1164.9000;0.1498;-0.1577;
1165.2000;0.1457;-0.1601;
1165.5000;0.1506;-0.1553;
1165.8000;0.1473;-0.1673;
1166.1000;0.1514;-0.1673;
1166.4000;0.1498;-0.1744;
1166.7000;0.1481;-0.1721;
1167.0000;0.1498;-0.1577;
1167.3000;0.1457;-0.1601;
1167.6000;0.1498;-0.1458;
1167.9000;0.1498;-0.1434;
1168.2000;0.1490;-0.1338;
1168.5000;0.1506;-0.1290;
1168.8000;0.1465;-0.1338;
1169.1000;0.1490;-0.1243;
1169.4000;0.1498;-0.1243;
1169.7000;0.1457;-0.1410;
1170.0000;0.1481;-0.1529;
1170.3000;0.1481;-0.1529;
1170.6000;0.1490;-0.1482;
1170.9000;0.1522;-0.1410;
1171.2000;0.1473;-0.1529;
1171.5000;0.1481;-0.1505;
1171.8000;0.1400;-0.1744;
1172.1000;0.1473;-0.1505;
1172.4000;0.1498;-0.1482;
1172.7000;0.1579;-0.1243;
1173.0000;0.1498;-0.1505;
1173.3000;0.1506;-0.1458;
1173.6000;0.1449;-0.1601;
1173.9000;0.1571;-0.1290;
1174.2000;0.1490;-0.1553;
1174.5000;0.1514;-0.1529;
1174.8000;0.1368;-0.1888;
1175.1000;0.1457;-0.1649;
1175.4000;0.1498;-0.1482;
1175.7000;0.1498;-0.1482;
1176.0000;0.1506;-0.1434;
1176.3000;0.1514;-0.1362;
1176.6000;0.1709;-0.0765;
1176.9000;0.1465;-0.1410;
1177.2000;0.1481;-0.1362;
1177.5000;0.1481;-0.1458;
1177.8000;0.1490;-0.1482;
1178.1000;0.1514;-0.1434;
1178.4000;0.1498;-0.1553;
1178.7000;0.1490;-0.1577;
1179.0000;0.1490;-0.1577;
1179.3000;0.1481;-0.1529;
1179.6000;0.1481;-0.1529;
1179.9000;0.1514;-0.1434;
1180.2000;0.1481;-0.1482;
1180.5000;0.1490;-0.1410;
1180.8000;0.1490;-0.1505;
1181.1000;0.1514;-0.1577;
1181.4000;0.1498;-0.1649;
1181.7000;0.1498;-0.1625;
1182.0000;0.1530;-0.1529;
1182.3000;0.1490;-0.1625;
1182.6000;0.1490;-0.1529;
1182.9000;0.1465;-0.1673;
1183.2000;0.1481;-0.1577;
1183.5000;0.1571;-0.1314;
1183.8000;0.1490;-0.1577;
1184.1000;0.1408;-0.1768;
1184.4000;0.1481;-0.1577;
1184.7000;0.1506;-0.1505;
1185.0000;0.1530;-0.1458;
1185.3000;0.1457;-0.1553;
1185.6000;0.1498;-0.1458;
1185.9000;0.1490;-0.1482;
1186.2000;0.1514;-0.1505;
1186.5000;0.1498;-0.1505;
1186.8000;0.1465;-0.1721;
1187.1000;0.1538;-0.1505;
1187.4000;0.1433;-0.1744;
1187.7000;0.1481;-0.1673;
1188.0000;0.1473;-0.1625;
1188.3000;0.1506;-0.1529;
1188.6000;0.1538;-0.1434;
1188.9000;0.1498;-0.1553;
1189.2000;0.1490;-0.1482;
1189.5000;0.1571;-0.1314;
1189.8000;0.1498;-0.1482;
1190.1000;0.1481;-0.1482;
1190.4000;0.1506;-0.1386;
1190.7000;0.1490;-0.1386;
1191.0000;0.1498;-0.1410;
1191.3000;0.1506;-0.1482;
1191.6000;0.1490;-0.1553;
1191.9000;0.1481;-0.1577;
1192.2000;0.1514;-0.1505;
1192.5000;0.1498;-0.1553;
1192.8000;0.1498;-0.1505;
1193.1000;0.1490;-0.1458;
1193.4000;0.1522;-0.1362;
1193.7000;0.1506;-0.1410;
1194.0000;0.1522;-0.1362;
1194.3000;0.1506;-0.1410;
1194.6000;0.1481;-0.1482;
1194.9000;0.1563;-0.1219;
1195.2000;0.1425;-0.1625;
1195.5000;0.1425;-0.1625;
1195.8000;0.1498;-0.1505;
1196.1000;0.1490;-0.1577;
1196.4000;0.1498;-0.1601;
1196.7000;0.1538;-0.1434;
1197.0000;0.1506;-0.1553;
1197.3000;0.1506;-0.1505;
1197.6000;0.1514;-0.1434;
1197.9000;0.1506;-0.1386;
1198.2000;0.1465;-0.1482;
1198.5000;0.1481;-0.1482;
1198.8000;0.1490;-0.1482;
1199.1000;0.1490;-0.1458;
1199.4000;0.1481;-0.1434;
1199.7000;0.1481;-0.1529;
1200.0000;0.1457;-0.1529;
1200.3000;0.1595;-0.1147;
1200.6000;0.1490;-0.1386;
1200.9000;0.1481;-0.1410;
1201.2000;0.1522;-0.1314;
1201.5000;0.1490;-0.1482;
1201.8000;0.1359;-0.1768;
1202.1000;0.1441;-0.1649;
1202.4000;0.1506;-0.1434;
1202.7000;0.1481;-0.1458;
1203.0000;0.1514;-0.1362;
1203.3000;0.1514;-0.1410;
1203.6000;0.1595;-0.1123;
1203.9000;0.1481;-0.1482;
1204.2000;0.1473;-0.1458;
1204.5000;0.1425;-0.1625;
1204.8000;0.1465;-0.1577;
1205.1000;0.1473;-0.1553;
1205.4000;0.1506;-0.1458;
1205.7000;0.1579;-0.1290;
1206.0000;0.1490;-0.1505;
1206.3000;0.1514;-0.1434;
1206.6000;0.1498;-0.1458;
1206.9000;0.1433;-0.1577;
1207.2000;0.1490;-0.1434;
1207.5000;0.1498;-0.1362;
1207.8000;0.1530;-0.1243;
1208.1000;0.1498;-0.1386;
1208.4000;0.1481;-0.1386;
1208.7000;0.1481;-0.1410;
1209.0000;0.1449;-0.1577;
1209.3000;0.1481;-0.1505;
1209.6000;0.1490;-0.1338;
1209.9000;0.1538;-0.1219;
1210.2000;0.1465;-0.1386;
1210.5000;0.1441;-0.1529;
1210.8000;0.1514;-0.1362;
1211.1000;0.1514;-0.1243;
1211.4000;0.1457;-0.1553;
1211.7000;0.1506;-0.1290;
1212.0000;0.1498;-0.1266;
1212.3000;0.1506;-0.1219;
1212.6000;0.1506;-0.1290;
1212.9000;0.1481;-0.1482;
1213.2000;0.1473;-0.1577;
1213.5000;0.1498;-0.1505;
1213.8000;0.1481;-0.1505;
1214.1000;0.1481;-0.1553;
1214.4000;0.1506;-0.1505;
1214.7000;0.1481;-0.1553;
1215.0000;0.1473;-0.1601;
1215.3000;0.1498;-0.1482;
1215.6000;0.1473;-0.1577;
1215.9000;0.1490;-0.1553;
1216.2000;0.1481;-0.1721;
1216.5000;0.1490;-0.1744;
1216.8000;0.1473;-0.1697;
1217.1000;0.1514;-0.1721;
1217.4000;0.1490;-0.1721;
1217.7000;0.1490;-0.1697;
1218.0000;0.1498;-0.1649;
1218.3000;0.1514;-0.1529;
1218.6000;0.1506;-0.1577;
1218.9000;0.1473;-0.1601;
1219.2000;0.1441;-0.1673;
1219.5000;0.1514;-0.1386;
1219.8000;0.1506;-0.1434;
1220.1000;0.1490;-0.1410;
1220.4000;0.1473;-0.1410;
1220.7000;0.1473;-0.1458;
1221.0000;0.1465;-0.1529;
1221.3000;0.1498;-0.1458;
1221.6000;0.1481;-0.1410;
1221.9000;0.1473;-0.1505;
1222.2000;0.1571;-0.1195;
1222.5000;0.1514;-0.1266;
1222.8000;0.1473;-0.1386;
1223.1000;0.1457;-0.1386;
1223.4000;0.1481;-0.1266;
1223.7000;0.1547;-0.1171;
1224.0000;0.1498;-0.1458;
1224.3000;0.1425;-0.1649;
1224.6000;0.1555;-0.1314;
1224.9000;0.1481;-0.1482;
1225.2000;0.1376;-0.1697;
1225.5000;0.1465;-0.1577;
1225.8000;0.1490;-0.1458;
1226.1000;0.1506;-0.1410;
1226.4000;0.1514;-0.1434;
1226.7000;0.1473;-0.1577;
1227.0000;0.1481;-0.1529;
1227.3000;0.1481;-0.1458;
1227.6000;0.1457;-0.1434;
1227.9000;0.1481;-0.1434;
1228.2000;0.1506;-0.1266;
1228.5000;0.1530;-0.1266;
1228.8000;0.1490;-0.1410;
1229.1000;0.1498;-0.1458;
1229.4000;0.1506;-0.1434;
1229.7000;0.1498;-0.1505;
1230.0000;0.1522;-0.1505;
1230.3000;0.1481;-0.1505;
1230.6000;0.1449;-0.1553;
1230.9000;0.1481;-0.1505;
1231.2000;0.1506;-0.1482;
1231.5000;0.1481;-0.1601;
1231.8000;0.1490;-0.1673;
1232.1000;0.1490;-0.1625;
1232.4000;0.1481;-0.1601;
1232.7000;0.1481;-0.1601;
1233.0000;0.1506;-0.1529;
1233.3000;0.1498;-0.1625;
1233.6000;0.1449;-0.1697;
1233.9000;0.1506;-0.1649;
1234.2000;0.1465;-0.1792;
1234.5000;0.1490;-0.1768;
1234.8000;0.1490;-0.1744;
1235.1000;0.1498;-0.1768;
1235.4000;0.1628;-0.1386;
1235.7000;0.1506;-0.1768;
1236.0000;0.1490;-0.1816;
1236.3000;0.1416;-0.1983;
1236.6000;0.1514;-0.1721;
1236.9000;0.1473;-0.1721;
1237.2000;0.1473;-0.1673;
1237.5000;0.1547;-0.1577;
1237.8000;0.1490;-0.1816;
1238.1000;0.1490;-0.1864;
1238.4000;0.1498;-0.1792;
1238.7000;0.1457;-0.1792;
1239.0000;0.1506;-0.1744;
1239.3000;0.1498;-0.1768;
1239.6000;0.1457;-0.1840;
1239.9000;0.1498;-0.1721;
1240.2000;0.1506;-0.1744;
1240.5000;0.1522;-0.1744;
1240.8000;0.1498;-0.1792;
1241.1000;0.1506;-0.1744;
1241.4000;0.1522;-0.1721;
1241.7000;0.1498;-0.1816;
1242.0000;0.1408;-0.2031;
1242.3000;0.1473;-0.1840;
1242.6000;0.1506;-0.1888;
1242.9000;0.1498;-0.1959;
1243.2000;0.1481;-0.1983;
1243.5000;0.1481;-0.2031;
1243.8000;0.1481;-0.1840;
1244.1000;0.1514;-0.1744;
1244.4000;0.1490;-0.1816;
1244.7000;0.1555;-0.1649;
1245.0000;0.1433;-0.2007;
1245.3000;0.1522;-0.1888;
1245.6000;0.1506;-0.1840;
1245.9000;0.1498;-0.1888;
1246.2000;0.1465;-0.2007;
1246.5000;0.1506;-0.1936;
1246.8000;0.1514;-0.1888;
1247.1000;0.1481;-0.2031;
1247.4000;0.1481;-0.2031;
1247.7000;0.1506;-0.1912;
1248.0000;0.1514;-0.1912;
1248.3000;0.1473;-0.1959;
1248.6000;0.1498;-0.1792;
1248.9000;0.1473;-0.1744;
1249.2000;0.1433;-0.1888;
1249.5000;0.1490;-0.1673;
1249.8000;0.1514;-0.1505;
1250.1000;0.1506;-0.1553;
1250.4000;0.1498;-0.1577;
1250.7000;0.1473;-0.1673;
1251.0000;0.1498;-0.1673;
1251.3000;0.1498;-0.1649;
1251.6000;0.1530;-0.1458;
1251.9000;0.1498;-0.1529;
1252.2000;0.1514;-0.1482;
1252.5000;0.1555;-0.1338;
1252.8000;0.1481;-0.1625;
1253.1000;0.1506;-0.1553;
1253.4000;0.1490;-0.1625;
1253.7000;0.1457;-0.1697;
1254.0000;0.1465;-0.1673;
1254.3000;0.1498;-0.1601;
1254.6000;0.1481;-0.1673;
1254.9000;0.1490;-0.1649;
1255.2000;0.1514;-0.1577;
1255.5000;0.1514;-0.1529;
1255.8000;0.1522;-0.1505;
1256.1000;0.1481;-0.1625;
1256.4000;0.1465;-0.1697;
1256.7000;0.1465;-0.1673;
1257.0000;0.1490;-0.1697;
1257.3000;0.1490;-0.1697;
1257.6000;0.1473;-0.1792;
1257.9000;0.1490;-0.1768;
1258.2000;0.1490;-0.1649;
1258.5000;0.1498;-0.1625;
1258.8000;0.1473;-0.1721;
1259.1000;0.1498;-0.1697;
1259.4000;0.1506;-0.1697;
1259.7000;0.1498;-0.1673;
1260.0000;0.1498;-0.1697;
1260.3000;0.1498;-0.1673;
1260.6000;0.1465;-0.1673;
1260.9000;0.1498;-0.1649;
1261.2000;0.1490;-0.1673;
1261.5000;0.1490;-0.1601;
1261.8000;0.1490;-0.1601;
1262.1000;0.1498;-0.1625;
1262.4000;0.1506;-0.1601;
1262.7000;0.1498;-0.1553;
1263.0000;0.1547;-0.1458;
1263.3000;0.1538;-0.1482;
1263.6000;0.1514;-0.1434;
1263.9000;0.1481;-0.1482;
1264.2000;0.1530;-0.1410;
1264.5000;0.1481;-0.1505;
1264.8000;0.1563;-0.1266;
1265.1000;0.1449;-0.1649;
1265.4000;0.1498;-0.1505;
1265.7000;0.1522;-0.1577;
1266.0000;0.1490;-0.1721;
1266.3000;0.1490;-0.1840;
1266.6000;0.1481;-0.1816;
1266.9000;0.1514;-0.1768;
1267.2000;0.1514;-0.1840;
1267.5000;0.1498;-0.1888;
1267.8000;0.1498;-0.1888;
1268.1000;0.1449;-0.1983;
1268.4000;0.1449;-0.1936;
1268.7000;0.1481;-0.1816;
1269.0000;0.1490;-0.1721;
1269.3000;0.1473;-0.1673;
1269.6000;0.1506;-0.1649;
1269.9000;0.1490;-0.1744;
1270.2000;0.1433;-0.1840;
1270.5000;0.1433;-0.1816;
1270.8000;0.1481;-0.1601;
1271.1000;0.1498;-0.1529;
1271.4000;0.1604;-0.1243;
1271.7000;0.1465;-0.1577;
1272.0000;0.1481;-0.1601;
1272.3000;0.1530;-0.1482;
1272.6000;0.1498;-0.1649;
1272.9000;0.1473;-0.1744;
1273.2000;0.1563;-0.1577;
1273.5000;0.1457;-0.1792;
1273.8000;0.1490;-0.1697;
1274.1000;0.1465;-0.1697;
1274.4000;0.1481;-0.1553;
1274.7000;0.1481;-0.1601;
1275.0000;0.1481;-0.1553;
1275.3000;0.1441;-0.1649;
1275.6000;0.1498;-0.1505;
1275.9000;0.1481;-0.1601;
1276.2000;0.1490;-0.1529;
1276.5000;0.1376;-0.1912;
1276.8000;0.1481;-0.1649;
1277.1000;0.1547;-0.1553;
1277.4000;0.1498;-0.1649;
1277.7000;0.1498;-0.1649;
1278.0000;0.1506;-0.1673;
1278.3000;0.1506;-0.1673;
1278.6000;0.1490;-0.1649;
1278.9000;0.1490;-0.1673;
1279.2000;0.1498;-0.1577;
1279.5000;0.1490;-0.1673;
1279.8000;0.1490;-0.1673;
1280.1000;0.1465;-0.1744;
1280.4000;0.1514;-0.1649;
1280.7000;0.1473;-0.1673;
1281.0000;0.1587;-0.1386;
1281.3000;0.1538;-0.1673;
1281.6000;0.1498;-0.1768;
1281.9000;0.1579;-0.1625;
1282.2000;0.1449;-0.1912;
1282.5000;0.1538;-0.1649;
1282.8000;0.1514;-0.1673;
1283.1000;0.1498;-0.1697;
1283.4000;0.1449;-0.1768;
1283.7000;0.1490;-0.1649;
1284.0000;0.1498;-0.1529;
1284.3000;0.1530;-0.1458;
1284.6000;0.1498;-0.1529;
1284.9000;0.1473;-0.1673;
1285.2000;0.1473;-0.1697;
1285.5000;0.1457;-0.1744;
1285.8000;0.1490;-0.1673;
1286.1000;0.1490;-0.1649;
1286.4000;0.1473;-0.1697;
1286.7000;0.1473;-0.1721;
1287.0000;0.1490;-0.1744;
1287.3000;0.1514;-0.1649;
1287.6000;0.1538;-0.1601;
1287.9000;0.1538;-0.1577;
1288.2000;0.1498;-0.1625;
1288.5000;0.1506;-0.1625;
1288.8000;0.1538;-0.1577;
1289.1000;0.1498;-0.1649;
1289.4000;0.1498;-0.1673;
1289.7000;0.1425;-0.1912;
1290.0000;0.1490;-0.1697;
1290.3000;0.1490;-0.1673;
1290.6000;0.1481;-0.1673;
1290.9000;0.1359;-0.2127;
1291.2000;0.1506;-0.1840;
1291.5000;0.1498;-0.1840;
1291.8000;0.1465;-0.1816;
1292.1000;0.1425;-0.1840;
1292.4000;0.1490;-0.1649;
1292.7000;0.1490;-0.1601;
1293.0000;0.1506;-0.1529;
1293.3000;0.1506;-0.1577;
1293.6000;0.1522;-0.1529;
1293.9000;0.1457;-0.1649;
1294.2000;0.1498;-0.1601;
1294.5000;0.1555;-0.1505;
1294.8000;0.1490;-0.1673;
1295.1000;0.1490;-0.1673;
1295.4000;0.1481;-0.1649;
1295.7000;0.1506;-0.1697;
1296.0000;0.1498;-0.1721;
1296.3000;0.1490;-0.1744;
1296.6000;0.1490;-0.1721;
1296.9000;0.1506;-0.1721;
1297.2000;0.1490;-0.1673;
1297.5000;0.1481;-0.1649;
1297.8000;0.1506;-0.1601;
1298.1000;0.1498;-0.1673;
1298.4000;0.1506;-0.1625;
1298.7000;0.1498;-0.1768;
1299.0000;0.1498;-0.1721;
1299.3000;0.1506;-0.1649;
1299.6000;0.1514;-0.1553;
1299.9000;0.1555;-0.1505;
1300.2000;0.1506;-0.1673;
1300.5000;0.1498;-0.1697;
1300.8000;0.1473;-0.1721;
1301.1000;0.1498;-0.1553;
1301.4000;0.1473;-0.1577;
1301.7000;0.1481;-0.1577;
1302.0000;0.1481;-0.1625;
1302.3000;0.1490;-0.1553;
1302.6000;0.1481;-0.1577;
1302.9000;0.1490;-0.1744;
1303.2000;0.1465;-0.1864;
1303.5000;0.1490;-0.1768;
1303.8000;0.1490;-0.1768;
1304.1000;0.1490;-0.1792;
1304.4000;0.1506;-0.1673;
1304.7000;0.1506;-0.1601;
1305.0000;0.1449;-0.1721;
1305.3000;0.1498;-0.1482;
1305.6000;0.1498;-0.1529;
1305.9000;0.1473;-0.1649;
1306.2000;0.1498;-0.1529;
1306.5000;0.1473;-0.1625;
1306.8000;0.1473;-0.1625;
1307.1000;0.1490;-0.1625;
1307.4000;0.1481;-0.1721;
1307.7000;0.1506;-0.1697;
1308.0000;0.1481;-0.1744;
1308.3000;0.1457;-0.1792;
1308.6000;0.1490;-0.1744;
1308.9000;0.1490;-0.1792;
1309.2000;0.1506;-0.1721;
1309.5000;0.1490;-0.1816;
1309.8000;0.1490;-0.1792;
1310.1000;0.1481;-0.1792;
1310.4000;0.1481;-0.1816;
1310.7000;0.1490;-0.1768;
1311.0000;0.1498;-0.1768;
1311.3000;0.1522;-0.1625;
1311.6000;0.1506;-0.1744;
1311.9000;0.1481;-0.1721;
1312.2000;0.1490;-0.1649;
1312.5000;0.1514;-0.1577;
1312.8000;0.1433;-0.1792;
1313.1000;0.1481;-0.1649;
1313.4000;0.1481;-0.1673;
1313.7000;0.1498;-0.1601;
1314.0000;0.1514;-0.1577;
1314.3000;0.1498;-0.1625;
1314.6000;0.1490;-0.1625;
1314.9000;0.1490;-0.1577;
1315.2000;0.1490;-0.1601;
1315.5000;0.1506;-0.1577;
1315.8000;0.1481;-0.1649;
1316.1000;0.1547;-0.1482;
1316.4000;0.1473;-0.1744;
1316.7000;0.1514;-0.1577;
1317.0000;0.1433;-0.1840;
1317.3000;0.1473;-0.1649;
1317.6000;0.1555;-0.1434;
1317.9000;0.1481;-0.1673;
1318.2000;0.1481;-0.1625;
1318.5000;0.1408;-0.1816;
1318.8000;0.1473;-0.1625;
1319.1000;0.1441;-0.1768;
1319.4000;0.1579;-0.1482;
1319.7000;0.1457;-0.1792;
1320.0000;0.1481;-0.1697;
1320.3000;0.1644;-0.1219;
1320.6000;0.1433;-0.1721;
1320.9000;0.1498;-0.1529;
1321.2000;0.1587;-0.1243;
1321.5000;0.1506;-0.1482;
1321.8000;0.1506;-0.1505;
1322.1000;0.1490;-0.1577;
1322.4000;0.1498;-0.1505;
1322.7000;0.1490;-0.1553;
1323.0000;0.1506;-0.1505;
1323.3000;0.1481;-0.1505;
1323.6000;0.1490;-0.1529;
1323.9000;0.1425;-0.1673;
1324.2000;0.1514;-0.1458;
1324.5000;0.1522;-0.1458;
1324.8000;0.1481;-0.1577;
1325.1000;0.1473;-0.1649;
1325.4000;0.1506;-0.1577;
1325.7000;0.1506;-0.1625;
1326.0000;0.1392;-0.1959;
1326.3000;0.1498;-0.1721;
1326.6000;0.1506;-0.1721;
1326.9000;0.1416;-0.1840;
1327.2000;0.1490;-0.1721;
1327.5000;0.1514;-0.1649;
1327.8000;0.1481;-0.1649;
1328.1000;0.1538;-0.1505;
1328.4000;0.1481;-0.1697;
1328.7000;0.1465;-0.1721;
1329.0000;0.1490;-0.1697;
1329.3000;0.1514;-0.1721;
1329.6000;0.1441;-0.1840;
1329.9000;0.1473;-0.1768;
1330.2000;0.1490;-0.1721;
1330.5000;0.1473;-0.1673;
1330.8000;0.1490;-0.1625;
1331.1000;0.1490;-0.1649;
1331.4000;0.1490;-0.1601;
1331.7000;0.1514;-0.1553;
1332.0000;0.1498;-0.1673;
1332.3000;0.1498;-0.1673;
1332.6000;0.1490;-0.1673;
1332.9000;0.1490;-0.1697;
1333.2000;0.1498;-0.1625;
1333.5000;0.1498;-0.1673;
1333.8000;0.1490;-0.1649;
1334.1000;0.1465;-0.1673;
1334.4000;0.1514;-0.1529;
1334.7000;0.1473;-0.1673;
1335.0000;0.1498;-0.1577;
1335.3000;0.1481;-0.1553;
1335.6000;0.1506;-0.1458;
1335.9000;0.1506;-0.1410;
1336.2000;0.1481;-0.1601;
1336.5000;0.1433;-0.1768;
1336.8000;0.1498;-0.1577;
1337.1000;0.1587;-0.1243;
1337.4000;0.1506;-0.1577;
1337.7000;0.1490;-0.1625;
1338.0000;0.1425;-0.1816;
1338.3000;0.1481;-0.1601;
1338.6000;0.1490;-0.1505;
1338.9000;0.1490;-0.1482;
1339.2000;0.1498;-0.1386;
1339.5000;0.1506;-0.1434;
1339.8000;0.1498;-0.1673;
1340.1000;0.1604;-0.1266;
1340.4000;0.1473;-0.1625;
1340.7000;0.1547;-0.1482;
1341.0000;0.1490;-0.1625;
1341.3000;0.1449;-0.1673;
1341.6000;0.1473;-0.1673;
1341.9000;0.1498;-0.1577;
1342.2000;0.1449;-0.1721;
1342.5000;0.1498;-0.1625;
1342.8000;0.1490;-0.1673;
1343.1000;0.1481;-0.1625;
1343.4000;0.1514;-0.1529;
1343.7000;0.1490;-0.1601;
1344.0000;0.1481;-0.1601;
1344.3000;0.1490;-0.1577;
1344.6000;0.1514;-0.1434;
1344.9000;0.1506;-0.1458;
1345.2000;0.1481;-0.1458;
1345.5000;0.1530;-0.1314;
1345.8000;0.1498;-0.1434;
1346.1000;0.1490;-0.1505;
1346.4000;0.1481;-0.1625;
1346.7000;0.1490;-0.1553;
1347.0000;0.1481;-0.1577;
1347.3000;0.1514;-0.1458;
1347.6000;0.1481;-0.1434;
1347.9000;0.1636;-0.0980;
1348.2000;0.1481;-0.1410;
1348.5000;0.1506;-0.1386;
1348.8000;0.1498;-0.1434;
1349.1000;0.1506;-0.1434;
1349.4000;0.1425;-0.1697;
1349.7000;0.1506;-0.1529;
1350.0000;0.1498;-0.1529;
1350.3000;0.1498;-0.1482;
1350.6000;0.1481;-0.1529;
1350.9000;0.1547;-0.1362;
1351.2000;0.1425;-0.1625;
1351.5000;0.1481;-0.1386;
1351.8000;0.1473;-0.1458;
1352.1000;0.1449;-0.1553;
1352.4000;0.1522;-0.1458;
1352.7000;0.1530;-0.1482;
1353.0000;0.1473;-0.1601;
1353.3000;0.1522;-0.1386;
1353.6000;0.1538;-0.1290;
1353.9000;0.1506;-0.1410;
1354.2000;0.1490;-0.1482;
1354.5000;0.1498;-0.1529;
1354.8000;0.1522;-0.1505;
1355.1000;0.1433;-0.1625;
1355.4000;0.1506;-0.1434;
1355.7000;0.1498;-0.1434;
1356.0000;0.1465;-0.1625;
1356.3000;0.1498;-0.1529;
1356.6000;0.1465;-0.1601;
1356.9000;0.1490;-0.1529;
1357.2000;0.1498;-0.1553;
1357.5000;0.1481;-0.1577;
1357.8000;0.1514;-0.1482;
1358.1000;0.1506;-0.1434;
1358.4000;0.1490;-0.1482;
1358.7000;0.1473;-0.1482;
1359.0000;0.1506;-0.1434;
1359.3000;0.1514;-0.1362;
1359.6000;0.1522;-0.1410;
1359.9000;0.1490;-0.1505;
1360.2000;0.1530;-0.1434;
1360.5000;0.1498;-0.1553;
1360.8000;0.1465;-0.1625;
1361.1000;0.1465;-0.1649;
1361.4000;0.1538;-0.1529;
1361.7000;0.1498;-0.1601;
1362.0000;0.1473;-0.1601;
1362.3000;0.1457;-0.1673;
1362.6000;0.1498;-0.1601;
1362.9000;0.1465;-0.1601;
1363.2000;0.1490;-0.1553;
1363.5000;0.1481;-0.1529;
1363.8000;0.1498;-0.1505;
1364.1000;0.1563;-0.1410;
1364.4000;0.1506;-0.1577;
1364.7000;0.1490;-0.1673;
1365.0000;0.1490;-0.1601;
1365.3000;0.1506;-0.1625;
1365.6000;0.1506;-0.1577;
1365.9000;0.1481;-0.1673;
1366.2000;0.1481;-0.1649;
1366.5000;0.1530;-0.1434;
1366.8000;0.1498;-0.1529;
1367.1000;0.1490;-0.1577;
1367.4000;0.1465;-0.1649;
1367.7000;0.1449;-0.1721;
1368.0000;0.1481;-0.1697;
1368.3000;0.1538;-0.1625;
1368.6000;0.1522;-0.1625;
1368.9000;0.1498;-0.1697;
1369.2000;0.1498;-0.1625;
1369.5000;0.1522;-0.1458;
1369.8000;0.1506;-0.1458;
1370.1000;0.1481;-0.1601;
1370.4000;0.1490;-0.1649;
1370.7000;0.1506;-0.1649;
1371.0000;0.1530;-0.1529;
1371.3000;0.1506;-0.1553;
1371.6000;0.1473;-0.1673;
1371.9000;0.1506;-0.1625;
1372.2000;0.1481;-0.1553;
1372.5000;0.1490;-0.1505;
1372.8000;0.1490;-0.1529;
1373.1000;0.1449;-0.1673;
1373.4000;0.1514;-0.1434;
1373.7000;0.1498;-0.1505;
1374.0000;0.1481;-0.1553;
1374.3000;0.1514;-0.1553;
1374.6000;0.1481;-0.1553;
1374.9000;0.1490;-0.1553;
1375.2000;0.1522;-0.1458;
1375.5000;0.1481;-0.1505;
1375.8000;0.1490;-0.1505;
1376.1000;0.1481;-0.1529;
1376.4000;0.1506;-0.1482;
1376.7000;0.1490;-0.1601;
1377.0000;0.1506;-0.1577;
1377.3000;0.1522;-0.1649;
1377.6000;0.1465;-0.1697;
1377.9000;0.1449;-0.1721;
1378.2000;0.1490;-0.1625;
1378.5000;0.1563;-0.1410;
1378.8000;0.1481;-0.1625;
1379.1000;0.1490;-0.1625;
1379.4000;0.1473;-0.1721;
1379.7000;0.1506;-0.1601;
1380.0000;0.1490;-0.1601;
1380.3000;0.1490;-0.1673;
1380.6000;0.1498;-0.1649;
1380.9000;0.1514;-0.1625;
1381.2000;0.1506;-0.1625;
1381.5000;0.1563;-0.1577;
1381.8000;0.1498;-0.1721;
1382.1000;0.1498;-0.1744;
1382.4000;0.1490;-0.1697;
1382.7000;0.1530;-0.1625;
1383.0000;0.1538;-0.1577;
1383.3000;0.1490;-0.1673;
1383.6000;0.1506;-0.1649;
1383.9000;0.1587;-0.1434;
1384.2000;0.1465;-0.1649;
1384.5000;0.1612;-0.1195;
1384.8000;0.1416;-0.1744;
1385.1000;0.1465;-0.1649;
1385.4000;0.1490;-0.1601;
1385.7000;0.1457;-0.1744;
1386.0000;0.1481;-0.1625;
1386.3000;0.1514;-0.1458;
1386.6000;0.1490;-0.1482;
1386.9000;0.1579;-0.1195;
1387.2000;0.1514;-0.1338;
1387.5000;0.1506;-0.1458;
1387.8000;0.1490;-0.1625;
1388.1000;0.1538;-0.1482;
1388.4000;0.1498;-0.1577;
1388.7000;0.1481;-0.1601;
1389.0000;0.1490;-0.1577;
1389.3000;0.1473;-0.1601;
1389.6000;0.1514;-0.1482;
1389.9000;0.1538;-0.1386;
1390.2000;0.1563;-0.1314;
1390.5000;0.1481;-0.1529;
1390.8000;0.1481;-0.1625;
1391.1000;0.1490;-0.1482;
1391.4000;0.1506;-0.1482;
1391.7000;0.1490;-0.1529;
1392.0000;0.1498;-0.1482;
1392.3000;0.1465;-0.1601;
1392.6000;0.1498;-0.1553;
1392.9000;0.1498;-0.1505;
1393.2000;0.1498;-0.1553;
1393.5000;0.1490;-0.1529;
1393.8000;0.1465;-0.1649;
1394.1000;0.1481;-0.1625;
1394.4000;0.1490;-0.1553;
1394.7000;0.1490;-0.1505;
1395.0000;0.1490;-0.1553;
1395.3000;0.1514;-0.1529;
1395.6000;0.1498;-0.1721;
1395.9000;0.1481;-0.1816;
1396.2000;0.1514;-0.1697;
1396.5000;0.1514;-0.1673;
1396.8000;0.1506;-0.1577;
1397.1000;0.1514;-0.1601;
1397.4000;0.1473;-0.1721;
1397.7000;0.1481;-0.1673;
1398.0000;0.1490;-0.1673;
1398.3000;0.1473;-0.1744;
1398.6000;0.1481;-0.1697;
1398.9000;0.1490;-0.1673;
1399.2000;0.1490;-0.1697;
1399.5000;0.1490;-0.1673;
1399.8000;0.1473;-0.1768;
