time/ms;Fluo/V;P700 deltaI/I x10³;
-199.8000;0.1506;-0.1147;
-199.5000;0.1498;-0.1243;
-199.2000;0.1490;-0.1243;
-198.9000;0.1490;-0.1266;
-198.6000;0.1473;-0.1290;
-198.3000;0.1490;-0.1290;
-198.0000;0.1506;-0.1266;
-197.7000;0.1490;-0.1314;
-197.4000;0.1473;-0.1410;
-197.1000;0.1490;-0.1314;
-196.8000;0.1490;-0.1386;
-196.5000;0.1490;-0.1434;
-196.2000;0.1490;-0.1434;
-195.9000;0.1514;-0.1266;
-195.6000;0.1514;-0.1290;
-195.3000;0.1490;-0.1290;
-195.0000;0.1481;-0.1362;
-194.7000;0.1498;-0.1290;
-194.4000;0.1481;-0.1314;
-194.1000;0.1498;-0.1266;
-193.8000;0.1498;-0.1219;
-193.5000;0.1490;-0.1219;
-193.2000;0.1490;-0.1195;
-192.9000;0.1506;-0.1219;
-192.6000;0.1490;-0.1219;
-192.3000;0.1498;-0.1099;
-192.0000;0.1481;-0.1099;
-191.7000;0.1490;-0.1075;
-191.4000;0.1481;-0.1075;
-191.1000;0.1498;-0.1075;
-190.8000;0.1408;-0.1314;
-190.5000;0.1498;-0.1099;
-190.2000;0.1490;-0.1171;
-189.9000;0.1530;-0.1171;
-189.6000;0.1498;-0.1266;
-189.3000;0.1490;-0.1290;
-189.0000;0.1465;-0.1338;
-188.7000;0.1490;-0.1219;
-188.4000;0.1433;-0.1338;
-188.1000;0.1506;-0.1195;
-187.8000;0.1490;-0.1195;
-187.5000;0.1473;-0.1243;
-187.2000;0.1490;-0.1171;
-186.9000;0.1433;-0.1314;
-186.6000;0.1506;-0.1195;
-186.3000;0.1490;-0.1171;
-186.0000;0.1530;-0.1028;
-185.7000;0.1490;-0.1099;
-185.4000;0.1498;-0.1171;
-185.1000;0.1449;-0.1243;
-184.8000;0.1522;-0.1123;
-184.5000;0.1587;-0.1051;
-184.2000;0.1490;-0.1243;
-183.9000;0.1514;-0.1219;
-183.6000;0.1490;-0.1338;
-183.3000;0.1481;-0.1434;
-183.0000;0.1490;-0.1314;
-182.7000;0.1498;-0.1338;
-182.4000;0.1490;-0.1362;
-182.1000;0.1481;-0.1434;
-181.8000;0.1498;-0.1266;
-181.5000;0.1490;-0.1290;
-181.2000;0.1490;-0.1314;
-180.9000;0.1514;-0.1243;
-180.6000;0.1490;-0.1290;
-180.3000;0.1506;-0.1219;
-180.0000;0.1498;-0.1362;
-179.7000;0.1498;-0.1314;
-179.4000;0.1506;-0.1386;
-179.1000;0.1490;-0.1434;
-178.8000;0.1490;-0.1410;
-178.5000;0.1506;-0.1338;
-178.2000;0.1490;-0.1362;
-177.9000;0.1490;-0.1410;
-177.6000;0.1498;-0.1314;
-177.3000;0.1498;-0.1266;
-177.0000;0.1457;-0.1266;
-176.7000;0.1490;-0.1243;
-176.4000;0.1416;-0.1386;
-176.1000;0.1481;-0.1219;
-175.8000;0.1490;-0.1195;
-175.5000;0.1481;-0.1266;
-175.2000;0.1498;-0.1290;
-174.9000;0.1538;-0.1147;
-174.6000;0.1506;-0.1219;
-174.3000;0.1490;-0.1314;
-174.0000;0.1498;-0.1338;
-173.7000;0.1506;-0.1266;
-173.4000;0.1416;-0.1434;
-173.1000;0.1514;-0.1195;
-172.8000;0.1522;-0.1075;
-172.5000;0.1522;-0.1028;
-172.2000;0.1555;-0.1004;
-171.9000;0.1490;-0.1147;
-171.6000;0.1498;-0.1075;
-171.3000;0.1490;-0.1171;
-171.0000;0.1473;-0.1171;
-170.7000;0.1490;-0.1219;
-170.4000;0.1498;-0.1195;
-170.1000;0.1506;-0.1171;
-169.8000;0.1498;-0.1147;
-169.5000;0.1498;-0.1195;
-169.2000;0.1490;-0.1123;
-168.9000;0.1498;-0.1123;
-168.6000;0.1425;-0.1266;
-168.3000;0.1481;-0.1123;
-168.0000;0.1498;-0.1075;
-167.7000;0.1481;-0.1147;
-167.4000;0.1481;-0.1171;
-167.1000;0.1490;-0.1123;
-166.8000;0.1481;-0.1243;
-166.5000;0.1498;-0.1195;
-166.2000;0.1514;-0.1195;
-165.9000;0.1612;-0.1028;
-165.6000;0.1481;-0.1290;
-165.3000;0.1490;-0.1290;
-165.0000;0.1498;-0.1266;
-164.7000;0.1490;-0.1266;
-164.4000;0.1465;-0.1243;
-164.1000;0.1481;-0.1243;
-163.8000;0.1465;-0.1290;
-163.5000;0.1498;-0.1243;
-163.2000;0.1498;-0.1219;
-162.9000;0.1481;-0.1266;
-162.6000;0.1506;-0.1195;
-162.3000;0.1473;-0.1290;
-162.0000;0.1490;-0.1171;
-161.7000;0.1490;-0.1195;
-161.4000;0.1490;-0.1171;
-161.1000;0.1481;-0.1147;
-160.8000;0.1473;-0.1219;
-160.5000;0.1481;-0.1171;
-160.2000;0.1498;-0.1195;
-159.9000;0.1514;-0.1147;
-159.6000;0.1481;-0.1219;
-159.3000;0.1498;-0.1243;
-159.0000;0.1481;-0.1195;
-158.7000;0.1522;-0.1171;
-158.4000;0.1506;-0.1219;
-158.1000;0.1473;-0.1314;
-157.8000;0.1481;-0.1314;
-157.5000;0.1481;-0.1338;
-157.2000;0.1408;-0.1529;
-156.9000;0.1498;-0.1266;
-156.6000;0.1498;-0.1266;
-156.3000;0.1465;-0.1338;
-156.0000;0.1433;-0.1362;
-155.7000;0.1498;-0.1171;
-155.4000;0.1538;-0.1004;
-155.1000;0.1473;-0.1195;
-154.8000;0.1571;-0.0908;
-154.5000;0.1514;-0.1075;
-154.2000;0.1563;-0.0980;
-153.9000;0.1481;-0.1290;
-153.6000;0.1506;-0.1195;
-153.3000;0.1490;-0.1219;
-153.0000;0.1522;-0.1099;
-152.7000;0.1481;-0.1338;
-152.4000;0.1433;-0.1434;
-152.1000;0.1465;-0.1195;
-151.8000;0.1506;-0.0956;
-151.5000;0.1506;-0.1051;
-151.2000;0.1481;-0.1171;
-150.9000;0.1506;-0.1099;
-150.6000;0.1506;-0.1171;
-150.3000;0.1498;-0.1123;
-150.0000;0.1498;-0.1123;
-149.7000;0.1490;-0.1099;
-149.4000;0.1498;-0.1099;
-149.1000;0.1498;-0.1171;
-148.8000;0.1490;-0.1195;
-148.5000;0.1498;-0.1123;
-148.2000;0.1522;-0.1051;
-147.9000;0.1498;-0.1075;
-147.6000;0.1514;-0.0980;
-147.3000;0.1465;-0.1075;
-147.0000;0.1490;-0.1028;
-146.7000;0.1473;-0.0980;
-146.4000;0.1506;-0.0884;
-146.1000;0.1481;-0.1028;
-145.8000;0.1522;-0.0908;
-145.5000;0.1506;-0.0980;
-145.2000;0.1522;-0.0908;
-144.9000;0.1514;-0.0908;
-144.6000;0.1465;-0.1051;
-144.3000;0.1498;-0.0932;
-144.0000;0.1506;-0.0932;
-143.7000;0.1506;-0.1004;
-143.4000;0.1449;-0.1099;
-143.1000;0.1498;-0.1028;
-142.8000;0.1498;-0.1099;
-142.5000;0.1628;-0.0645;
-142.2000;0.1490;-0.1099;
-141.9000;0.1473;-0.1195;
-141.6000;0.1498;-0.1075;
-141.3000;0.1490;-0.1051;
-141.0000;0.1506;-0.0980;
-140.7000;0.1498;-0.1075;
-140.4000;0.1481;-0.1051;
-140.1000;0.1506;-0.1028;
-139.8000;0.1538;-0.1004;
-139.5000;0.1384;-0.1338;
-139.2000;0.1490;-0.1099;
-138.9000;0.1514;-0.1051;
-138.6000;0.1473;-0.1171;
-138.3000;0.1481;-0.1147;
-138.0000;0.1490;-0.1195;
-137.7000;0.1538;-0.1123;
-137.4000;0.1498;-0.1171;
-137.1000;0.1498;-0.1195;
-136.8000;0.1441;-0.1362;
-136.5000;0.1376;-0.1482;
-136.2000;0.1498;-0.1123;
-135.9000;0.1490;-0.1123;
-135.6000;0.1490;-0.1075;
-135.3000;0.1481;-0.1147;
-135.0000;0.1547;-0.1028;
-134.7000;0.1473;-0.1123;
-134.4000;0.1547;-0.0980;
-134.1000;0.1514;-0.1075;
-133.8000;0.1506;-0.1195;
-133.5000;0.1514;-0.1195;
-133.2000;0.1530;-0.1028;
-132.9000;0.1506;-0.1075;
-132.6000;0.1498;-0.1171;
-132.3000;0.1506;-0.1195;
-132.0000;0.1506;-0.1243;
-131.7000;0.1473;-0.1266;
-131.4000;0.1522;-0.1123;
-131.1000;0.1514;-0.1099;
-130.8000;0.1490;-0.1123;
-130.5000;0.1481;-0.1147;
-130.2000;0.1481;-0.1123;
-129.9000;0.1498;-0.1099;
-129.6000;0.1571;-0.0884;
-129.3000;0.1506;-0.1075;
-129.0000;0.1522;-0.1004;
-128.7000;0.1490;-0.1171;
-128.4000;0.1481;-0.1195;
-128.1000;0.1481;-0.1243;
-127.8000;0.1465;-0.1290;
-127.5000;0.1473;-0.1219;
-127.2000;0.1408;-0.1362;
-126.9000;0.1490;-0.1099;
-126.6000;0.1498;-0.1004;
-126.3000;0.1481;-0.1123;
-126.0000;0.1490;-0.1195;
-125.7000;0.1481;-0.1147;
-125.4000;0.1506;-0.1099;
-125.1000;0.1498;-0.1147;
-124.8000;0.1498;-0.1075;
-124.5000;0.1514;-0.1219;
-124.2000;0.1506;-0.1266;
-123.9000;0.1514;-0.1266;
-123.6000;0.1506;-0.1290;
-123.3000;0.1490;-0.1266;
-123.0000;0.1506;-0.1243;
-122.7000;0.1530;-0.1099;
-122.4000;0.1481;-0.1171;
-122.1000;0.1490;-0.1075;
-121.8000;0.1547;-0.0884;
-121.5000;0.1555;-0.0812;
-121.2000;0.1514;-0.0836;
-120.9000;0.1530;-0.0812;
-120.6000;0.1514;-0.0860;
-120.3000;0.1506;-0.0956;
-120.0000;0.1514;-0.0956;
-119.7000;0.1490;-0.1075;
-119.4000;0.1506;-0.1004;
-119.1000;0.1498;-0.1075;
-118.8000;0.1506;-0.1075;
-118.5000;0.1433;-0.1314;
-118.2000;0.1498;-0.1099;
-117.9000;0.1473;-0.1051;
-117.6000;0.1392;-0.1243;
-117.3000;0.1547;-0.0789;
-117.0000;0.1579;-0.0741;
-116.7000;0.1490;-0.0980;
-116.4000;0.1473;-0.1051;
-116.1000;0.1530;-0.0908;
-115.8000;0.1490;-0.1051;
-115.5000;0.1441;-0.1147;
-115.2000;0.1514;-0.1051;
-114.9000;0.1490;-0.1099;
-114.6000;0.1490;-0.1004;
-114.3000;0.1514;-0.0884;
-114.0000;0.1490;-0.1004;
-113.7000;0.1481;-0.1051;
-113.4000;0.1490;-0.1099;
-113.1000;0.1506;-0.1171;
-112.8000;0.1498;-0.1219;
-112.5000;0.1498;-0.1219;
-112.2000;0.1498;-0.1338;
-111.9000;0.1514;-0.1290;
-111.6000;0.1481;-0.1410;
-111.3000;0.1498;-0.1410;
-111.0000;0.1514;-0.1410;
-110.7000;0.1498;-0.1386;
-110.4000;0.1457;-0.1410;
-110.1000;0.1481;-0.1266;
-109.8000;0.1530;-0.1099;
-109.5000;0.1514;-0.1147;
-109.2000;0.1506;-0.1147;
-108.9000;0.1392;-0.1458;
-108.6000;0.1490;-0.1266;
-108.3000;0.1473;-0.1243;
-108.0000;0.1498;-0.1171;
-107.7000;0.1473;-0.1290;
-107.4000;0.1498;-0.1243;
-107.1000;0.1514;-0.1195;
-106.8000;0.1481;-0.1362;
-106.5000;0.1506;-0.1219;
-106.2000;0.1465;-0.1290;
-105.9000;0.1498;-0.1171;
-105.6000;0.1465;-0.1266;
-105.3000;0.1506;-0.1195;
-105.0000;0.1498;-0.1243;
-104.7000;0.1490;-0.1266;
-104.4000;0.1547;-0.1219;
-104.1000;0.1571;-0.1171;
-103.8000;0.1522;-0.1195;
-103.5000;0.1498;-0.1171;
-103.2000;0.1547;-0.1051;
-102.9000;0.1522;-0.1075;
-102.6000;0.1571;-0.0980;
-102.3000;0.1490;-0.1219;
-102.0000;0.1490;-0.1219;
-101.7000;0.1555;-0.1051;
-101.4000;0.1514;-0.1123;
-101.1000;0.1441;-0.1386;
-100.8000;0.1587;-0.1004;
-100.5000;0.1514;-0.1290;
-100.2000;0.1538;-0.1243;
-99.9000;0.1563;-0.1171;
-99.6000;0.1481;-0.1386;
-99.3000;0.1514;-0.1266;
-99.0000;0.1498;-0.1314;
-98.7000;0.1481;-0.1338;
-98.4000;0.1498;-0.1314;
-98.1000;0.1481;-0.1290;
-97.8000;0.1506;-0.1147;
-97.5000;0.1490;-0.1195;
-97.2000;0.1490;-0.1314;
-96.9000;0.1490;-0.1362;
-96.6000;0.1538;-0.1195;
-96.3000;0.1506;-0.1290;
-96.0000;0.1481;-0.1338;
-95.7000;0.1481;-0.1314;
-95.4000;0.1498;-0.1266;
-95.1000;0.1522;-0.1195;
-94.8000;0.1506;-0.1195;
-94.5000;0.1416;-0.1505;
-94.2000;0.1465;-0.1386;
-93.9000;0.1506;-0.1338;
-93.6000;0.1465;-0.1386;
-93.3000;0.1506;-0.1314;
-93.0000;0.1506;-0.1290;
-92.7000;0.1473;-0.1410;
-92.4000;0.1555;-0.1219;
-92.1000;0.1506;-0.1338;
-91.8000;0.1498;-0.1147;
-91.5000;0.1490;-0.1195;
-91.2000;0.1490;-0.1123;
-90.9000;0.1506;-0.1123;
-90.6000;0.1473;-0.1219;
-90.3000;0.1514;-0.1171;
-90.0000;0.1506;-0.1290;
-89.7000;0.1498;-0.1219;
-89.4000;0.1473;-0.1290;
-89.1000;0.1490;-0.1266;
-88.8000;0.1490;-0.1195;
-88.5000;0.1490;-0.1195;
-88.2000;0.1506;-0.1123;
-87.9000;0.1481;-0.1123;
-87.6000;0.1490;-0.1099;
-87.3000;0.1481;-0.1123;
-87.0000;0.1490;-0.1171;
-86.7000;0.1473;-0.1147;
-86.4000;0.1481;-0.1171;
-86.1000;0.1498;-0.1123;
-85.8000;0.1522;-0.1099;
-85.5000;0.1498;-0.1099;
-85.2000;0.1538;-0.1099;
-84.9000;0.1506;-0.1195;
-84.6000;0.1498;-0.1195;
-84.3000;0.1481;-0.1266;
-84.0000;0.1587;-0.1028;
-83.7000;0.1465;-0.1410;
-83.4000;0.1481;-0.1314;
-83.1000;0.1490;-0.1290;
-82.8000;0.1490;-0.1266;
-82.5000;0.1490;-0.1266;
-82.2000;0.1490;-0.1266;
-81.9000;0.1563;-0.1004;
-81.6000;0.1449;-0.1314;
-81.3000;0.1473;-0.1243;
-81.0000;0.1514;-0.1075;
-80.7000;0.1481;-0.1051;
-80.4000;0.1490;-0.1051;
-80.1000;0.1506;-0.1051;
-79.8000;0.1490;-0.1075;
-79.5000;0.1563;-0.0884;
-79.2000;0.1571;-0.0812;
-78.9000;0.1498;-0.0980;
-78.6000;0.1490;-0.1004;
-78.3000;0.1612;-0.0669;
-78.0000;0.1481;-0.1028;
-77.7000;0.1481;-0.1051;
-77.4000;0.1506;-0.0980;
-77.1000;0.1376;-0.1386;
-76.8000;0.1465;-0.1147;
-76.5000;0.1449;-0.1266;
-76.2000;0.1490;-0.1171;
-75.9000;0.1498;-0.1195;
-75.6000;0.1547;-0.0980;
-75.3000;0.1481;-0.1123;
-75.0000;0.1498;-0.1123;
-74.7000;0.1449;-0.1266;
-74.4000;0.1490;-0.1195;
-74.1000;0.1514;-0.1147;
-73.8000;0.1465;-0.1243;
-73.5000;0.1490;-0.1123;
-73.2000;0.1498;-0.1123;
-72.9000;0.1449;-0.1266;
-72.6000;0.1490;-0.1171;
-72.3000;0.1506;-0.1195;
-72.0000;0.1498;-0.1243;
-71.7000;0.1522;-0.1243;
-71.4000;0.1498;-0.1290;
-71.1000;0.1473;-0.1338;
-70.8000;0.1490;-0.1219;
-70.5000;0.1530;-0.1123;
-70.2000;0.1514;-0.1123;
-69.9000;0.1416;-0.1386;
-69.6000;0.1506;-0.1123;
-69.3000;0.1514;-0.1171;
-69.0000;0.1498;-0.1266;
-68.7000;0.1490;-0.1266;
-68.4000;0.1522;-0.1195;
-68.1000;0.1490;-0.1171;
-67.8000;0.1595;-0.0836;
-67.5000;0.1522;-0.1123;
-67.2000;0.1498;-0.1243;
-66.9000;0.1490;-0.1290;
-66.6000;0.1498;-0.1290;
-66.3000;0.1481;-0.1314;
-66.0000;0.1490;-0.1171;
-65.7000;0.1506;-0.1028;
-65.4000;0.1555;-0.1004;
-65.1000;0.1506;-0.1123;
-64.8000;0.1473;-0.1123;
-64.5000;0.1481;-0.1099;
-64.2000;0.1490;-0.1051;
-63.9000;0.1490;-0.1075;
-63.6000;0.1481;-0.1099;
-63.3000;0.1473;-0.1051;
-63.0000;0.1506;-0.0956;
-62.7000;0.1514;-0.0956;
-62.4000;0.1490;-0.0956;
-62.1000;0.1481;-0.1051;
-61.8000;0.1506;-0.0908;
-61.5000;0.1490;-0.0860;
-61.2000;0.1522;-0.0860;
-60.9000;0.1473;-0.0932;
-60.6000;0.1514;-0.0789;
-60.3000;0.1449;-0.0956;
-60.0000;0.1498;-0.0836;
-59.7000;0.1620;-0.0382;
-59.4000;0.1498;-0.0812;
-59.1000;0.1514;-0.0765;
-58.8000;0.1514;-0.0789;
-58.5000;0.1490;-0.0836;
-58.2000;0.1481;-0.0860;
-57.9000;0.1408;-0.1075;
-57.6000;0.1595;-0.0526;
-57.3000;0.1538;-0.0741;
-57.0000;0.1490;-0.0980;
-56.7000;0.1490;-0.1147;
-56.4000;0.1506;-0.1123;
-56.1000;0.1514;-0.1099;
-55.8000;0.1490;-0.1171;
-55.5000;0.1522;-0.1075;
-55.2000;0.1481;-0.1099;
-54.9000;0.1441;-0.1243;
-54.6000;0.1498;-0.1051;
-54.3000;0.1465;-0.1147;
-54.0000;0.1490;-0.0956;
-53.7000;0.1506;-0.0884;
-53.4000;0.1481;-0.1028;
-53.1000;0.1498;-0.0980;
-52.8000;0.1481;-0.0860;
-52.5000;0.1555;-0.0693;
-52.2000;0.1514;-0.0908;
-51.9000;0.1498;-0.1004;
-51.6000;0.1498;-0.0932;
-51.3000;0.1498;-0.0980;
-51.0000;0.1506;-0.0884;
-50.7000;0.1506;-0.0908;
-50.4000;0.1490;-0.1004;
-50.1000;0.1522;-0.0956;
-49.8000;0.1481;-0.1051;
-49.5000;0.1506;-0.1004;
-49.2000;0.1490;-0.1004;
-48.9000;0.1490;-0.1004;
-48.6000;0.1481;-0.1075;
-48.3000;0.1457;-0.1028;
-48.0000;0.1506;-0.0932;
-47.7000;0.1506;-0.0884;
-47.4000;0.1498;-0.1028;
-47.1000;0.1465;-0.1004;
-46.8000;0.1465;-0.1099;
-46.5000;0.1514;-0.0956;
-46.2000;0.1490;-0.1075;
-45.9000;0.1473;-0.1099;
-45.6000;0.1490;-0.1099;
-45.3000;0.1473;-0.1171;
-45.0000;0.1498;-0.1171;
-44.7000;0.1522;-0.1028;
-44.4000;0.1473;-0.1028;
-44.1000;0.1465;-0.1051;
-43.8000;0.1481;-0.0980;
-43.5000;0.1506;-0.0956;
-43.2000;0.1481;-0.1051;
-42.9000;0.1473;-0.1171;
-42.6000;0.1506;-0.1075;
-42.3000;0.1506;-0.1004;
-42.0000;0.1514;-0.0908;
-41.7000;0.1490;-0.0932;
-41.4000;0.1490;-0.0980;
-41.1000;0.1457;-0.1075;
-40.8000;0.1465;-0.1051;
-40.5000;0.1490;-0.0980;
-40.2000;0.1465;-0.1004;
-39.9000;0.1530;-0.0884;
-39.6000;0.1473;-0.1004;
-39.3000;0.1465;-0.1051;
-39.0000;0.1498;-0.0932;
-38.7000;0.1481;-0.0980;
-38.4000;0.1498;-0.0932;
-38.1000;0.1498;-0.1004;
-37.8000;0.1490;-0.1028;
-37.5000;0.1490;-0.1051;
-37.2000;0.1538;-0.0884;
-36.9000;0.1498;-0.0836;
-36.6000;0.1481;-0.0884;
-36.3000;0.1392;-0.1147;
-36.0000;0.1498;-0.0908;
-35.7000;0.1506;-0.0932;
-35.4000;0.1465;-0.0980;
-35.1000;0.1490;-0.0932;
-34.8000;0.1538;-0.0789;
-34.5000;0.1498;-0.0860;
-34.2000;0.1514;-0.0884;
-33.9000;0.1425;-0.1099;
-33.6000;0.1368;-0.1314;
-33.3000;0.1514;-0.0932;
-33.0000;0.1522;-0.0956;
-32.7000;0.1473;-0.1099;
-32.4000;0.1506;-0.0956;
-32.1000;0.1506;-0.1028;
-31.8000;0.1530;-0.0932;
-31.5000;0.1481;-0.1051;
-31.2000;0.1490;-0.0932;
-30.9000;0.1490;-0.0980;
-30.6000;0.1473;-0.1004;
-30.3000;0.1506;-0.0956;
-30.0000;0.1481;-0.1075;
-29.7000;0.1498;-0.1171;
-29.4000;0.1490;-0.1195;
-29.1000;0.1490;-0.1195;
-28.8000;0.1506;-0.1123;
-28.5000;0.1425;-0.1386;
-28.2000;0.1506;-0.1171;
-27.9000;0.1498;-0.1195;
-27.6000;0.1506;-0.1147;
-27.3000;0.1498;-0.1123;
-27.0000;0.1481;-0.1123;
-26.7000;0.1555;-0.0980;
-26.4000;0.1481;-0.1123;
-26.1000;0.1490;-0.1099;
-25.8000;0.1490;-0.1051;
-25.5000;0.1514;-0.0860;
-25.2000;0.1514;-0.0956;
-24.9000;0.1506;-0.0956;
-24.6000;0.1522;-0.1004;
-24.3000;0.1506;-0.1004;
-24.0000;0.1498;-0.1028;
-23.7000;0.1514;-0.1004;
-23.4000;0.1490;-0.1028;
-23.1000;0.1514;-0.1028;
-22.8000;0.1490;-0.1099;
-22.5000;0.1595;-0.0789;
-22.2000;0.1490;-0.1028;
-21.9000;0.1506;-0.0956;
-21.6000;0.1514;-0.0932;
-21.3000;0.1506;-0.0980;
-21.0000;0.1490;-0.1099;
-20.7000;0.1530;-0.1051;
-20.4000;0.1498;-0.1099;
-20.1000;0.1506;-0.1123;
-19.8000;0.1604;-0.0884;
-19.5000;0.1506;-0.1147;
-19.2000;0.1506;-0.1147;
-18.9000;0.1498;-0.1147;
-18.6000;0.1490;-0.1195;
-18.3000;0.1506;-0.1147;
-18.0000;0.1563;-0.1004;
-17.7000;0.1506;-0.1195;
-17.4000;0.1473;-0.1314;
-17.1000;0.1555;-0.1051;
-16.8000;0.1498;-0.1243;
-16.5000;0.1514;-0.1290;
-16.2000;0.1498;-0.1219;
-15.9000;0.1490;-0.1195;
-15.6000;0.1514;-0.1147;
-15.3000;0.1498;-0.1147;
-15.0000;0.1514;-0.1051;
-14.7000;0.1522;-0.1123;
-14.4000;0.1481;-0.1290;
-14.1000;0.1490;-0.1243;
-13.8000;0.1587;-0.1051;
-13.5000;0.1490;-0.1219;
-13.2000;0.1498;-0.1219;
-12.9000;0.1652;-0.0836;
-12.6000;0.1514;-0.1099;
-12.3000;0.1506;-0.1147;
-12.0000;0.1433;-0.1338;
-11.7000;0.1506;-0.1123;
-11.4000;0.1555;-0.1075;
-11.1000;0.1498;-0.1266;
-10.8000;0.1433;-0.1434;
-10.5000;0.1514;-0.1123;
-10.2000;0.1506;-0.1195;
-9.9000;0.1522;-0.1147;
-9.6000;0.1490;-0.1195;
-9.3000;0.1514;-0.1147;
-9.0000;0.1506;-0.1243;
-8.7000;0.1481;-0.1290;
-8.4000;0.1506;-0.1290;
-8.1000;0.1490;-0.1266;
-7.8000;0.1473;-0.1266;
-7.5000;0.1506;-0.1171;
-7.2000;0.1490;-0.1219;
-6.9000;0.1481;-0.1123;
-6.6000;0.1506;-0.1075;
-6.3000;0.1498;-0.1075;
-6.0000;0.1514;-0.1075;
-5.7000;0.1490;-0.1075;
-5.4000;0.1490;-0.1028;
-5.1000;0.1498;-0.0980;
-4.8000;0.1571;-0.0741;
-4.5000;0.1473;-0.0908;
-4.2000;0.1473;-0.0932;
-3.9000;0.1473;-0.0932;
-3.6000;0.1498;-0.0908;
-3.3000;0.1498;-0.0956;
-3.0000;0.1465;-0.1123;
-2.7000;0.1416;-0.1290;
-2.4000;0.1481;-0.1123;
-2.1000;0.1514;-0.1123;
-1.8000;0.1481;-0.1195;
-1.5000;0.1416;-0.1386;
-1.2000;0.1522;-0.1004;
-0.9000;0.1530;-0.0956;
-0.6000;0.1498;-0.1075;
-0.3000;0.1490;-0.1075;
0.0000;0.1490;-0.1075;
0.3000;0.1433;-0.1123;
0.6000;0.1506;-0.0884;
0.9000;0.1498;-0.0884;
1.2000;0.1498;-0.0836;
1.5000;0.1490;-0.0789;
1.8000;0.1522;-0.0574;
2.1000;0.1490;-0.0550;
2.4000;0.1506;-0.0454;
2.7000;0.1547;-0.0287;
3.0000;0.1538;-0.0239;
3.3000;0.1628;0.0000;
3.6000;0.1457;-0.0406;
3.9000;0.1506;-0.0215;
4.2000;0.1538;-0.0119;
4.5000;0.1522;-0.0167;
4.8000;0.1522;-0.0191;
5.1000;0.1522;-0.0215;
5.4000;0.1547;-0.0191;
5.7000;0.1514;-0.0335;
6.0000;0.1522;-0.0311;
6.3000;0.1530;-0.0167;
6.6000;0.1538;-0.0072;
6.9000;0.1530;0.0000;
7.2000;0.1563;0.0024;
7.5000;0.1506;-0.0072;
7.8000;0.1506;-0.0096;
8.1000;0.1538;-0.0048;
8.4000;0.1547;0.0000;
8.7000;0.1506;-0.0048;
9.0000;0.1547;0.0024;
9.3000;0.1538;-0.0024;
9.6000;0.1595;0.0143;
9.9000;0.1547;-0.0024;
10.2000;0.1538;-0.0072;
10.5000;0.1538;-0.0024;
10.8000;0.1547;0.0048;
11.1000;0.1506;-0.0215;
11.4000;0.1530;-0.0096;
11.7000;0.1538;-0.0096;
12.0000;0.1538;-0.0119;
12.3000;0.1425;-0.0454;
12.6000;0.1514;-0.0239;
12.9000;0.1522;-0.0263;
13.2000;0.1530;-0.0215;
13.5000;0.1538;-0.0072;
13.8000;0.1547;0.0024;
14.1000;0.1587;0.0119;
14.4000;0.1416;-0.0335;
14.7000;0.1522;-0.0048;
15.0000;0.1514;-0.0096;
15.3000;0.1538;-0.0048;
15.6000;0.1530;-0.0048;
15.9000;0.1506;0.0048;
16.2000;0.1530;0.0072;
16.5000;0.1522;0.0024;
16.8000;0.1547;0.0072;
17.1000;0.1457;-0.0096;
17.4000;0.1579;0.0287;
17.7000;0.1530;0.0263;
18.0000;0.1522;0.0119;
18.3000;0.1522;0.0239;
18.6000;0.1514;0.0215;
18.9000;0.1506;0.0119;
19.2000;0.1604;0.0287;
19.5000;0.1530;0.0143;
19.8000;0.1555;0.0287;
20.1000;0.1514;0.0191;
20.4000;0.1498;0.0143;
20.7000;0.1522;0.0167;
21.0000;0.1506;0.0143;
21.3000;0.1587;0.0382;
21.6000;0.1628;0.0406;
21.9000;0.1514;0.0167;
22.2000;0.1522;0.0191;
22.5000;0.1522;0.0239;
22.8000;0.1506;0.0096;
23.1000;0.1514;0.0119;
23.4000;0.1538;0.0239;
23.7000;0.1547;0.0143;
24.0000;0.1514;0.0048;
24.3000;0.1465;-0.0072;
24.6000;0.1514;0.0024;
24.9000;0.1530;0.0024;
25.2000;0.1522;0.0000;
25.5000;0.1530;-0.0048;
25.8000;0.1547;0.0000;
26.1000;0.1538;0.0000;
26.4000;0.1522;-0.0048;
26.7000;0.1530;-0.0072;
27.0000;0.1522;-0.0119;
27.3000;0.1530;-0.0119;
27.6000;0.1538;-0.0072;
27.9000;0.1522;-0.0119;
28.2000;0.1538;-0.0119;
28.5000;0.1538;-0.0119;
28.8000;0.1433;-0.0239;
29.1000;0.1498;0.0048;
29.4000;0.1555;0.0191;
29.7000;0.1547;0.0167;
30.0000;0.1547;0.0191;
30.3000;0.1522;0.0072;
30.6000;0.1547;0.0096;
30.9000;0.1530;0.0072;
31.2000;0.1661;0.0478;
31.5000;0.1538;0.0239;
31.8000;0.1547;0.0215;
32.1000;0.1506;0.0072;
32.4000;0.1506;0.0072;
32.7000;0.1538;0.0096;
33.0000;0.1579;0.0096;
33.3000;0.1433;-0.0287;
33.6000;0.1538;0.0024;
33.9000;0.1530;0.0119;
34.2000;0.1538;0.0191;
34.5000;0.1530;0.0048;
34.8000;0.1514;0.0143;
35.1000;0.1555;0.0263;
35.4000;0.1538;0.0263;
35.7000;0.1522;0.0239;
36.0000;0.1530;0.0263;
36.3000;0.1457;-0.0048;
36.6000;0.1522;0.0072;
36.9000;0.1571;0.0215;
37.2000;0.1481;0.0024;
37.5000;0.1555;0.0239;
37.8000;0.1547;0.0119;
38.1000;0.1530;0.0048;
38.4000;0.1636;0.0263;
38.7000;0.1530;0.0072;
39.0000;0.1547;0.0119;
39.3000;0.1498;-0.0024;
39.6000;0.1538;-0.0024;
39.9000;0.1416;-0.0287;
40.2000;0.1547;-0.0024;
40.5000;0.1538;0.0024;
40.8000;0.1555;0.0072;
41.1000;0.1530;0.0024;
41.4000;0.1612;0.0119;
41.7000;0.1530;0.0024;
42.0000;0.1547;0.0143;
42.3000;0.1547;0.0024;
42.6000;0.1530;0.0000;
42.9000;0.1547;-0.0024;
43.2000;0.1514;0.0000;
43.5000;0.1522;0.0096;
43.8000;0.1547;0.0119;
44.1000;0.1538;0.0143;
44.4000;0.1538;0.0167;
44.7000;0.1514;0.0048;
45.0000;0.1522;0.0024;
45.3000;0.1547;0.0096;
45.6000;0.1530;0.0119;
45.9000;0.1555;0.0263;
46.2000;0.1538;0.0191;
46.5000;0.1522;0.0072;
46.8000;0.1522;0.0000;
47.1000;0.1530;0.0048;
47.4000;0.1522;0.0072;
47.7000;0.1579;0.0287;
48.0000;0.1555;0.0167;
48.3000;0.1514;0.0000;
48.6000;0.1547;0.0048;
48.9000;0.1547;0.0048;
49.2000;0.1547;0.0024;
49.5000;0.1547;0.0000;
49.8000;0.1506;-0.0191;
50.1000;0.1522;-0.0072;
50.4000;0.1530;-0.0119;
50.7000;0.1538;-0.0143;
51.0000;0.1538;-0.0072;
51.3000;0.1506;-0.0096;
51.6000;0.1538;0.0000;
51.9000;0.1547;0.0024;
52.2000;0.1538;0.0096;
52.5000;0.1530;0.0191;
52.8000;0.1547;0.0215;
53.1000;0.1547;0.0263;
53.4000;0.1547;0.0311;
53.7000;0.1604;0.0574;
54.0000;0.1522;0.0358;
54.3000;0.1514;0.0311;
54.6000;0.1514;0.0311;
54.9000;0.1538;0.0215;
55.2000;0.1563;0.0263;
55.5000;0.1538;0.0215;
55.8000;0.1530;0.0191;
56.1000;0.1555;0.0191;
56.4000;0.1490;0.0143;
56.7000;0.1530;0.0215;
57.0000;0.1530;0.0239;
57.3000;0.1547;0.0358;
57.6000;0.1514;0.0382;
57.9000;0.1522;0.0358;
58.2000;0.1547;0.0311;
58.5000;0.1547;0.0215;
58.8000;0.1538;0.0263;
59.1000;0.1530;0.0215;
59.4000;0.1530;0.0143;
59.7000;0.1481;-0.0048;
60.0000;0.1522;0.0048;
60.3000;0.1498;-0.0072;
60.6000;0.1514;0.0096;
60.9000;0.1587;0.0215;
61.2000;0.1604;0.0215;
61.5000;0.1522;0.0048;
61.8000;0.1522;0.0215;
62.1000;0.1538;0.0167;
62.4000;0.1538;0.0119;
62.7000;0.1530;0.0119;
63.0000;0.1530;0.0048;
63.3000;0.1522;0.0072;
63.6000;0.1514;-0.0024;
63.9000;0.1530;-0.0024;
64.2000;0.1522;0.0024;
64.5000;0.1547;0.0072;
64.8000;0.1514;0.0096;
65.1000;0.1530;0.0239;
65.4000;0.1506;0.0143;
65.7000;0.1514;0.0143;
66.0000;0.1530;0.0191;
66.3000;0.1498;0.0119;
66.6000;0.1506;0.0191;
66.9000;0.1530;0.0215;
67.2000;0.1538;0.0215;
67.5000;0.1506;0.0072;
67.8000;0.1530;0.0143;
68.1000;0.1522;0.0215;
68.4000;0.1522;0.0215;
68.7000;0.1538;0.0263;
69.0000;0.1530;0.0287;
69.3000;0.1530;0.0311;
69.6000;0.1514;0.0335;
69.9000;0.1547;0.0454;
70.2000;0.1538;0.0406;
70.5000;0.1498;0.0311;
70.8000;0.1555;0.0382;
71.1000;0.1530;0.0311;
71.4000;0.1522;0.0311;
71.7000;0.1530;0.0215;
72.0000;0.1522;0.0167;
72.3000;0.1498;0.0048;
72.6000;0.1514;0.0048;
72.9000;0.1530;0.0048;
73.2000;0.1522;0.0048;
73.5000;0.1530;0.0143;
73.8000;0.1530;0.0143;
74.1000;0.1530;0.0191;
74.4000;0.1530;0.0143;
74.7000;0.1514;0.0072;
75.0000;0.1530;0.0215;
75.3000;0.1522;0.0239;
75.6000;0.1506;0.0143;
75.9000;0.1522;0.0119;
76.2000;0.1522;0.0048;
76.5000;0.1522;0.0048;
76.8000;0.1595;0.0239;
77.1000;0.1506;0.0048;
77.4000;0.1538;0.0143;
77.7000;0.1490;0.0119;
78.0000;0.1530;0.0167;
78.3000;0.1506;0.0024;
78.6000;0.1506;0.0000;
78.9000;0.1530;0.0072;
79.2000;0.1530;0.0048;
79.5000;0.1530;0.0119;
79.8000;0.1506;0.0024;
80.1000;0.1530;0.0048;
80.4000;0.1514;0.0000;
80.7000;0.1563;0.0072;
81.0000;0.1522;0.0072;
81.3000;0.1481;0.0000;
81.6000;0.1555;0.0143;
81.9000;0.1571;0.0143;
82.2000;0.1563;0.0143;
82.5000;0.1522;0.0096;
82.8000;0.1538;0.0048;
83.1000;0.1538;0.0048;
83.4000;0.1530;0.0000;
83.7000;0.1498;0.0048;
84.0000;0.1530;0.0119;
84.3000;0.1449;-0.0072;
84.6000;0.1563;0.0215;
84.9000;0.1522;0.0167;
85.2000;0.1579;0.0311;
85.5000;0.1530;0.0191;
85.8000;0.1506;0.0096;
86.1000;0.1530;0.0143;
86.4000;0.1522;0.0167;
86.7000;0.1547;0.0215;
87.0000;0.1538;0.0167;
87.3000;0.1677;0.0526;
87.6000;0.1587;0.0287;
87.9000;0.1522;0.0119;
88.2000;0.1538;0.0143;
88.5000;0.1506;-0.0024;
88.8000;0.1522;0.0024;
89.1000;0.1514;0.0119;
89.4000;0.1555;0.0143;
89.7000;0.1530;0.0072;
90.0000;0.1465;-0.0024;
90.3000;0.1506;0.0096;
90.6000;0.1644;0.0454;
90.9000;0.1530;0.0167;
91.2000;0.1538;0.0143;
91.5000;0.1514;0.0024;
91.8000;0.1522;0.0143;
92.1000;0.1547;0.0287;
92.4000;0.1457;-0.0024;
92.7000;0.1441;-0.0215;
93.0000;0.1530;-0.0024;
93.3000;0.1473;-0.0167;
93.6000;0.1506;-0.0119;
93.9000;0.1522;-0.0119;
94.2000;0.1538;-0.0024;
94.5000;0.1587;0.0143;
94.8000;0.1522;0.0024;
95.1000;0.1538;0.0119;
95.4000;0.1473;0.0024;
95.7000;0.1595;0.0430;
96.0000;0.1530;0.0358;
96.3000;0.1498;0.0239;
96.6000;0.1530;0.0287;
96.9000;0.1547;0.0311;
97.2000;0.1514;0.0191;
97.5000;0.1522;0.0215;
97.8000;0.1538;0.0263;
98.1000;0.1522;0.0335;
98.4000;0.1538;0.0358;
98.7000;0.1612;0.0526;
99.0000;0.1498;0.0215;
99.3000;0.1506;0.0239;
99.6000;0.1538;0.0335;
99.9000;0.1530;0.0215;
100.2000;0.1530;0.0239;
100.5000;0.1514;0.0167;
100.8000;0.1538;0.0239;
101.1000;0.1522;0.0215;
101.4000;0.1547;0.0215;
101.7000;0.1514;0.0191;
102.0000;0.1530;0.0263;
102.3000;0.1514;0.0239;
102.6000;0.1514;0.0239;
102.9000;0.1530;0.0263;
103.2000;0.1595;0.0454;
103.5000;0.1522;0.0215;
103.8000;0.1522;0.0239;
104.1000;0.1514;0.0167;
104.4000;0.1555;0.0191;
104.7000;0.1555;0.0191;
105.0000;0.1538;0.0143;
105.3000;0.1490;0.0024;
105.6000;0.1530;0.0167;
105.9000;0.1530;0.0096;
106.2000;0.1612;0.0191;
106.5000;0.1604;0.0191;
106.8000;0.1636;0.0263;
107.1000;0.1547;0.0096;
107.4000;0.1555;0.0048;
107.7000;0.1538;0.0000;
108.0000;0.1538;0.0048;
108.3000;0.1555;0.0048;
108.6000;0.1506;-0.0048;
108.9000;0.1538;0.0096;
109.2000;0.1465;-0.0072;
109.5000;0.1441;-0.0191;
109.8000;0.1555;0.0072;
110.1000;0.1538;0.0143;
110.4000;0.1425;-0.0167;
110.7000;0.1400;-0.0191;
111.0000;0.1522;0.0119;
111.3000;0.1538;0.0239;
111.6000;0.1522;0.0263;
111.9000;0.1522;0.0191;
112.2000;0.1506;0.0072;
112.5000;0.1571;0.0287;
112.8000;0.1530;0.0239;
113.1000;0.1514;0.0215;
113.4000;0.1522;0.0215;
113.7000;0.1547;0.0287;
114.0000;0.1522;0.0096;
114.3000;0.1490;-0.0024;
114.6000;0.1522;0.0000;
114.9000;0.1522;0.0024;
115.2000;0.1555;0.0072;
115.5000;0.1498;0.0024;
115.8000;0.1506;0.0000;
116.1000;0.1514;-0.0024;
116.4000;0.1457;-0.0072;
116.7000;0.1555;0.0287;
117.0000;0.1538;0.0239;
117.3000;0.1563;0.0358;
117.6000;0.1522;0.0191;
117.9000;0.1538;0.0311;
118.2000;0.1514;0.0263;
118.5000;0.1473;0.0072;
118.8000;0.1522;0.0167;
119.1000;0.1538;0.0191;
119.4000;0.1563;0.0263;
119.7000;0.1490;0.0096;
120.0000;0.1530;0.0119;
120.3000;0.1514;0.0072;
120.6000;0.1538;0.0072;
120.9000;0.1522;0.0024;
121.2000;0.1498;-0.0048;
121.5000;0.1538;0.0119;
121.8000;0.1530;0.0119;
122.1000;0.1547;0.0215;
122.4000;0.1522;0.0143;
122.7000;0.1530;0.0167;
123.0000;0.1530;0.0143;
123.3000;0.1514;0.0048;
123.6000;0.1530;0.0072;
123.9000;0.1538;0.0072;
124.2000;0.1538;0.0119;
124.5000;0.1522;0.0048;
124.8000;0.1530;0.0096;
125.1000;0.1530;0.0191;
125.4000;0.1490;0.0096;
125.7000;0.1547;0.0311;
126.0000;0.1514;0.0191;
126.3000;0.1506;0.0167;
126.6000;0.1530;0.0215;
126.9000;0.1530;0.0215;
127.2000;0.1530;0.0191;
127.5000;0.1522;0.0167;
127.8000;0.1571;0.0311;
128.1000;0.1579;0.0382;
128.4000;0.1538;0.0167;
128.7000;0.1522;0.0072;
129.0000;0.1555;0.0143;
129.3000;0.1538;0.0143;
129.6000;0.1644;0.0382;
129.9000;0.1441;-0.0143;
130.2000;0.1473;-0.0072;
130.5000;0.1433;-0.0191;
130.8000;0.1522;0.0167;
131.1000;0.1522;0.0191;
131.4000;0.1538;0.0167;
131.7000;0.1441;-0.0143;
132.0000;0.1522;0.0072;
132.3000;0.1530;0.0191;
132.6000;0.1530;0.0167;
132.9000;0.1522;0.0167;
133.2000;0.1538;0.0263;
133.5000;0.1530;0.0239;
133.8000;0.1530;0.0263;
134.1000;0.1522;0.0167;
134.4000;0.1530;0.0191;
134.7000;0.1530;0.0143;
135.0000;0.1522;0.0072;
135.3000;0.1612;0.0287;
135.6000;0.1563;0.0167;
135.9000;0.1579;0.0287;
136.2000;0.1538;0.0167;
136.5000;0.1547;0.0263;
136.8000;0.1530;0.0311;
137.1000;0.1547;0.0287;
137.4000;0.1522;0.0287;
137.7000;0.1547;0.0335;
138.0000;0.1538;0.0287;
138.3000;0.1530;0.0287;
138.6000;0.1547;0.0358;
138.9000;0.1530;0.0311;
139.2000;0.1547;0.0382;
139.5000;0.1538;0.0287;
139.8000;0.1530;0.0263;
140.1000;0.1538;0.0239;
140.4000;0.1522;0.0263;
140.7000;0.1522;0.0167;
141.0000;0.1547;0.0119;
141.3000;0.1538;0.0096;
141.6000;0.1506;0.0096;
141.9000;0.1522;0.0191;
142.2000;0.1514;0.0119;
142.5000;0.1530;0.0215;
142.8000;0.1506;0.0191;
143.1000;0.1506;0.0119;
143.4000;0.1530;0.0167;
143.7000;0.1498;0.0048;
144.0000;0.1555;0.0143;
144.3000;0.1506;0.0000;
144.6000;0.1538;0.0096;
144.9000;0.1522;0.0024;
145.2000;0.1530;-0.0024;
145.5000;0.1555;0.0048;
145.8000;0.1563;0.0024;
146.1000;0.1538;-0.0072;
146.4000;0.1538;-0.0119;
146.7000;0.1473;-0.0311;
147.0000;0.1522;-0.0096;
147.3000;0.1555;-0.0072;
147.6000;0.1522;-0.0167;
147.9000;0.1530;-0.0143;
148.2000;0.1514;-0.0072;
148.5000;0.1530;0.0000;
148.8000;0.1490;-0.0119;
149.1000;0.1579;0.0215;
149.4000;0.1506;-0.0024;
149.7000;0.1538;0.0096;
150.0000;0.1530;0.0000;
150.3000;0.1506;-0.0096;
150.6000;0.1514;0.0000;
150.9000;0.1547;0.0000;
151.2000;0.1693;0.0478;
151.5000;0.1538;0.0024;
151.8000;0.1579;0.0167;
152.1000;0.1538;0.0024;
152.4000;0.1530;-0.0024;
152.7000;0.1547;-0.0024;
153.0000;0.1522;-0.0048;
153.3000;0.1636;0.0287;
153.6000;0.1498;-0.0072;
153.9000;0.1522;-0.0048;
154.2000;0.1563;0.0119;
154.5000;0.1473;-0.0167;
154.8000;0.1530;-0.0096;
155.1000;0.1530;-0.0143;
155.4000;0.1555;-0.0072;
155.7000;0.1563;0.0072;
156.0000;0.1538;0.0024;
156.3000;0.1571;0.0143;
156.6000;0.1498;-0.0048;
156.9000;0.1612;0.0263;
157.2000;0.1563;0.0215;
157.5000;0.1530;0.0072;
157.8000;0.1579;0.0239;
158.1000;0.1530;0.0143;
158.4000;0.1522;0.0143;
158.7000;0.1530;0.0143;
159.0000;0.1538;0.0119;
159.3000;0.1530;0.0096;
159.6000;0.1530;0.0072;
159.9000;0.1538;0.0048;
160.2000;0.1506;-0.0048;
160.5000;0.1547;0.0048;
160.8000;0.1514;-0.0143;
161.1000;0.1538;-0.0048;
161.4000;0.1522;0.0000;
161.7000;0.1538;0.0119;
162.0000;0.1514;0.0143;
162.3000;0.1538;0.0072;
162.6000;0.1547;0.0048;
162.9000;0.1538;0.0072;
163.2000;0.1522;0.0024;
163.5000;0.1514;0.0024;
163.8000;0.1530;0.0048;
164.1000;0.1522;0.0048;
164.4000;0.1498;0.0000;
164.7000;0.1530;0.0072;
165.0000;0.1555;0.0119;
165.3000;0.1506;0.0096;
165.6000;0.1530;0.0143;
165.9000;0.1547;0.0119;
166.2000;0.1506;-0.0048;
166.5000;0.1514;-0.0096;
166.8000;0.1522;-0.0215;
167.1000;0.1522;-0.0167;
167.4000;0.1538;-0.0167;
167.7000;0.1547;-0.0096;
168.0000;0.1522;-0.0119;
168.3000;0.1538;-0.0048;
168.6000;0.1465;-0.0167;
168.9000;0.1514;0.0000;
169.2000;0.1522;0.0048;
169.5000;0.1530;0.0072;
169.8000;0.1514;0.0072;
170.1000;0.1506;0.0024;
170.4000;0.1530;0.0072;
170.7000;0.1547;0.0143;
171.0000;0.1530;0.0048;
171.3000;0.1538;0.0096;
171.6000;0.1514;0.0119;
171.9000;0.1538;0.0191;
172.2000;0.1514;0.0167;
172.5000;0.1514;0.0167;
172.8000;0.1490;0.0072;
173.1000;0.1538;0.0143;
173.4000;0.1530;0.0191;
173.7000;0.1506;0.0072;
174.0000;0.1522;-0.0024;
174.3000;0.1538;0.0119;
174.6000;0.1506;0.0024;
174.9000;0.1530;0.0096;
175.2000;0.1547;0.0096;
175.5000;0.1538;0.0024;
175.8000;0.1538;0.0048;
176.1000;0.1530;0.0000;
176.4000;0.1522;0.0024;
176.7000;0.1538;0.0000;
177.0000;0.1547;0.0096;
177.3000;0.1652;0.0239;
177.6000;0.1522;-0.0096;
177.9000;0.1522;-0.0167;
178.2000;0.1620;0.0048;
178.5000;0.1514;-0.0143;
178.8000;0.1530;-0.0119;
179.1000;0.1514;-0.0191;
179.4000;0.1522;-0.0215;
179.7000;0.1506;-0.0239;
180.0000;0.1538;-0.0119;
180.3000;0.1506;-0.0143;
180.6000;0.1514;-0.0072;
180.9000;0.1514;-0.0024;
181.2000;0.1449;-0.0143;
181.5000;0.1514;-0.0024;
181.8000;0.1514;0.0000;
182.1000;0.1522;-0.0024;
182.4000;0.1547;0.0072;
182.7000;0.1547;0.0024;
183.0000;0.1547;0.0072;
183.3000;0.1490;-0.0143;
183.6000;0.1547;0.0048;
183.9000;0.1522;0.0024;
184.2000;0.1522;0.0096;
184.5000;0.1555;0.0119;
184.8000;0.1514;-0.0024;
185.1000;0.1530;-0.0048;
185.4000;0.1514;0.0000;
185.7000;0.1457;-0.0143;
186.0000;0.1522;0.0143;
186.3000;0.1522;0.0167;
186.6000;0.1498;0.0024;
186.9000;0.1514;0.0072;
187.2000;0.1465;-0.0096;
187.5000;0.1530;0.0143;
187.8000;0.1514;0.0167;
188.1000;0.1522;0.0215;
188.4000;0.1538;0.0191;
188.7000;0.1530;0.0072;
189.0000;0.1522;0.0048;
189.3000;0.1530;0.0072;
189.6000;0.1514;0.0072;
189.9000;0.1530;0.0048;
190.2000;0.1522;0.0096;
190.5000;0.1506;0.0096;
190.8000;0.1506;-0.0024;
191.1000;0.1547;0.0024;
191.4000;0.1522;-0.0048;
191.7000;0.1522;-0.0119;
192.0000;0.1628;0.0191;
192.3000;0.1514;-0.0191;
192.6000;0.1514;-0.0167;
192.9000;0.1530;-0.0096;
193.2000;0.1522;-0.0119;
193.5000;0.1522;-0.0143;
193.8000;0.1555;-0.0072;
194.1000;0.1530;-0.0239;
194.4000;0.1449;-0.0454;
194.7000;0.1522;-0.0287;
195.0000;0.1473;-0.0382;
195.3000;0.1514;-0.0263;
195.6000;0.1538;-0.0143;
195.9000;0.1514;-0.0167;
196.2000;0.1530;-0.0143;
196.5000;0.1530;-0.0191;
196.8000;0.1530;-0.0119;
197.1000;0.1441;-0.0358;
197.4000;0.1530;-0.0096;
197.7000;0.1522;-0.0096;
198.0000;0.1522;-0.0048;
198.3000;0.1514;-0.0072;
198.6000;0.1530;-0.0096;
198.9000;0.1538;-0.0072;
199.2000;0.1547;-0.0048;
199.5000;0.1530;-0.0072;
199.8000;0.1433;-0.0311;
200.1000;0.1530;-0.0024;
200.4000;0.1547;0.0000;
200.7000;0.1514;-0.0119;
201.0000;0.1522;-0.0024;
201.3000;0.1538;-0.0048;
201.6000;0.1441;-0.0358;
201.9000;0.1530;-0.0096;
202.2000;0.1522;-0.0096;
202.5000;0.1530;-0.0048;
202.8000;0.1538;-0.0143;
203.1000;0.1555;-0.0048;
203.4000;0.1538;-0.0096;
203.7000;0.1473;-0.0287;
204.0000;0.1547;-0.0143;
204.3000;0.1530;-0.0311;
204.6000;0.1555;-0.0215;
204.9000;0.1530;-0.0167;
205.2000;0.1530;-0.0191;
205.5000;0.1555;-0.0263;
205.8000;0.1522;-0.0406;
206.1000;0.1514;-0.0358;
206.4000;0.1514;-0.0430;
206.7000;0.1530;-0.0382;
207.0000;0.1514;-0.0406;
207.3000;0.1506;-0.0502;
207.6000;0.1522;-0.0454;
207.9000;0.1514;-0.0406;
208.2000;0.1530;-0.0406;
208.5000;0.1530;-0.0478;
208.8000;0.1522;-0.0478;
209.1000;0.1522;-0.0478;
209.4000;0.1522;-0.0454;
209.7000;0.1571;-0.0358;
210.0000;0.1514;-0.0406;
210.3000;0.1538;-0.0263;
210.6000;0.1530;-0.0239;
210.9000;0.1522;-0.0191;
211.2000;0.1555;-0.0119;
211.5000;0.1514;-0.0215;
211.8000;0.1530;-0.0119;
212.1000;0.1530;-0.0215;
212.4000;0.1506;-0.0263;
212.7000;0.1506;-0.0287;
213.0000;0.1522;-0.0215;
213.3000;0.1522;-0.0215;
213.6000;0.1514;-0.0239;
213.9000;0.1530;-0.0239;
214.2000;0.1514;-0.0263;
214.5000;0.1538;-0.0191;
214.8000;0.1538;-0.0215;
215.1000;0.1514;-0.0191;
215.4000;0.1506;-0.0143;
215.7000;0.1547;-0.0048;
216.0000;0.1530;0.0024;
216.3000;0.1481;-0.0096;
216.6000;0.1506;0.0000;
216.9000;0.1530;0.0072;
217.2000;0.1530;0.0048;
217.5000;0.1490;-0.0072;
217.8000;0.1652;0.0358;
218.1000;0.1514;-0.0096;
218.4000;0.1490;-0.0167;
218.7000;0.1506;-0.0119;
219.0000;0.1530;-0.0143;
219.3000;0.1441;-0.0478;
219.6000;0.1530;-0.0191;
219.9000;0.1522;-0.0239;
220.2000;0.1620;0.0072;
220.5000;0.1457;-0.0311;
220.8000;0.1530;-0.0167;
221.1000;0.1490;-0.0263;
221.4000;0.1514;-0.0215;
221.7000;0.1538;-0.0072;
222.0000;0.1530;-0.0072;
222.3000;0.1465;-0.0191;
222.6000;0.1547;-0.0048;
222.9000;0.1530;-0.0167;
223.2000;0.1538;-0.0119;
223.5000;0.1514;-0.0287;
223.8000;0.1530;-0.0167;
224.1000;0.1457;-0.0358;
224.4000;0.1425;-0.0550;
224.7000;0.1555;-0.0215;
225.0000;0.1522;-0.0239;
225.3000;0.1530;-0.0191;
225.6000;0.1563;-0.0048;
225.9000;0.1530;-0.0143;
226.2000;0.1514;-0.0191;
226.5000;0.1571;-0.0096;
226.8000;0.1425;-0.0478;
227.1000;0.1530;-0.0191;
227.4000;0.1522;-0.0191;
227.7000;0.1514;-0.0167;
228.0000;0.1530;-0.0167;
228.3000;0.1506;-0.0143;
228.6000;0.1522;-0.0096;
228.9000;0.1522;-0.0191;
229.2000;0.1457;-0.0382;
229.5000;0.1522;-0.0263;
229.8000;0.1522;-0.0239;
230.1000;0.1498;-0.0287;
230.4000;0.1530;-0.0263;
230.7000;0.1498;-0.0382;
231.0000;0.1457;-0.0502;
231.3000;0.1522;-0.0287;
231.6000;0.1538;-0.0215;
231.9000;0.1514;-0.0311;
232.2000;0.1522;-0.0358;
232.5000;0.1538;-0.0311;
232.8000;0.1514;-0.0263;
233.1000;0.1514;-0.0287;
233.4000;0.1506;-0.0358;
233.7000;0.1490;-0.0406;
234.0000;0.1522;-0.0335;
234.3000;0.1522;-0.0311;
234.6000;0.1538;-0.0239;
234.9000;0.1514;-0.0335;
235.2000;0.1547;-0.0239;
235.5000;0.1547;-0.0191;
235.8000;0.1481;-0.0287;
236.1000;0.1538;-0.0239;
236.4000;0.1538;-0.0215;
236.7000;0.1547;-0.0239;
237.0000;0.1530;-0.0167;
237.3000;0.1530;-0.0167;
237.6000;0.1522;-0.0167;
237.9000;0.1506;-0.0096;
238.2000;0.1522;-0.0024;
238.5000;0.1514;0.0000;
238.8000;0.1506;-0.0024;
239.1000;0.1522;0.0024;
239.4000;0.1514;-0.0072;
239.7000;0.1530;-0.0215;
240.0000;0.1530;-0.0215;
240.3000;0.1530;-0.0215;
240.6000;0.1498;-0.0382;
240.9000;0.1555;-0.0335;
241.2000;0.1522;-0.0358;
241.5000;0.1506;-0.0430;
241.8000;0.1587;-0.0287;
242.1000;0.1514;-0.0382;
242.4000;0.1514;-0.0335;
242.7000;0.1547;-0.0311;
243.0000;0.1547;-0.0335;
243.3000;0.1555;-0.0239;
243.6000;0.1579;-0.0239;
243.9000;0.1522;-0.0382;
244.2000;0.1490;-0.0406;
244.5000;0.1522;-0.0191;
244.8000;0.1547;-0.0096;
245.1000;0.1563;0.0000;
245.4000;0.1522;-0.0072;
245.7000;0.1522;-0.0072;
246.0000;0.1506;-0.0167;
246.3000;0.1571;0.0000;
246.6000;0.1522;-0.0143;
246.9000;0.1457;-0.0358;
247.2000;0.1555;-0.0119;
247.5000;0.1538;-0.0143;
247.8000;0.1522;-0.0143;
248.1000;0.1579;0.0024;
248.4000;0.1555;0.0000;
248.7000;0.1538;-0.0143;
249.0000;0.1547;-0.0167;
249.3000;0.1547;-0.0167;
249.6000;0.1514;-0.0239;
249.9000;0.1522;-0.0239;
250.2000;0.1538;-0.0143;
250.5000;0.1498;-0.0191;
250.8000;0.1514;-0.0143;
251.1000;0.1522;-0.0143;
251.4000;0.1555;0.0000;
251.7000;0.1514;-0.0048;
252.0000;0.1506;-0.0096;
252.3000;0.1547;0.0024;
252.6000;0.1506;-0.0167;
252.9000;0.1579;0.0048;
253.2000;0.1547;-0.0024;
253.5000;0.1514;-0.0143;
253.8000;0.1555;-0.0096;
254.1000;0.1498;-0.0239;
254.4000;0.1547;-0.0048;
254.7000;0.1547;-0.0048;
255.0000;0.1563;0.0000;
255.3000;0.1506;-0.0119;
255.6000;0.1530;0.0048;
255.9000;0.1530;0.0072;
256.2000;0.1506;-0.0048;
256.5000;0.1392;-0.0335;
256.8000;0.1498;-0.0239;
257.1000;0.1538;-0.0143;
257.4000;0.1514;-0.0096;
257.7000;0.1530;-0.0048;
258.0000;0.1547;-0.0048;
258.3000;0.1538;-0.0096;
258.6000;0.1538;-0.0119;
258.9000;0.1538;-0.0096;
259.2000;0.1563;0.0024;
259.5000;0.1530;-0.0072;
259.8000;0.1530;-0.0096;
260.1000;0.1563;0.0048;
260.4000;0.1522;-0.0024;
260.7000;0.1522;-0.0072;
261.0000;0.1514;-0.0096;
261.3000;0.1547;0.0000;
261.6000;0.1506;-0.0143;
261.9000;0.1538;-0.0143;
262.2000;0.1530;-0.0167;
262.5000;0.1506;-0.0335;
262.8000;0.1506;-0.0382;
263.1000;0.1514;-0.0358;
263.4000;0.1522;-0.0335;
263.7000;0.1522;-0.0382;
264.0000;0.1530;-0.0287;
264.3000;0.1522;-0.0311;
264.6000;0.1530;-0.0335;
264.9000;0.1522;-0.0239;
265.2000;0.1547;-0.0119;
265.5000;0.1481;-0.0311;
265.8000;0.1481;-0.0239;
266.1000;0.1555;-0.0096;
266.4000;0.1530;-0.0191;
266.7000;0.1490;-0.0287;
267.0000;0.1522;-0.0263;
267.3000;0.1441;-0.0382;
267.6000;0.1538;-0.0119;
267.9000;0.1522;-0.0191;
268.2000;0.1522;-0.0143;
268.5000;0.1538;-0.0119;
268.8000;0.1514;-0.0215;
269.1000;0.1530;-0.0215;
269.4000;0.1506;-0.0287;
269.7000;0.1514;-0.0358;
270.0000;0.1547;-0.0335;
270.3000;0.1620;-0.0191;
270.6000;0.1555;-0.0358;
270.9000;0.1522;-0.0406;
271.2000;0.1538;-0.0335;
271.5000;0.1530;-0.0311;
271.8000;0.1506;-0.0263;
272.1000;0.1506;-0.0191;
272.4000;0.1555;-0.0024;
272.7000;0.1522;-0.0143;
273.0000;0.1530;-0.0167;
273.3000;0.1530;-0.0191;
273.6000;0.1530;-0.0239;
273.9000;0.1522;-0.0191;
274.2000;0.1522;-0.0191;
274.5000;0.1522;-0.0119;
274.8000;0.1506;-0.0096;
275.1000;0.1522;-0.0048;
275.4000;0.1514;-0.0024;
275.7000;0.1530;0.0000;
276.0000;0.1514;-0.0143;
276.3000;0.1506;-0.0263;
276.6000;0.1522;-0.0215;
276.9000;0.1522;-0.0263;
277.2000;0.1465;-0.0406;
277.5000;0.1522;-0.0143;
277.8000;0.1506;-0.0167;
278.1000;0.1498;-0.0191;
278.4000;0.1514;-0.0119;
278.7000;0.1538;0.0000;
279.0000;0.1530;-0.0048;
279.3000;0.1522;-0.0143;
279.6000;0.1514;-0.0191;
279.9000;0.1498;-0.0191;
280.2000;0.1465;-0.0287;
280.5000;0.1530;-0.0143;
280.8000;0.1530;-0.0143;
281.1000;0.1514;-0.0167;
281.4000;0.1522;-0.0096;
281.7000;0.1530;-0.0119;
282.0000;0.1530;-0.0191;
282.3000;0.1490;-0.0191;
282.6000;0.1579;-0.0048;
282.9000;0.1547;-0.0072;
283.2000;0.1530;-0.0119;
283.5000;0.1506;-0.0191;
283.8000;0.1530;-0.0096;
284.1000;0.1490;-0.0215;
284.4000;0.1498;-0.0167;
284.7000;0.1571;-0.0048;
285.0000;0.1522;-0.0096;
285.3000;0.1563;-0.0048;
285.6000;0.1571;-0.0048;
285.9000;0.1547;-0.0096;
286.2000;0.1522;-0.0096;
286.5000;0.1481;-0.0119;
286.8000;0.1587;0.0119;
287.1000;0.1514;-0.0072;
287.4000;0.1514;-0.0048;
287.7000;0.1530;-0.0024;
288.0000;0.1538;-0.0119;
288.3000;0.1555;-0.0143;
288.6000;0.1514;-0.0311;
288.9000;0.1530;-0.0287;
289.2000;0.1514;-0.0215;
289.5000;0.1465;-0.0358;
289.8000;0.1547;-0.0072;
290.1000;0.1506;-0.0167;
290.4000;0.1530;-0.0119;
290.7000;0.1547;-0.0167;
291.0000;0.1498;-0.0263;
291.3000;0.1604;-0.0024;
291.6000;0.1547;-0.0119;
291.9000;0.1514;-0.0191;
292.2000;0.1530;-0.0191;
292.5000;0.1522;-0.0167;
292.8000;0.1514;-0.0191;
293.1000;0.1522;-0.0215;
293.4000;0.1530;-0.0215;
293.7000;0.1522;-0.0215;
294.0000;0.1530;-0.0191;
294.3000;0.1530;-0.0143;
294.6000;0.1530;-0.0143;
294.9000;0.1538;-0.0119;
295.2000;0.1490;-0.0167;
295.5000;0.1514;-0.0143;
295.8000;0.1538;-0.0024;
296.1000;0.1522;-0.0048;
296.4000;0.1547;-0.0024;
296.7000;0.1538;-0.0024;
297.0000;0.1530;-0.0072;
297.3000;0.1571;0.0024;
297.6000;0.1538;0.0000;
297.9000;0.1538;0.0024;
298.2000;0.1538;0.0000;
298.5000;0.1538;0.0096;
298.8000;0.1538;0.0096;
299.1000;0.1506;-0.0119;
299.4000;0.1514;0.0024;
299.7000;0.1530;0.0119;
300.0000;0.1522;0.0143;
300.3000;0.1506;0.0096;
300.6000;0.1530;0.0143;
300.9000;0.1514;0.0096;
301.2000;0.1538;0.0072;
301.5000;0.1522;0.0072;
301.8000;0.1522;-0.0024;
302.1000;0.1547;0.0048;
302.4000;0.1530;0.0048;
302.7000;0.1530;0.0024;
303.0000;0.1571;0.0119;
303.3000;0.1538;0.0048;
303.6000;0.1547;0.0096;
303.9000;0.1547;0.0096;
304.2000;0.1522;-0.0024;
304.5000;0.1490;0.0000;
304.8000;0.1522;0.0000;
305.1000;0.1506;-0.0048;
305.4000;0.1547;0.0024;
305.7000;0.1514;0.0048;
306.0000;0.1595;0.0287;
306.3000;0.1498;0.0072;
306.6000;0.1538;0.0191;
306.9000;0.1490;0.0072;
307.2000;0.1538;0.0119;
307.5000;0.1522;0.0119;
307.8000;0.1530;0.0191;
308.1000;0.1530;0.0072;
308.4000;0.1547;0.0072;
308.7000;0.1538;0.0000;
309.0000;0.1514;-0.0024;
309.3000;0.1620;0.0263;
309.6000;0.1490;-0.0143;
309.9000;0.1530;-0.0072;
310.2000;0.1506;-0.0167;
310.5000;0.1490;-0.0167;
310.8000;0.1522;-0.0143;
311.1000;0.1498;-0.0191;
311.4000;0.1514;-0.0072;
311.7000;0.1490;-0.0048;
312.0000;0.1547;0.0072;
312.3000;0.1506;0.0072;
312.6000;0.1547;0.0191;
312.9000;0.1514;0.0119;
313.2000;0.1530;0.0167;
313.5000;0.1490;0.0119;
313.8000;0.1579;0.0358;
314.1000;0.1555;0.0335;
314.4000;0.1514;0.0167;
314.7000;0.1490;0.0143;
315.0000;0.1498;0.0096;
315.3000;0.1620;0.0382;
315.6000;0.1522;0.0143;
315.9000;0.1498;0.0096;
316.2000;0.1522;0.0239;
316.5000;0.1538;0.0215;
316.8000;0.1530;0.0191;
317.1000;0.1636;0.0406;
317.4000;0.1563;0.0335;
317.7000;0.1547;0.0263;
318.0000;0.1530;0.0143;
318.3000;0.1359;-0.0335;
318.6000;0.1506;0.0024;
318.9000;0.1530;0.0072;
319.2000;0.1547;0.0167;
319.5000;0.1538;0.0096;
319.8000;0.1490;0.0000;
320.1000;0.1522;0.0096;
320.4000;0.1522;0.0072;
320.7000;0.1547;0.0143;
321.0000;0.1530;0.0072;
321.3000;0.1579;0.0215;
321.6000;0.1514;0.0072;
321.9000;0.1506;0.0096;
322.2000;0.1514;0.0215;
322.5000;0.1514;0.0287;
322.8000;0.1506;0.0335;
323.1000;0.1522;0.0263;
323.4000;0.1604;0.0478;
323.7000;0.1538;0.0287;
324.0000;0.1538;0.0311;
324.3000;0.1547;0.0335;
324.6000;0.1522;0.0263;
324.9000;0.1538;0.0263;
325.2000;0.1514;0.0215;
325.5000;0.1547;0.0335;
325.8000;0.1408;-0.0024;
326.1000;0.1514;0.0239;
326.4000;0.1530;0.0239;
326.7000;0.1522;0.0191;
327.0000;0.1547;0.0287;
327.3000;0.1514;0.0215;
327.6000;0.1587;0.0263;
327.9000;0.1547;0.0143;
328.2000;0.1538;0.0167;
328.5000;0.1530;0.0048;
328.8000;0.1530;0.0024;
329.1000;0.1555;0.0048;
329.4000;0.1555;0.0096;
329.7000;0.1522;0.0048;
330.0000;0.1522;0.0215;
330.3000;0.1530;0.0215;
330.6000;0.1530;0.0191;
330.9000;0.1530;0.0143;
331.2000;0.1547;0.0119;
331.5000;0.1514;0.0119;
331.8000;0.1530;0.0215;
332.1000;0.1522;0.0191;
332.4000;0.1498;0.0000;
332.7000;0.1530;0.0096;
333.0000;0.1522;0.0096;
333.3000;0.1538;0.0048;
333.6000;0.1522;0.0072;
333.9000;0.1547;0.0167;
334.2000;0.1547;0.0191;
334.5000;0.1530;0.0143;
334.8000;0.1441;-0.0167;
335.1000;0.1522;0.0143;
335.4000;0.1514;0.0119;
335.7000;0.1514;0.0096;
336.0000;0.1620;0.0382;
336.3000;0.1538;0.0143;
336.6000;0.1522;0.0167;
336.9000;0.1530;0.0167;
337.2000;0.1514;0.0215;
337.5000;0.1522;0.0167;
337.8000;0.1514;0.0048;
338.1000;0.1538;0.0119;
338.4000;0.1530;0.0048;
338.7000;0.1530;0.0096;
339.0000;0.1579;0.0143;
339.3000;0.1547;0.0096;
339.6000;0.1547;0.0072;
339.9000;0.1538;0.0000;
340.2000;0.1302;-0.0502;
340.5000;0.1587;0.0191;
340.8000;0.1449;-0.0143;
341.1000;0.1595;0.0335;
341.4000;0.1522;0.0119;
341.7000;0.1481;0.0024;
342.0000;0.1595;0.0215;
342.3000;0.1481;-0.0048;
342.6000;0.1498;-0.0048;
342.9000;0.1563;0.0119;
343.2000;0.1538;-0.0072;
343.5000;0.1522;-0.0191;
343.8000;0.1514;-0.0191;
344.1000;0.1465;-0.0287;
344.4000;0.1522;-0.0072;
344.7000;0.1514;-0.0143;
345.0000;0.1530;-0.0167;
345.3000;0.1555;-0.0143;
345.6000;0.1563;-0.0072;
345.9000;0.1490;-0.0167;
346.2000;0.1530;-0.0119;
346.5000;0.1522;-0.0048;
346.8000;0.1514;-0.0072;
347.1000;0.1530;-0.0048;
347.4000;0.1473;-0.0287;
347.7000;0.1530;-0.0096;
348.0000;0.1595;0.0072;
348.3000;0.1530;-0.0072;
348.6000;0.1530;0.0000;
348.9000;0.1547;-0.0048;
349.2000;0.1506;-0.0096;
349.5000;0.1547;-0.0024;
349.8000;0.1555;0.0119;
350.1000;0.1538;0.0048;
350.4000;0.1530;0.0000;
350.7000;0.1538;0.0024;
351.0000;0.1416;-0.0287;
351.3000;0.1555;0.0072;
351.6000;0.1587;0.0072;
351.9000;0.1514;-0.0048;
352.2000;0.1522;-0.0024;
352.5000;0.1522;0.0048;
352.8000;0.1530;0.0191;
353.1000;0.1522;0.0191;
353.4000;0.1522;0.0215;
353.7000;0.1514;0.0143;
354.0000;0.1530;0.0239;
354.3000;0.1530;0.0191;
354.6000;0.1498;0.0048;
354.9000;0.1514;0.0096;
355.2000;0.1514;0.0096;
355.5000;0.1506;0.0119;
355.8000;0.1522;0.0119;
356.1000;0.1530;0.0167;
356.4000;0.1514;0.0191;
356.7000;0.1563;0.0215;
357.0000;0.1514;0.0096;
357.3000;0.1579;0.0287;
357.6000;0.1530;0.0143;
357.9000;0.1514;0.0143;
358.2000;0.1522;0.0215;
358.5000;0.1490;0.0191;
358.8000;0.1433;0.0048;
359.1000;0.1506;0.0263;
359.4000;0.1538;0.0406;
359.7000;0.1506;0.0358;
360.0000;0.1522;0.0382;
360.3000;0.1522;0.0358;
360.6000;0.1530;0.0335;
360.9000;0.1522;0.0287;
361.2000;0.1514;0.0382;
361.5000;0.1506;0.0358;
361.8000;0.1547;0.0478;
362.1000;0.1547;0.0454;
362.4000;0.1522;0.0335;
362.7000;0.1514;0.0311;
363.0000;0.1644;0.0645;
363.3000;0.1530;0.0406;
363.6000;0.1514;0.0430;
363.9000;0.1522;0.0406;
364.2000;0.1522;0.0430;
364.5000;0.1522;0.0311;
364.8000;0.1530;0.0263;
365.1000;0.1498;0.0096;
365.4000;0.1530;0.0263;
365.7000;0.1490;0.0191;
366.0000;0.1465;0.0191;
366.3000;0.1498;0.0191;
366.6000;0.1498;0.0191;
366.9000;0.1514;0.0239;
367.2000;0.1514;0.0191;
367.5000;0.1506;0.0215;
367.8000;0.1563;0.0358;
368.1000;0.1555;0.0358;
368.4000;0.1490;0.0263;
368.7000;0.1538;0.0430;
369.0000;0.1514;0.0358;
369.3000;0.1530;0.0335;
369.6000;0.1555;0.0406;
369.9000;0.1538;0.0287;
370.2000;0.1530;0.0311;
370.5000;0.1538;0.0215;
370.8000;0.1514;0.0143;
371.1000;0.1547;0.0167;
371.4000;0.1522;0.0143;
371.7000;0.1490;0.0072;
372.0000;0.1522;0.0167;
372.3000;0.1530;0.0239;
372.6000;0.1498;0.0167;
372.9000;0.1571;0.0335;
373.2000;0.1547;0.0263;
373.5000;0.1433;-0.0048;
373.8000;0.1538;0.0239;
374.1000;0.1522;0.0263;
374.4000;0.1547;0.0263;
374.7000;0.1530;0.0215;
375.0000;0.1514;0.0143;
375.3000;0.1522;0.0191;
375.6000;0.1547;0.0287;
375.9000;0.1522;0.0263;
376.2000;0.1514;0.0215;
376.5000;0.1506;0.0167;
376.8000;0.1530;0.0287;
377.1000;0.1538;0.0311;
377.4000;0.1522;0.0263;
377.7000;0.1522;0.0215;
378.0000;0.1530;0.0215;
378.3000;0.1547;0.0287;
378.6000;0.1506;0.0167;
378.9000;0.1538;0.0335;
379.2000;0.1530;0.0239;
379.5000;0.1514;0.0191;
379.8000;0.1538;0.0239;
380.1000;0.1506;0.0167;
380.4000;0.1506;0.0167;
380.7000;0.1530;0.0215;
381.0000;0.1538;0.0263;
381.3000;0.1498;0.0143;
381.6000;0.1563;0.0358;
381.9000;0.1538;0.0311;
382.2000;0.1530;0.0335;
382.5000;0.1465;0.0167;
382.8000;0.1506;0.0335;
383.1000;0.1530;0.0406;
383.4000;0.1563;0.0430;
383.7000;0.1514;0.0263;
384.0000;0.1530;0.0263;
384.3000;0.1506;0.0167;
384.6000;0.1530;0.0215;
384.9000;0.1530;0.0167;
385.2000;0.1555;0.0287;
385.5000;0.1514;0.0119;
385.8000;0.1530;0.0215;
386.1000;0.1563;0.0287;
386.4000;0.1555;0.0167;
386.7000;0.1522;0.0119;
387.0000;0.1514;0.0096;
387.3000;0.1473;0.0000;
387.6000;0.1555;0.0167;
387.9000;0.1514;0.0072;
388.2000;0.1530;0.0072;
388.5000;0.1514;0.0048;
388.8000;0.1595;0.0358;
389.1000;0.1530;0.0143;
389.4000;0.1522;0.0119;
389.7000;0.1506;0.0024;
390.0000;0.1530;0.0119;
390.3000;0.1514;0.0143;
390.6000;0.1538;0.0263;
390.9000;0.1522;0.0143;
391.2000;0.1547;0.0167;
391.5000;0.1530;0.0215;
391.8000;0.1506;0.0143;
392.1000;0.1530;0.0215;
392.4000;0.1441;-0.0024;
392.7000;0.1538;0.0239;
393.0000;0.1530;0.0191;
393.3000;0.1522;0.0239;
393.6000;0.1522;0.0167;
393.9000;0.1538;0.0263;
394.2000;0.1530;0.0167;
394.5000;0.1522;0.0215;
394.8000;0.1538;0.0215;
395.1000;0.1514;0.0143;
395.4000;0.1522;0.0215;
395.7000;0.1538;0.0215;
396.0000;0.1522;0.0167;
396.3000;0.1538;0.0167;
396.6000;0.1498;-0.0024;
396.9000;0.1522;0.0024;
397.2000;0.1514;-0.0024;
397.5000;0.1522;0.0000;
397.8000;0.1538;0.0048;
398.1000;0.1498;0.0000;
398.4000;0.1514;0.0048;
398.7000;0.1416;-0.0096;
399.0000;0.1547;0.0263;
399.3000;0.1538;0.0191;
399.6000;0.1514;0.0143;
399.9000;0.1506;0.0191;
400.2000;0.1506;0.0239;
400.5000;0.1547;0.0287;
400.8000;0.1538;0.0287;
401.1000;0.1538;0.0382;
401.4000;0.1538;0.0335;
401.7000;0.1473;0.0143;
402.0000;0.1522;0.0215;
402.3000;0.1498;0.0119;
402.6000;0.1547;0.0335;
402.9000;0.1506;0.0239;
403.2000;0.1522;0.0263;
403.5000;0.1514;0.0287;
403.8000;0.1555;0.0311;
404.1000;0.1522;0.0215;
404.4000;0.1449;-0.0048;
404.7000;0.1538;0.0239;
405.0000;0.1547;0.0239;
405.3000;0.1522;0.0143;
405.6000;0.1547;0.0096;
405.9000;0.1522;0.0119;
406.2000;0.1538;0.0096;
406.5000;0.1530;0.0119;
406.8000;0.1669;0.0526;
407.1000;0.1522;0.0191;
407.4000;0.1530;0.0215;
407.7000;0.1571;0.0311;
408.0000;0.1530;0.0215;
408.3000;0.1538;0.0239;
408.6000;0.1514;0.0096;
408.9000;0.1579;0.0263;
409.2000;0.1522;0.0119;
409.5000;0.1522;0.0072;
409.8000;0.1530;0.0024;
410.1000;0.1530;0.0048;
410.4000;0.1473;-0.0072;
410.7000;0.1514;-0.0024;
411.0000;0.1506;-0.0119;
411.3000;0.1514;0.0048;
411.6000;0.1547;0.0119;
411.9000;0.1514;0.0143;
412.2000;0.1530;0.0191;
412.5000;0.1490;0.0048;
412.8000;0.1514;0.0096;
413.1000;0.1514;0.0072;
413.4000;0.1498;0.0024;
413.7000;0.1481;-0.0072;
414.0000;0.1506;-0.0024;
414.3000;0.1514;-0.0024;
414.6000;0.1530;0.0000;
414.9000;0.1522;-0.0048;
415.2000;0.1538;0.0000;
415.5000;0.1522;0.0000;
415.8000;0.1522;0.0072;
416.1000;0.1522;0.0096;
416.4000;0.1514;0.0096;
416.7000;0.1506;0.0119;
417.0000;0.1538;0.0191;
417.3000;0.1530;0.0143;
417.6000;0.1538;0.0143;
417.9000;0.1522;0.0048;
418.2000;0.1498;-0.0024;
418.5000;0.1538;0.0000;
418.8000;0.1530;0.0000;
419.1000;0.1522;0.0119;
419.4000;0.1563;0.0263;
419.7000;0.1538;0.0215;
420.0000;0.1514;0.0143;
420.3000;0.1522;0.0119;
420.6000;0.1506;0.0096;
420.9000;0.1514;0.0143;
421.2000;0.1522;0.0119;
421.5000;0.1481;-0.0024;
421.8000;0.1514;0.0119;
422.1000;0.1506;0.0191;
422.4000;0.1538;0.0191;
422.7000;0.1571;0.0311;
423.0000;0.1506;0.0167;
423.3000;0.1514;0.0239;
423.6000;0.1530;0.0191;
423.9000;0.1530;0.0119;
424.2000;0.1498;0.0096;
424.5000;0.1498;0.0048;
424.8000;0.1522;0.0239;
425.1000;0.1530;0.0335;
425.4000;0.1498;0.0239;
425.7000;0.1514;0.0239;
426.0000;0.1465;0.0167;
426.3000;0.1457;0.0024;
426.6000;0.1547;0.0239;
426.9000;0.1514;0.0191;
427.2000;0.1506;0.0096;
427.5000;0.1538;0.0096;
427.8000;0.1522;0.0119;
428.1000;0.1538;0.0215;
428.4000;0.1587;0.0358;
428.7000;0.1530;0.0239;
429.0000;0.1530;0.0263;
429.3000;0.1457;0.0119;
429.6000;0.1498;0.0215;
429.9000;0.1538;0.0287;
430.2000;0.1530;0.0287;
430.5000;0.1473;0.0048;
430.8000;0.1538;0.0215;
431.1000;0.1652;0.0502;
431.4000;0.1530;0.0143;
431.7000;0.1514;0.0119;
432.0000;0.1530;0.0191;
432.3000;0.1522;0.0215;
432.6000;0.1514;0.0215;
432.9000;0.1530;0.0191;
433.2000;0.1506;0.0143;
433.5000;0.1547;0.0167;
433.8000;0.1506;0.0096;
434.1000;0.1530;0.0143;
434.4000;0.1514;-0.0048;
434.7000;0.1522;-0.0096;
435.0000;0.1506;-0.0167;
435.3000;0.1547;0.0024;
435.6000;0.1506;-0.0048;
435.9000;0.1498;-0.0024;
436.2000;0.1530;0.0072;
436.5000;0.1514;0.0024;
436.8000;0.1530;0.0072;
437.1000;0.1522;-0.0024;
437.4000;0.1522;-0.0024;
437.7000;0.1506;-0.0072;
438.0000;0.1530;-0.0048;
438.3000;0.1506;0.0000;
438.6000;0.1441;-0.0167;
438.9000;0.1506;-0.0096;
439.2000;0.1547;0.0000;
439.5000;0.1522;-0.0119;
439.8000;0.1571;0.0048;
440.1000;0.1530;-0.0119;
440.4000;0.1538;-0.0072;
440.7000;0.1514;-0.0239;
441.0000;0.1490;-0.0406;
441.3000;0.1514;-0.0263;
441.6000;0.1490;-0.0358;
441.9000;0.1522;-0.0263;
442.2000;0.1538;-0.0215;
442.5000;0.1498;-0.0311;
442.8000;0.1538;-0.0191;
443.1000;0.1538;-0.0191;
443.4000;0.1506;-0.0191;
443.7000;0.1514;-0.0215;
444.0000;0.1522;-0.0072;
444.3000;0.1514;-0.0072;
444.6000;0.1522;-0.0096;
444.9000;0.1522;-0.0096;
445.2000;0.1571;0.0024;
445.5000;0.1506;-0.0072;
445.8000;0.1522;0.0000;
446.1000;0.1514;0.0000;
446.4000;0.1506;0.0048;
446.7000;0.1514;0.0143;
447.0000;0.1563;0.0167;
447.3000;0.1506;0.0024;
447.6000;0.1522;0.0024;
447.9000;0.1547;0.0119;
448.2000;0.1538;0.0191;
448.5000;0.1547;0.0096;
448.8000;0.1506;0.0000;
449.1000;0.1538;0.0143;
449.4000;0.1522;0.0048;
449.7000;0.1522;-0.0024;
450.0000;0.1514;-0.0119;
450.3000;0.1538;-0.0048;
450.6000;0.1522;-0.0048;
450.9000;0.1530;0.0024;
451.2000;0.1441;-0.0287;
451.5000;0.1506;-0.0072;
451.8000;0.1514;-0.0048;
452.1000;0.1506;-0.0072;
452.4000;0.1522;-0.0024;
452.7000;0.1563;0.0143;
453.0000;0.1530;0.0096;
453.3000;0.1538;0.0119;
453.6000;0.1612;0.0239;
453.9000;0.1547;0.0048;
454.2000;0.1465;-0.0096;
454.5000;0.1506;-0.0096;
454.8000;0.1506;-0.0072;
455.1000;0.1490;-0.0048;
455.4000;0.1547;0.0048;
455.7000;0.1522;0.0048;
456.0000;0.1498;-0.0072;
456.3000;0.1522;-0.0096;
456.6000;0.1490;-0.0096;
456.9000;0.1522;-0.0048;
457.2000;0.1465;-0.0167;
457.5000;0.1514;-0.0096;
457.8000;0.1514;-0.0096;
458.1000;0.1465;-0.0119;
458.4000;0.1547;0.0048;
458.7000;0.1514;0.0048;
459.0000;0.1514;0.0072;
459.3000;0.1506;0.0024;
459.6000;0.1514;0.0048;
459.9000;0.1522;0.0024;
460.2000;0.1530;0.0000;
460.5000;0.1522;0.0048;
460.8000;0.1522;0.0191;
461.1000;0.1530;0.0191;
461.4000;0.1400;-0.0167;
461.7000;0.1514;0.0119;
462.0000;0.1514;0.0072;
462.3000;0.1579;0.0287;
462.6000;0.1587;0.0358;
462.9000;0.1522;0.0239;
463.2000;0.1538;0.0335;
463.5000;0.1571;0.0454;
463.8000;0.1538;0.0430;
464.1000;0.1522;0.0406;
464.4000;0.1506;0.0335;
464.7000;0.1530;0.0263;
465.0000;0.1522;0.0287;
465.3000;0.1530;0.0311;
465.6000;0.1538;0.0358;
465.9000;0.1498;0.0239;
466.2000;0.1530;0.0287;
466.5000;0.1481;0.0167;
466.8000;0.1530;0.0358;
467.1000;0.1522;0.0215;
467.4000;0.1506;0.0072;
467.7000;0.1547;0.0167;
468.0000;0.1522;0.0072;
468.3000;0.1538;0.0096;
468.6000;0.1498;0.0024;
468.9000;0.1538;0.0143;
469.2000;0.1538;0.0143;
469.5000;0.1522;0.0072;
469.8000;0.1538;0.0167;
470.1000;0.1522;0.0191;
470.4000;0.1522;0.0167;
470.7000;0.1538;0.0239;
471.0000;0.1579;0.0358;
471.3000;0.1514;0.0239;
471.6000;0.1522;0.0239;
471.9000;0.1514;0.0215;
472.2000;0.1522;0.0167;
472.5000;0.1547;0.0167;
472.8000;0.1530;0.0096;
473.1000;0.1538;0.0263;
473.4000;0.1498;0.0239;
473.7000;0.1579;0.0406;
474.0000;0.1522;0.0287;
474.3000;0.1636;0.0621;
474.6000;0.1579;0.0526;
474.9000;0.1514;0.0358;
475.2000;0.1530;0.0430;
475.5000;0.1522;0.0287;
475.8000;0.1522;0.0382;
476.1000;0.1522;0.0287;
476.4000;0.1514;0.0215;
476.7000;0.1400;-0.0096;
477.0000;0.1530;0.0358;
477.3000;0.1538;0.0382;
477.6000;0.1547;0.0335;
477.9000;0.1530;0.0215;
478.2000;0.1514;0.0215;
478.5000;0.1555;0.0382;
478.8000;0.1514;0.0287;
479.1000;0.1514;0.0335;
479.4000;0.1522;0.0358;
479.7000;0.1530;0.0335;
480.0000;0.1522;0.0287;
480.3000;0.1473;0.0191;
480.6000;0.1530;0.0335;
480.9000;0.1522;0.0311;
481.2000;0.1473;0.0311;
481.5000;0.1571;0.0550;
481.8000;0.1506;0.0382;
482.1000;0.1530;0.0478;
482.4000;0.1514;0.0478;
482.7000;0.1473;0.0382;
483.0000;0.1522;0.0430;
483.3000;0.1514;0.0406;
483.6000;0.1522;0.0335;
483.9000;0.1522;0.0239;
484.2000;0.1481;0.0072;
484.5000;0.1490;0.0096;
484.8000;0.1481;0.0048;
485.1000;0.1506;0.0263;
485.4000;0.1530;0.0263;
485.7000;0.1457;0.0167;
486.0000;0.1547;0.0358;
486.3000;0.1530;0.0287;
486.6000;0.1506;0.0263;
486.9000;0.1530;0.0382;
487.2000;0.1506;0.0311;
487.5000;0.1530;0.0358;
487.8000;0.1506;0.0358;
488.1000;0.1522;0.0382;
488.4000;0.1530;0.0382;
488.7000;0.1547;0.0454;
489.0000;0.1530;0.0311;
489.3000;0.1522;0.0406;
489.6000;0.1514;0.0335;
489.9000;0.1514;0.0287;
490.2000;0.1514;0.0191;
490.5000;0.1514;0.0215;
490.8000;0.1514;0.0191;
491.1000;0.1514;0.0167;
491.4000;0.1522;0.0191;
491.7000;0.1530;0.0382;
492.0000;0.1547;0.0430;
492.3000;0.1555;0.0478;
492.6000;0.1408;0.0119;
492.9000;0.1522;0.0358;
493.2000;0.1555;0.0454;
493.5000;0.1530;0.0311;
493.8000;0.1441;0.0096;
494.1000;0.1465;0.0167;
494.4000;0.1530;0.0406;
494.7000;0.1530;0.0406;
495.0000;0.1538;0.0358;
495.3000;0.1514;0.0358;
495.6000;0.1490;0.0287;
495.9000;0.1522;0.0239;
496.2000;0.1522;0.0287;
496.5000;0.1538;0.0263;
496.8000;0.1555;0.0263;
497.1000;0.1530;0.0239;
497.4000;0.1506;0.0167;
497.7000;0.1473;0.0119;
498.0000;0.1530;0.0358;
498.3000;0.1538;0.0358;
498.6000;0.1514;0.0335;
498.9000;0.1498;0.0239;
499.2000;0.1514;0.0263;
499.5000;0.1498;0.0215;
499.8000;0.1522;0.0239;
500.1000;0.1490;0.0119;
500.4000;0.1457;0.0024;
500.7000;0.1538;0.0263;
501.0000;0.1547;0.0287;
501.3000;0.1530;0.0287;
501.6000;0.1530;0.0239;
501.9000;0.1530;0.0167;
502.2000;0.1522;0.0215;
502.5000;0.1530;0.0215;
502.8000;0.1522;0.0215;
503.1000;0.1530;0.0311;
503.4000;0.1506;0.0335;
503.7000;0.1522;0.0335;
504.0000;0.1538;0.0287;
504.3000;0.1514;0.0239;
504.6000;0.1498;0.0239;
504.9000;0.1530;0.0358;
505.2000;0.1514;0.0335;
505.5000;0.1498;0.0311;
505.8000;0.1506;0.0358;
506.1000;0.1530;0.0406;
506.4000;0.1473;0.0287;
506.7000;0.1530;0.0454;
507.0000;0.1514;0.0454;
507.3000;0.1522;0.0597;
507.6000;0.1530;0.0574;
507.9000;0.1530;0.0502;
508.2000;0.1530;0.0478;
508.5000;0.1514;0.0358;
508.8000;0.1547;0.0454;
509.1000;0.1530;0.0430;
509.4000;0.1538;0.0406;
509.7000;0.1514;0.0335;
510.0000;0.1522;0.0335;
510.3000;0.1506;0.0358;
510.6000;0.1538;0.0454;
510.9000;0.1514;0.0454;
511.2000;0.1522;0.0382;
511.5000;0.1555;0.0382;
511.8000;0.1506;0.0215;
512.1000;0.1498;0.0096;
512.4000;0.1506;0.0191;
512.7000;0.1514;0.0191;
513.0000;0.1563;0.0358;
513.3000;0.1547;0.0311;
513.6000;0.1498;0.0215;
513.9000;0.1579;0.0382;
514.2000;0.1530;0.0335;
514.5000;0.1555;0.0502;
514.8000;0.1522;0.0526;
515.1000;0.1522;0.0502;
515.4000;0.1530;0.0454;
515.7000;0.1538;0.0478;
516.0000;0.1514;0.0335;
516.3000;0.1490;0.0311;
516.6000;0.1587;0.0550;
516.9000;0.1514;0.0263;
517.2000;0.1522;0.0287;
517.5000;0.1522;0.0287;
517.8000;0.1522;0.0311;
518.1000;0.1530;0.0263;
518.4000;0.1506;0.0191;
518.7000;0.1547;0.0263;
519.0000;0.1538;0.0119;
519.3000;0.1530;0.0119;
519.6000;0.1547;0.0096;
519.9000;0.1530;0.0024;
520.2000;0.1530;0.0048;
520.5000;0.1530;0.0048;
520.8000;0.1522;0.0143;
521.1000;0.1522;0.0119;
521.4000;0.1506;0.0191;
521.7000;0.1530;0.0215;
522.0000;0.1530;0.0143;
522.3000;0.1522;0.0143;
522.6000;0.1506;0.0167;
522.9000;0.1538;0.0239;
523.2000;0.1530;0.0239;
523.5000;0.1530;0.0239;
523.8000;0.1522;0.0191;
524.1000;0.1522;0.0191;
524.4000;0.1538;0.0335;
524.7000;0.1530;0.0287;
525.0000;0.1514;0.0311;
525.3000;0.1522;0.0335;
525.6000;0.1522;0.0311;
525.9000;0.1530;0.0335;
526.2000;0.1628;0.0597;
526.5000;0.1522;0.0335;
526.8000;0.1530;0.0311;
527.1000;0.1457;0.0143;
527.4000;0.1465;0.0143;
527.7000;0.1522;0.0311;
528.0000;0.1530;0.0239;
528.3000;0.1604;0.0430;
528.6000;0.1538;0.0239;
528.9000;0.1506;0.0215;
529.2000;0.1538;0.0335;
529.5000;0.1522;0.0406;
529.8000;0.1538;0.0406;
530.1000;0.1514;0.0287;
530.4000;0.1547;0.0430;
530.7000;0.1522;0.0335;
531.0000;0.1538;0.0358;
531.3000;0.1530;0.0406;
531.6000;0.1579;0.0454;
531.9000;0.1506;0.0191;
532.2000;0.1538;0.0335;
532.5000;0.1490;0.0239;
532.8000;0.1506;0.0239;
533.1000;0.1522;0.0263;
533.4000;0.1530;0.0311;
533.7000;0.1547;0.0311;
534.0000;0.1522;0.0215;
534.3000;0.1514;0.0167;
534.6000;0.1506;0.0239;
534.9000;0.1530;0.0311;
535.2000;0.1530;0.0263;
535.5000;0.1530;0.0191;
535.8000;0.1579;0.0406;
536.1000;0.1522;0.0263;
536.4000;0.1530;0.0191;
536.7000;0.1522;0.0072;
537.0000;0.1522;-0.0024;
537.3000;0.1522;0.0072;
537.6000;0.1538;0.0143;
537.9000;0.1530;0.0119;
538.2000;0.1506;0.0119;
538.5000;0.1522;0.0215;
538.8000;0.1547;0.0263;
539.1000;0.1547;0.0263;
539.4000;0.1473;0.0143;
539.7000;0.1522;0.0287;
540.0000;0.1514;0.0143;
540.3000;0.1522;0.0239;
540.6000;0.1465;0.0119;
540.9000;0.1522;0.0311;
541.2000;0.1506;0.0263;
541.5000;0.1530;0.0335;
541.8000;0.1514;0.0263;
542.1000;0.1547;0.0335;
542.4000;0.1433;-0.0048;
542.7000;0.1620;0.0454;
543.0000;0.1522;0.0239;
543.3000;0.1522;0.0287;
543.6000;0.1506;0.0311;
543.9000;0.1522;0.0311;
544.2000;0.1514;0.0335;
544.5000;0.1514;0.0358;
544.8000;0.1506;0.0335;
545.1000;0.1514;0.0335;
545.4000;0.1514;0.0430;
545.7000;0.1506;0.0430;
546.0000;0.1522;0.0382;
546.3000;0.1514;0.0311;
546.6000;0.1522;0.0358;
546.9000;0.1506;0.0335;
547.2000;0.1620;0.0645;
547.5000;0.1441;0.0119;
547.8000;0.1465;0.0335;
548.1000;0.1538;0.0430;
548.4000;0.1506;0.0382;
548.7000;0.1530;0.0478;
549.0000;0.1522;0.0406;
549.3000;0.1514;0.0311;
549.6000;0.1555;0.0382;
549.9000;0.1522;0.0358;
550.2000;0.1547;0.0430;
550.5000;0.1506;0.0287;
550.8000;0.1522;0.0335;
551.1000;0.1538;0.0382;
551.4000;0.1530;0.0430;
551.7000;0.1506;0.0263;
552.0000;0.1522;0.0263;
552.3000;0.1587;0.0406;
552.6000;0.1481;0.0119;
552.9000;0.1522;0.0215;
553.2000;0.1490;0.0072;
553.5000;0.1522;0.0143;
553.8000;0.1514;0.0048;
554.1000;0.1530;0.0048;
554.4000;0.1595;0.0263;
554.7000;0.1498;-0.0048;
555.0000;0.1563;0.0072;
555.3000;0.1522;0.0000;
555.6000;0.1530;0.0072;
555.9000;0.1530;0.0215;
556.2000;0.1522;0.0239;
556.5000;0.1530;0.0406;
556.8000;0.1522;0.0478;
557.1000;0.1538;0.0478;
557.4000;0.1506;0.0382;
557.7000;0.1522;0.0406;
558.0000;0.1514;0.0406;
558.3000;0.1514;0.0335;
558.6000;0.1538;0.0454;
558.9000;0.1530;0.0430;
559.2000;0.1530;0.0478;
559.5000;0.1547;0.0406;
559.8000;0.1530;0.0406;
560.1000;0.1547;0.0502;
560.4000;0.1522;0.0430;
560.7000;0.1530;0.0287;
561.0000;0.1530;0.0215;
561.3000;0.1514;0.0239;
561.6000;0.1612;0.0478;
561.9000;0.1530;0.0335;
562.2000;0.1506;0.0263;
562.5000;0.1522;0.0382;
562.8000;0.1506;0.0406;
563.1000;0.1530;0.0454;
563.4000;0.1514;0.0478;
563.7000;0.1514;0.0430;
564.0000;0.1522;0.0382;
564.3000;0.1538;0.0358;
564.6000;0.1522;0.0358;
564.9000;0.1522;0.0382;
565.2000;0.1644;0.0645;
565.5000;0.1514;0.0382;
565.8000;0.1530;0.0382;
566.1000;0.1498;0.0239;
566.4000;0.1473;0.0239;
566.7000;0.1498;0.0311;
567.0000;0.1522;0.0406;
567.3000;0.1530;0.0430;
567.6000;0.1465;0.0239;
567.9000;0.1514;0.0335;
568.2000;0.1514;0.0263;
568.5000;0.1547;0.0358;
568.8000;0.1449;0.0048;
569.1000;0.1530;0.0263;
569.4000;0.1522;0.0239;
569.7000;0.1465;0.0072;
570.0000;0.1506;0.0239;
570.3000;0.1522;0.0311;
570.6000;0.1514;0.0263;
570.9000;0.1522;0.0311;
571.2000;0.1506;0.0311;
571.5000;0.1555;0.0358;
571.8000;0.1473;0.0215;
572.1000;0.1514;0.0335;
572.4000;0.1530;0.0454;
572.7000;0.1514;0.0358;
573.0000;0.1498;0.0335;
573.3000;0.1538;0.0478;
573.6000;0.1579;0.0550;
573.9000;0.1514;0.0382;
574.2000;0.1490;0.0263;
574.5000;0.1530;0.0406;
574.8000;0.1498;0.0287;
575.1000;0.1514;0.0263;
575.4000;0.1506;0.0287;
575.7000;0.1571;0.0406;
576.0000;0.1522;0.0167;
576.3000;0.1547;0.0239;
576.6000;0.1506;0.0215;
576.9000;0.1530;0.0263;
577.2000;0.1514;0.0143;
577.5000;0.1522;0.0167;
577.8000;0.1514;0.0191;
578.1000;0.1514;0.0167;
578.4000;0.1530;0.0215;
578.7000;0.1522;0.0263;
579.0000;0.1538;0.0382;
579.3000;0.1530;0.0382;
579.6000;0.1522;0.0311;
579.9000;0.1538;0.0406;
580.2000;0.1538;0.0454;
580.5000;0.1514;0.0358;
580.8000;0.1530;0.0311;
581.1000;0.1522;0.0239;
581.4000;0.1530;0.0239;
581.7000;0.1522;0.0167;
582.0000;0.1530;0.0143;
582.3000;0.1490;0.0096;
582.6000;0.1473;0.0048;
582.9000;0.1506;0.0167;
583.2000;0.1530;0.0215;
583.5000;0.1538;0.0215;
583.8000;0.1530;0.0167;
584.1000;0.1530;0.0143;
584.4000;0.1530;0.0191;
584.7000;0.1522;0.0191;
585.0000;0.1530;0.0287;
585.3000;0.1530;0.0358;
585.6000;0.1514;0.0358;
585.9000;0.1530;0.0358;
586.2000;0.1547;0.0478;
586.5000;0.1522;0.0430;
586.8000;0.1522;0.0335;
587.1000;0.1514;0.0263;
587.4000;0.1530;0.0335;
587.7000;0.1530;0.0406;
588.0000;0.1538;0.0430;
588.3000;0.1514;0.0406;
588.6000;0.1522;0.0454;
588.9000;0.1538;0.0645;
589.2000;0.1514;0.0574;
589.5000;0.1538;0.0574;
589.8000;0.1522;0.0502;
590.1000;0.1530;0.0550;
590.4000;0.1498;0.0382;
590.7000;0.1514;0.0430;
591.0000;0.1514;0.0430;
591.3000;0.1522;0.0502;
591.6000;0.1547;0.0478;
591.9000;0.1514;0.0335;
592.2000;0.1530;0.0335;
592.5000;0.1400;0.0072;
592.8000;0.1514;0.0311;
593.1000;0.1522;0.0311;
593.4000;0.1530;0.0335;
593.7000;0.1506;0.0287;
594.0000;0.1522;0.0382;
594.3000;0.1547;0.0550;
594.6000;0.1587;0.0502;
594.9000;0.1555;0.0358;
595.2000;0.1530;0.0382;
595.5000;0.1571;0.0430;
595.8000;0.1522;0.0191;
596.1000;0.1514;0.0167;
596.4000;0.1522;0.0096;
596.7000;0.1530;0.0119;
597.0000;0.1547;0.0215;
597.3000;0.1514;0.0167;
597.6000;0.1530;0.0311;
597.9000;0.1522;0.0311;
598.2000;0.1538;0.0406;
598.5000;0.1522;0.0358;
598.8000;0.1530;0.0382;
599.1000;0.1506;0.0311;
599.4000;0.1547;0.0311;
599.7000;0.1514;0.0263;
600.0000;0.1514;0.0263;
600.3000;0.1530;0.0167;
600.6000;0.1530;0.0072;
600.9000;0.1522;-0.0024;
601.2000;0.1522;-0.0072;
601.5000;0.1547;0.0000;
601.8000;0.1490;-0.0119;
602.1000;0.1506;-0.0167;
602.4000;0.1498;-0.0191;
602.7000;0.1522;-0.0287;
603.0000;0.1498;-0.0430;
603.3000;0.1473;-0.0502;
603.6000;0.1506;-0.0382;
603.9000;0.1481;-0.0382;
604.2000;0.1522;-0.0382;
604.5000;0.1506;-0.0454;
604.8000;0.1490;-0.0526;
605.1000;0.1498;-0.0597;
605.4000;0.1506;-0.0621;
605.7000;0.1498;-0.0669;
606.0000;0.1522;-0.0765;
606.3000;0.1481;-0.0884;
606.6000;0.1465;-0.0956;
606.9000;0.1506;-0.0765;
607.2000;0.1498;-0.0812;
607.5000;0.1506;-0.0741;
607.8000;0.1498;-0.0789;
608.1000;0.1465;-0.0860;
608.4000;0.1514;-0.0645;
608.7000;0.1538;-0.0526;
609.0000;0.1498;-0.0526;
609.3000;0.1498;-0.0597;
609.6000;0.1555;-0.0550;
609.9000;0.1498;-0.0741;
610.2000;0.1400;-0.0980;
610.5000;0.1628;-0.0430;
610.8000;0.1498;-0.0717;
611.1000;0.1498;-0.0789;
611.4000;0.1465;-0.0836;
611.7000;0.1433;-0.0956;
612.0000;0.1481;-0.0908;
612.3000;0.1555;-0.0789;
612.6000;0.1490;-0.0956;
612.9000;0.1481;-0.0956;
613.2000;0.1498;-0.0908;
613.5000;0.1465;-0.0956;
613.8000;0.1490;-0.0932;
614.1000;0.1473;-0.0956;
614.4000;0.1514;-0.0765;
614.7000;0.1481;-0.0812;
615.0000;0.1498;-0.0693;
615.3000;0.1481;-0.0836;
615.6000;0.1490;-0.0836;
615.9000;0.1490;-0.0836;
616.2000;0.1498;-0.0836;
616.5000;0.1563;-0.0693;
616.8000;0.1522;-0.0812;
617.1000;0.1490;-0.0908;
617.4000;0.1498;-0.0884;
617.7000;0.1498;-0.0884;
618.0000;0.1498;-0.0836;
618.3000;0.1481;-0.0860;
618.6000;0.1481;-0.0884;
618.9000;0.1473;-0.0812;
619.2000;0.1465;-0.0836;
619.5000;0.1547;-0.0645;
619.8000;0.1490;-0.0717;
620.1000;0.1481;-0.0693;
620.4000;0.1441;-0.0836;
620.7000;0.1481;-0.0741;
621.0000;0.1481;-0.0812;
621.3000;0.1473;-0.0860;
621.6000;0.1449;-0.0980;
621.9000;0.1481;-0.0860;
622.2000;0.1506;-0.0765;
622.5000;0.1490;-0.0717;
622.8000;0.1506;-0.0789;
623.1000;0.1481;-0.0789;
623.4000;0.1490;-0.0717;
623.7000;0.1481;-0.0789;
624.0000;0.1473;-0.0789;
624.3000;0.1481;-0.0836;
624.6000;0.1384;-0.1004;
624.9000;0.1473;-0.0765;
625.2000;0.1473;-0.0669;
625.5000;0.1481;-0.0741;
625.8000;0.1563;-0.0621;
626.1000;0.1473;-0.0884;
626.4000;0.1498;-0.0908;
626.7000;0.1465;-0.0908;
627.0000;0.1490;-0.0884;
627.3000;0.1457;-0.0884;
627.6000;0.1506;-0.0693;
627.9000;0.1473;-0.0717;
628.2000;0.1481;-0.0717;
628.5000;0.1490;-0.0741;
628.8000;0.1579;-0.0526;
629.1000;0.1506;-0.0741;
629.4000;0.1457;-0.0741;
629.7000;0.1514;-0.0717;
630.0000;0.1490;-0.0812;
630.3000;0.1498;-0.0765;
630.6000;0.1416;-0.1004;
630.9000;0.1473;-0.0860;
631.2000;0.1481;-0.0789;
631.5000;0.1490;-0.0812;
631.8000;0.1538;-0.0741;
632.1000;0.1498;-0.0908;
632.4000;0.1481;-0.0932;
632.7000;0.1457;-0.1028;
633.0000;0.1490;-0.0980;
633.3000;0.1490;-0.0980;
633.6000;0.1465;-0.0932;
633.9000;0.1490;-0.0860;
634.2000;0.1425;-0.0932;
634.5000;0.1506;-0.0741;
634.8000;0.1481;-0.0836;
635.1000;0.1416;-0.1123;
635.4000;0.1490;-0.0908;
635.7000;0.1506;-0.0908;
636.0000;0.1465;-0.0908;
636.3000;0.1490;-0.0765;
636.6000;0.1514;-0.0717;
636.9000;0.1473;-0.0860;
637.2000;0.1530;-0.0717;
637.5000;0.1425;-0.1051;
637.8000;0.1490;-0.0836;
638.1000;0.1498;-0.0765;
638.4000;0.1433;-0.0860;
638.7000;0.1481;-0.0812;
639.0000;0.1506;-0.0765;
639.3000;0.1498;-0.0836;
639.6000;0.1498;-0.0956;
639.9000;0.1473;-0.1004;
640.2000;0.1490;-0.0908;
640.5000;0.1490;-0.0860;
640.8000;0.1506;-0.0836;
641.1000;0.1473;-0.1004;
641.4000;0.1481;-0.1028;
641.7000;0.1514;-0.1028;
642.0000;0.1530;-0.0980;
642.3000;0.1473;-0.1004;
642.6000;0.1457;-0.0956;
642.9000;0.1490;-0.0884;
643.2000;0.1416;-0.1051;
643.5000;0.1335;-0.1147;
643.8000;0.1490;-0.0717;
644.1000;0.1481;-0.0765;
644.4000;0.1506;-0.0693;
644.7000;0.1498;-0.0669;
645.0000;0.1457;-0.0836;
645.3000;0.1400;-0.1028;
645.6000;0.1481;-0.0908;
645.9000;0.1481;-0.0908;
646.2000;0.1465;-0.0884;
646.5000;0.1473;-0.0908;
646.8000;0.1473;-0.0932;
647.1000;0.1473;-0.0956;
647.4000;0.1473;-0.1075;
647.7000;0.1481;-0.1028;
648.0000;0.1473;-0.1028;
648.3000;0.1473;-0.1028;
648.6000;0.1490;-0.1004;
648.9000;0.1490;-0.1004;
649.2000;0.1465;-0.1004;
649.5000;0.1506;-0.0980;
649.8000;0.1481;-0.1051;
650.1000;0.1490;-0.1099;
650.4000;0.1498;-0.1028;
650.7000;0.1490;-0.1028;
651.0000;0.1481;-0.1051;
651.3000;0.1457;-0.1028;
651.6000;0.1481;-0.0956;
651.9000;0.1473;-0.1028;
652.2000;0.1481;-0.1004;
652.5000;0.1465;-0.1028;
652.8000;0.1490;-0.1004;
653.1000;0.1473;-0.1004;
653.4000;0.1481;-0.0908;
653.7000;0.1481;-0.0884;
654.0000;0.1481;-0.0908;
654.3000;0.1490;-0.0860;
654.6000;0.1433;-0.1051;
654.9000;0.1490;-0.0789;
655.2000;0.1457;-0.0789;
655.5000;0.1473;-0.0812;
655.8000;0.1498;-0.0741;
656.1000;0.1498;-0.0908;
656.4000;0.1465;-0.0908;
656.7000;0.1465;-0.0908;
657.0000;0.1473;-0.0884;
657.3000;0.1490;-0.0860;
657.6000;0.1473;-0.0956;
657.9000;0.1473;-0.0980;
658.2000;0.1547;-0.0836;
658.5000;0.1506;-0.0980;
658.8000;0.1498;-0.0908;
659.1000;0.1563;-0.0765;
659.4000;0.1481;-0.0908;
659.7000;0.1490;-0.0884;
660.0000;0.1514;-0.0717;
660.3000;0.1538;-0.0669;
660.6000;0.1481;-0.0884;
660.9000;0.1481;-0.0932;
661.2000;0.1343;-0.1219;
661.5000;0.1465;-0.0884;
661.8000;0.1481;-0.0789;
662.1000;0.1473;-0.0789;
662.4000;0.1481;-0.0812;
662.7000;0.1473;-0.0812;
663.0000;0.1481;-0.0908;
663.3000;0.1457;-0.0908;
663.6000;0.1449;-0.0884;
663.9000;0.1490;-0.0717;
664.2000;0.1490;-0.0693;
664.5000;0.1449;-0.0908;
664.8000;0.1457;-0.0836;
665.1000;0.1514;-0.0741;
665.4000;0.1490;-0.0693;
665.7000;0.1490;-0.0669;
666.0000;0.1506;-0.0621;
666.3000;0.1547;-0.0597;
666.6000;0.1473;-0.0908;
666.9000;0.1465;-0.1051;
667.2000;0.1555;-0.0908;
667.5000;0.1490;-0.1051;
667.8000;0.1481;-0.0956;
668.1000;0.1343;-0.1290;
668.4000;0.1441;-0.1004;
668.7000;0.1473;-0.0956;
669.0000;0.1514;-0.0860;
669.3000;0.1587;-0.0669;
669.6000;0.1465;-0.0932;
669.9000;0.1498;-0.0765;
670.2000;0.1473;-0.0908;
670.5000;0.1498;-0.0836;
670.8000;0.1490;-0.0836;
671.1000;0.1498;-0.0908;
671.4000;0.1481;-0.1004;
671.7000;0.1514;-0.0932;
672.0000;0.1481;-0.1004;
672.3000;0.1481;-0.1051;
672.6000;0.1449;-0.1147;
672.9000;0.1481;-0.1051;
673.2000;0.1457;-0.1028;
673.5000;0.1498;-0.1075;
673.8000;0.1473;-0.1147;
674.1000;0.1490;-0.1051;
674.4000;0.1481;-0.1075;
674.7000;0.1473;-0.1004;
675.0000;0.1498;-0.0980;
675.3000;0.1473;-0.1075;
675.6000;0.1522;-0.0884;
675.9000;0.1490;-0.0932;
676.2000;0.1498;-0.0956;
676.5000;0.1498;-0.1004;
676.8000;0.1490;-0.1004;
677.1000;0.1465;-0.0980;
677.4000;0.1498;-0.0932;
677.7000;0.1481;-0.0956;
678.0000;0.1498;-0.0956;
678.3000;0.1473;-0.1099;
678.6000;0.1481;-0.1099;
678.9000;0.1473;-0.1099;
679.2000;0.1498;-0.1028;
679.5000;0.1473;-0.0956;
679.8000;0.1481;-0.0980;
680.1000;0.1465;-0.0956;
680.4000;0.1490;-0.0908;
680.7000;0.1481;-0.0956;
681.0000;0.1481;-0.0956;
681.3000;0.1522;-0.0789;
681.6000;0.1498;-0.0836;
681.9000;0.1490;-0.0812;
682.2000;0.1547;-0.0717;
682.5000;0.1490;-0.0884;
682.8000;0.1473;-0.0789;
683.1000;0.1481;-0.0884;
683.4000;0.1498;-0.0860;
683.7000;0.1481;-0.0932;
684.0000;0.1498;-0.0932;
684.3000;0.1441;-0.1075;
684.6000;0.1490;-0.0932;
684.9000;0.1490;-0.0932;
685.2000;0.1473;-0.0932;
685.5000;0.1538;-0.0741;
685.8000;0.1498;-0.0956;
686.1000;0.1481;-0.0884;
686.4000;0.1425;-0.1028;
686.7000;0.1481;-0.0884;
687.0000;0.1498;-0.0884;
687.3000;0.1506;-0.0860;
687.6000;0.1506;-0.0812;
687.9000;0.1481;-0.0932;
688.2000;0.1481;-0.0932;
688.5000;0.1465;-0.0884;
688.8000;0.1481;-0.0908;
689.1000;0.1449;-0.1004;
689.4000;0.1465;-0.1028;
689.7000;0.1481;-0.1028;
690.0000;0.1449;-0.1075;
690.3000;0.1425;-0.1099;
690.6000;0.1465;-0.0980;
690.9000;0.1481;-0.0908;
691.2000;0.1481;-0.1028;
691.5000;0.1465;-0.1099;
691.8000;0.1481;-0.1075;
692.1000;0.1441;-0.1195;
692.4000;0.1465;-0.1099;
692.7000;0.1506;-0.1051;
693.0000;0.1481;-0.1123;
693.3000;0.1481;-0.1075;
693.6000;0.1498;-0.1004;
693.9000;0.1498;-0.0980;
694.2000;0.1490;-0.1028;
694.5000;0.1522;-0.0980;
694.8000;0.1498;-0.1075;
695.1000;0.1473;-0.1075;
695.4000;0.1490;-0.1099;
695.7000;0.1481;-0.1243;
696.0000;0.1498;-0.1266;
696.3000;0.1457;-0.1338;
696.6000;0.1506;-0.1219;
696.9000;0.1498;-0.1243;
697.2000;0.1506;-0.1219;
697.5000;0.1498;-0.1243;
697.8000;0.1498;-0.1171;
698.1000;0.1473;-0.1243;
698.4000;0.1473;-0.1243;
698.7000;0.1498;-0.1195;
699.0000;0.1473;-0.1338;
699.3000;0.1473;-0.1219;
699.6000;0.1506;-0.1266;
699.9000;0.1506;-0.1266;
700.2000;0.1490;-0.1219;
700.5000;0.1506;-0.1099;
700.8000;0.1481;-0.1195;
701.1000;0.1384;-0.1458;
701.4000;0.1473;-0.1171;
701.7000;0.1604;-0.0717;
702.0000;0.1538;-0.1004;
702.3000;0.1473;-0.1195;
702.6000;0.1449;-0.1314;
702.9000;0.1498;-0.1171;
703.2000;0.1547;-0.0932;
703.5000;0.1457;-0.1123;
703.8000;0.1490;-0.1004;
704.1000;0.1481;-0.0908;
704.4000;0.1457;-0.0956;
704.7000;0.1473;-0.1028;
705.0000;0.1473;-0.1051;
705.3000;0.1473;-0.1051;
705.6000;0.1465;-0.1004;
705.9000;0.1473;-0.0908;
706.2000;0.1425;-0.1075;
706.5000;0.1473;-0.1075;
706.8000;0.1481;-0.1099;
707.1000;0.1457;-0.1099;
707.4000;0.1481;-0.1147;
707.7000;0.1555;-0.1075;
708.0000;0.1498;-0.1290;
708.3000;0.1473;-0.1290;
708.6000;0.1498;-0.1123;
708.9000;0.1473;-0.1147;
709.2000;0.1473;-0.1171;
709.5000;0.1416;-0.1290;
709.8000;0.1433;-0.1171;
710.1000;0.1481;-0.1004;
710.4000;0.1392;-0.1386;
710.7000;0.1563;-0.0932;
711.0000;0.1490;-0.1123;
711.3000;0.1481;-0.1123;
711.6000;0.1449;-0.1147;
711.9000;0.1465;-0.1099;
712.2000;0.1490;-0.1099;
712.5000;0.1490;-0.1051;
712.8000;0.1473;-0.1099;
713.1000;0.1498;-0.1004;
713.4000;0.1490;-0.0932;
713.7000;0.1481;-0.0980;
714.0000;0.1506;-0.1004;
714.3000;0.1498;-0.0932;
714.6000;0.1473;-0.1028;
714.9000;0.1465;-0.1028;
715.2000;0.1490;-0.1028;
715.5000;0.1514;-0.0932;
715.8000;0.1490;-0.0932;
716.1000;0.1481;-0.0980;
716.4000;0.1465;-0.1099;
716.7000;0.1465;-0.1147;
717.0000;0.1481;-0.1171;
717.3000;0.1465;-0.1195;
717.6000;0.1400;-0.1410;
717.9000;0.1473;-0.1123;
718.2000;0.1457;-0.1123;
718.5000;0.1351;-0.1434;
718.8000;0.1425;-0.1290;
719.1000;0.1490;-0.0980;
719.4000;0.1490;-0.0932;
719.7000;0.1498;-0.0908;
720.0000;0.1490;-0.0908;
720.3000;0.1506;-0.0956;
720.6000;0.1473;-0.0980;
720.9000;0.1481;-0.0908;
721.2000;0.1473;-0.0932;
721.5000;0.1514;-0.0741;
721.8000;0.1538;-0.0645;
722.1000;0.1498;-0.0789;
722.4000;0.1481;-0.0812;
722.7000;0.1506;-0.0741;
723.0000;0.1490;-0.0765;
723.3000;0.1498;-0.0812;
723.6000;0.1481;-0.0884;
723.9000;0.1498;-0.0789;
724.2000;0.1514;-0.0741;
724.5000;0.1579;-0.0550;
724.8000;0.1473;-0.0765;
725.1000;0.1481;-0.0789;
725.4000;0.1506;-0.0741;
725.7000;0.1506;-0.0645;
726.0000;0.1498;-0.0669;
726.3000;0.1481;-0.0860;
726.6000;0.1506;-0.0860;
726.9000;0.1473;-0.1004;
727.2000;0.1506;-0.0884;
727.5000;0.1473;-0.0932;
727.8000;0.1490;-0.0884;
728.1000;0.1498;-0.0908;
728.4000;0.1449;-0.1028;
728.7000;0.1449;-0.0956;
729.0000;0.1481;-0.0932;
729.3000;0.1514;-0.0956;
729.6000;0.1481;-0.1028;
729.9000;0.1449;-0.1266;
730.2000;0.1490;-0.1075;
730.5000;0.1457;-0.1171;
730.8000;0.1506;-0.1051;
731.1000;0.1473;-0.1075;
731.4000;0.1490;-0.1075;
731.7000;0.1473;-0.1171;
732.0000;0.1498;-0.1099;
732.3000;0.1392;-0.1362;
732.6000;0.1457;-0.1266;
732.9000;0.1514;-0.1051;
733.2000;0.1481;-0.1147;
733.5000;0.1457;-0.1123;
733.8000;0.1457;-0.1051;
734.1000;0.1481;-0.1075;
734.4000;0.1506;-0.1051;
734.7000;0.1473;-0.1123;
735.0000;0.1506;-0.1004;
735.3000;0.1490;-0.1075;
735.6000;0.1465;-0.1171;
735.9000;0.1498;-0.1028;
736.2000;0.1506;-0.1028;
736.5000;0.1490;-0.1051;
736.8000;0.1465;-0.1171;
737.1000;0.1522;-0.1099;
737.4000;0.1473;-0.1099;
737.7000;0.1368;-0.1314;
738.0000;0.1408;-0.1219;
738.3000;0.1498;-0.0980;
738.6000;0.1481;-0.1004;
738.9000;0.1514;-0.0908;
739.2000;0.1449;-0.1195;
739.5000;0.1473;-0.1123;
739.8000;0.1498;-0.1099;
740.1000;0.1481;-0.1123;
740.4000;0.1498;-0.1123;
740.7000;0.1481;-0.1171;
741.0000;0.1449;-0.1219;
741.3000;0.1490;-0.1171;
741.6000;0.1579;-0.0908;
741.9000;0.1457;-0.1243;
742.2000;0.1490;-0.1099;
742.5000;0.1498;-0.1075;
742.8000;0.1481;-0.1051;
743.1000;0.1473;-0.1099;
743.4000;0.1473;-0.1075;
743.7000;0.1490;-0.1004;
744.0000;0.1465;-0.1147;
744.3000;0.1490;-0.1075;
744.6000;0.1481;-0.0980;
744.9000;0.1490;-0.0884;
745.2000;0.1473;-0.1004;
745.5000;0.1465;-0.0956;
745.8000;0.1481;-0.0956;
746.1000;0.1481;-0.0980;
746.4000;0.1490;-0.1028;
746.7000;0.1481;-0.1028;
747.0000;0.1473;-0.1051;
747.3000;0.1490;-0.0980;
747.6000;0.1506;-0.0932;
747.9000;0.1522;-0.0884;
748.2000;0.1449;-0.0980;
748.5000;0.1530;-0.0765;
748.8000;0.1506;-0.0932;
749.1000;0.1555;-0.0836;
749.4000;0.1465;-0.1051;
749.7000;0.1433;-0.1099;
750.0000;0.1490;-0.0980;
750.3000;0.1490;-0.1051;
750.6000;0.1457;-0.1123;
750.9000;0.1433;-0.1290;
751.2000;0.1490;-0.1171;
751.5000;0.1481;-0.1147;
751.8000;0.1481;-0.1171;
752.1000;0.1490;-0.1075;
752.4000;0.1368;-0.1410;
752.7000;0.1490;-0.1123;
753.0000;0.1465;-0.1195;
753.3000;0.1481;-0.1219;
753.6000;0.1465;-0.1195;
753.9000;0.1457;-0.1219;
754.2000;0.1481;-0.1171;
754.5000;0.1465;-0.1171;
754.8000;0.1441;-0.1266;
755.1000;0.1490;-0.1195;
755.4000;0.1490;-0.1171;
755.7000;0.1490;-0.1171;
756.0000;0.1490;-0.1243;
756.3000;0.1506;-0.1171;
756.6000;0.1506;-0.1123;
756.9000;0.1457;-0.1266;
757.2000;0.1465;-0.1195;
757.5000;0.1547;-0.0956;
757.8000;0.1506;-0.1051;
758.1000;0.1490;-0.1028;
758.4000;0.1555;-0.0789;
758.7000;0.1555;-0.0789;
759.0000;0.1538;-0.0884;
759.3000;0.1416;-0.1219;
759.6000;0.1457;-0.1099;
759.9000;0.1473;-0.1099;
760.2000;0.1449;-0.1171;
760.5000;0.1473;-0.1099;
760.8000;0.1473;-0.1219;
761.1000;0.1514;-0.1099;
761.4000;0.1465;-0.1171;
761.7000;0.1473;-0.1243;
762.0000;0.1473;-0.1266;
762.3000;0.1449;-0.1338;
762.6000;0.1449;-0.1386;
762.9000;0.1514;-0.1243;
763.2000;0.1490;-0.1290;
763.5000;0.1481;-0.1219;
763.8000;0.1481;-0.1099;
764.1000;0.1506;-0.1004;
764.4000;0.1408;-0.1195;
764.7000;0.1473;-0.1004;
765.0000;0.1490;-0.1028;
765.3000;0.1490;-0.1028;
765.6000;0.1425;-0.1195;
765.9000;0.1490;-0.1075;
766.2000;0.1473;-0.1099;
766.5000;0.1530;-0.0956;
766.8000;0.1449;-0.1004;
767.1000;0.1498;-0.1004;
767.4000;0.1506;-0.0980;
767.7000;0.1473;-0.1028;
768.0000;0.1498;-0.0932;
768.3000;0.1506;-0.0980;
768.6000;0.1457;-0.1123;
768.9000;0.1473;-0.1028;
769.2000;0.1506;-0.0980;
769.5000;0.1506;-0.1099;
769.8000;0.1473;-0.1147;
770.1000;0.1473;-0.1243;
770.4000;0.1465;-0.1171;
770.7000;0.1481;-0.1099;
771.0000;0.1490;-0.1051;
771.3000;0.1449;-0.1171;
771.6000;0.1490;-0.1004;
771.9000;0.1498;-0.0956;
772.2000;0.1473;-0.1075;
772.5000;0.1465;-0.1075;
772.8000;0.1473;-0.1075;
773.1000;0.1498;-0.1051;
773.4000;0.1465;-0.1099;
773.7000;0.1522;-0.1004;
774.0000;0.1481;-0.1147;
774.3000;0.1473;-0.1099;
774.6000;0.1498;-0.1075;
774.9000;0.1490;-0.1075;
775.2000;0.1368;-0.1386;
775.5000;0.1473;-0.1051;
775.8000;0.1481;-0.0932;
776.1000;0.1481;-0.1004;
776.4000;0.1473;-0.0980;
776.7000;0.1465;-0.1099;
777.0000;0.1400;-0.1314;
777.3000;0.1294;-0.1505;
777.6000;0.1506;-0.1028;
777.9000;0.1498;-0.0956;
778.2000;0.1490;-0.0932;
778.5000;0.1538;-0.0789;
778.8000;0.1465;-0.0908;
779.1000;0.1457;-0.0932;
779.4000;0.1473;-0.0956;
779.7000;0.1481;-0.1028;
780.0000;0.1514;-0.0956;
780.3000;0.1538;-0.1004;
780.6000;0.1498;-0.1051;
780.9000;0.1498;-0.1075;
781.2000;0.1481;-0.1147;
781.5000;0.1481;-0.1171;
781.8000;0.1465;-0.1171;
782.1000;0.1465;-0.1195;
782.4000;0.1481;-0.1219;
782.7000;0.1571;-0.0908;
783.0000;0.1490;-0.1099;
783.3000;0.1457;-0.1219;
783.6000;0.1490;-0.1075;
783.9000;0.1473;-0.1266;
784.2000;0.1490;-0.1171;
784.5000;0.1457;-0.1195;
784.8000;0.1498;-0.1147;
785.1000;0.1449;-0.1362;
785.4000;0.1481;-0.1314;
785.7000;0.1481;-0.1290;
786.0000;0.1473;-0.1195;
786.3000;0.1595;-0.0836;
786.6000;0.1457;-0.1219;
786.9000;0.1490;-0.1171;
787.2000;0.1473;-0.1219;
787.5000;0.1481;-0.1219;
787.8000;0.1490;-0.1123;
788.1000;0.1449;-0.1266;
788.4000;0.1465;-0.1195;
788.7000;0.1490;-0.1051;
789.0000;0.1457;-0.1075;
789.3000;0.1506;-0.0956;
789.6000;0.1490;-0.1028;
789.9000;0.1481;-0.1028;
790.2000;0.1490;-0.0980;
790.5000;0.1490;-0.1004;
790.8000;0.1498;-0.1004;
791.1000;0.1490;-0.1004;
791.4000;0.1473;-0.1051;
791.7000;0.1490;-0.0956;
792.0000;0.1506;-0.0932;
792.3000;0.1473;-0.1028;
792.6000;0.1490;-0.0956;
792.9000;0.1490;-0.0980;
793.2000;0.1481;-0.1028;
793.5000;0.1473;-0.1099;
793.8000;0.1498;-0.1147;
794.1000;0.1441;-0.1266;
794.4000;0.1481;-0.1171;
794.7000;0.1490;-0.1171;
795.0000;0.1481;-0.1171;
795.3000;0.1473;-0.1338;
795.6000;0.1449;-0.1386;
795.9000;0.1449;-0.1362;
796.2000;0.1498;-0.1266;
796.5000;0.1343;-0.1505;
796.8000;0.1498;-0.1147;
797.1000;0.1465;-0.1219;
797.4000;0.1481;-0.1147;
797.7000;0.1481;-0.1219;
798.0000;0.1376;-0.1577;
798.3000;0.1490;-0.1243;
798.6000;0.1481;-0.1195;
798.9000;0.1490;-0.1123;
799.2000;0.1473;-0.1171;
799.5000;0.1506;-0.1004;
799.8000;0.1465;-0.1075;
800.1000;0.1498;-0.0884;
800.4000;0.1579;-0.0669;
800.7000;0.1490;-0.0836;
801.0000;0.1490;-0.0884;
801.3000;0.1514;-0.0884;
801.6000;0.1490;-0.0932;
801.9000;0.1490;-0.0932;
802.2000;0.1441;-0.1123;
802.5000;0.1465;-0.0980;
802.8000;0.1490;-0.1051;
803.1000;0.1490;-0.1075;
803.4000;0.1481;-0.1051;
803.7000;0.1481;-0.1099;
804.0000;0.1473;-0.1147;
804.3000;0.1473;-0.1147;
804.6000;0.1465;-0.1171;
804.9000;0.1490;-0.1195;
805.2000;0.1481;-0.1195;
805.5000;0.1506;-0.1195;
805.8000;0.1538;-0.1004;
806.1000;0.1465;-0.1219;
806.4000;0.1481;-0.1099;
806.7000;0.1473;-0.1051;
807.0000;0.1457;-0.1075;
807.3000;0.1481;-0.0956;
807.6000;0.1416;-0.1099;
807.9000;0.1498;-0.0908;
808.2000;0.1490;-0.0932;
808.5000;0.1465;-0.0956;
808.8000;0.1490;-0.0932;
809.1000;0.1465;-0.0980;
809.4000;0.1481;-0.0908;
809.7000;0.1490;-0.0860;
810.0000;0.1425;-0.1028;
810.3000;0.1481;-0.1004;
810.6000;0.1498;-0.1004;
810.9000;0.1490;-0.1051;
811.2000;0.1481;-0.1195;
811.5000;0.1457;-0.1219;
811.8000;0.1473;-0.1195;
812.1000;0.1481;-0.1171;
812.4000;0.1457;-0.1123;
812.7000;0.1473;-0.1147;
813.0000;0.1465;-0.1147;
813.3000;0.1514;-0.0932;
813.6000;0.1473;-0.0932;
813.9000;0.1490;-0.0932;
814.2000;0.1506;-0.0908;
814.5000;0.1473;-0.0932;
814.8000;0.1481;-0.0932;
815.1000;0.1473;-0.0932;
815.4000;0.1465;-0.1004;
815.7000;0.1481;-0.0884;
816.0000;0.1465;-0.0932;
816.3000;0.1465;-0.0980;
816.6000;0.1506;-0.0860;
816.9000;0.1571;-0.0693;
817.2000;0.1538;-0.0884;
817.5000;0.1441;-0.1075;
817.8000;0.1522;-0.0884;
818.1000;0.1473;-0.0908;
818.4000;0.1490;-0.0836;
818.7000;0.1522;-0.0812;
819.0000;0.1498;-0.0836;
819.3000;0.1490;-0.0812;
819.6000;0.1465;-0.0884;
819.9000;0.1449;-0.0860;
820.2000;0.1441;-0.0956;
820.5000;0.1490;-0.0980;
820.8000;0.1481;-0.1028;
821.1000;0.1425;-0.1147;
821.4000;0.1481;-0.0956;
821.7000;0.1473;-0.1004;
822.0000;0.1506;-0.0908;
822.3000;0.1506;-0.0884;
822.6000;0.1465;-0.0956;
822.9000;0.1473;-0.0908;
823.2000;0.1441;-0.0956;
823.5000;0.1449;-0.0884;
823.8000;0.1498;-0.0860;
824.1000;0.1457;-0.0884;
824.4000;0.1302;-0.1338;
824.7000;0.1490;-0.0908;
825.0000;0.1433;-0.1051;
825.3000;0.1506;-0.0860;
825.6000;0.1465;-0.0956;
825.9000;0.1506;-0.0932;
826.2000;0.1481;-0.1004;
826.5000;0.1506;-0.1075;
826.8000;0.1490;-0.1147;
827.1000;0.1490;-0.1051;
827.4000;0.1481;-0.1028;
827.7000;0.1498;-0.0980;
828.0000;0.1481;-0.0956;
828.3000;0.1473;-0.1028;
828.6000;0.1473;-0.1099;
828.9000;0.1481;-0.1123;
829.2000;0.1490;-0.1075;
829.5000;0.1490;-0.1123;
829.8000;0.1481;-0.1195;
830.1000;0.1473;-0.1123;
830.4000;0.1490;-0.1051;
830.7000;0.1457;-0.1195;
831.0000;0.1490;-0.1171;
831.3000;0.1465;-0.1195;
831.6000;0.1514;-0.1099;
831.9000;0.1481;-0.1219;
832.2000;0.1490;-0.1171;
832.5000;0.1473;-0.1195;
832.8000;0.1473;-0.1123;
833.1000;0.1473;-0.1075;
833.4000;0.1481;-0.0980;
833.7000;0.1473;-0.0980;
834.0000;0.1465;-0.1004;
834.3000;0.1465;-0.1028;
834.6000;0.1473;-0.1028;
834.9000;0.1465;-0.1051;
835.2000;0.1473;-0.0956;
835.5000;0.1481;-0.0980;
835.8000;0.1490;-0.0932;
836.1000;0.1441;-0.1004;
836.4000;0.1490;-0.0860;
836.7000;0.1351;-0.1219;
837.0000;0.1490;-0.0836;
837.3000;0.1473;-0.0980;
837.6000;0.1498;-0.0908;
837.9000;0.1449;-0.1004;
838.2000;0.1481;-0.0932;
838.5000;0.1490;-0.0932;
838.8000;0.1465;-0.0932;
839.1000;0.1441;-0.0932;
839.4000;0.1490;-0.0765;
839.7000;0.1473;-0.0860;
840.0000;0.1506;-0.0956;
840.3000;0.1481;-0.1099;
840.6000;0.1465;-0.1123;
840.9000;0.1449;-0.1171;
841.2000;0.1481;-0.1051;
841.5000;0.1457;-0.1099;
841.8000;0.1481;-0.1028;
842.1000;0.1481;-0.1075;
842.4000;0.1481;-0.1051;
842.7000;0.1473;-0.1004;
843.0000;0.1490;-0.1004;
843.3000;0.1473;-0.0956;
843.6000;0.1481;-0.0932;
843.9000;0.1498;-0.0884;
844.2000;0.1522;-0.0908;
844.5000;0.1498;-0.0932;
844.8000;0.1498;-0.0908;
845.1000;0.1425;-0.1195;
845.4000;0.1490;-0.1028;
845.7000;0.1465;-0.1123;
846.0000;0.1547;-0.0956;
846.3000;0.1514;-0.1004;
846.6000;0.1490;-0.1099;
846.9000;0.1473;-0.1099;
847.2000;0.1481;-0.1051;
847.5000;0.1473;-0.1099;
847.8000;0.1490;-0.1099;
848.1000;0.1506;-0.1051;
848.4000;0.1457;-0.1195;
848.7000;0.1481;-0.1171;
849.0000;0.1449;-0.1147;
849.3000;0.1563;-0.0932;
849.6000;0.1498;-0.1147;
849.9000;0.1506;-0.1219;
850.2000;0.1481;-0.1195;
850.5000;0.1473;-0.1243;
850.8000;0.1498;-0.1171;
851.1000;0.1490;-0.1195;
851.4000;0.1473;-0.1266;
851.7000;0.1481;-0.1219;
852.0000;0.1498;-0.1147;
852.3000;0.1481;-0.1195;
852.6000;0.1465;-0.1219;
852.9000;0.1538;-0.1051;
853.2000;0.1514;-0.1147;
853.5000;0.1522;-0.1028;
853.8000;0.1498;-0.1028;
854.1000;0.1457;-0.1004;
854.4000;0.1473;-0.0980;
854.7000;0.1506;-0.0908;
855.0000;0.1465;-0.1051;
855.3000;0.1465;-0.1123;
855.6000;0.1481;-0.1051;
855.9000;0.1490;-0.0956;
856.2000;0.1473;-0.1147;
856.5000;0.1433;-0.1338;
856.8000;0.1490;-0.1219;
857.1000;0.1490;-0.1219;
857.4000;0.1490;-0.1290;
857.7000;0.1490;-0.1243;
858.0000;0.1449;-0.1338;
858.3000;0.1490;-0.1219;
858.6000;0.1490;-0.1171;
858.9000;0.1481;-0.1243;
859.2000;0.1490;-0.1147;
859.5000;0.1457;-0.1099;
859.8000;0.1522;-0.0932;
860.1000;0.1416;-0.1219;
860.4000;0.1449;-0.1099;
860.7000;0.1498;-0.0956;
861.0000;0.1481;-0.0980;
861.3000;0.1457;-0.1075;
861.6000;0.1473;-0.0980;
861.9000;0.1481;-0.0908;
862.2000;0.1473;-0.0932;
862.5000;0.1481;-0.0860;
862.8000;0.1490;-0.0789;
863.1000;0.1473;-0.0836;
863.4000;0.1490;-0.0884;
863.7000;0.1481;-0.0812;
864.0000;0.1433;-0.1075;
864.3000;0.1498;-0.0908;
864.6000;0.1433;-0.1075;
864.9000;0.1490;-0.0812;
865.2000;0.1490;-0.0789;
865.5000;0.1490;-0.0765;
865.8000;0.1498;-0.0789;
866.1000;0.1473;-0.0860;
866.4000;0.1465;-0.0980;
866.7000;0.1425;-0.1123;
867.0000;0.1449;-0.1051;
867.3000;0.1547;-0.0717;
867.6000;0.1481;-0.0980;
867.9000;0.1481;-0.0980;
868.2000;0.1498;-0.1028;
868.5000;0.1457;-0.1171;
868.8000;0.1473;-0.1099;
869.1000;0.1490;-0.0956;
869.4000;0.1473;-0.1004;
869.7000;0.1457;-0.1075;
870.0000;0.1490;-0.1004;
870.3000;0.1522;-0.0932;
870.6000;0.1481;-0.0980;
870.9000;0.1514;-0.0956;
871.2000;0.1481;-0.1051;
871.5000;0.1506;-0.1075;
871.8000;0.1498;-0.1099;
872.1000;0.1490;-0.1171;
872.4000;0.1514;-0.1171;
872.7000;0.1490;-0.1266;
873.0000;0.1530;-0.1123;
873.3000;0.1457;-0.1243;
873.6000;0.1473;-0.1099;
873.9000;0.1490;-0.1004;
874.2000;0.1481;-0.1028;
874.5000;0.1473;-0.1099;
874.8000;0.1481;-0.1004;
875.1000;0.1457;-0.1028;
875.4000;0.1473;-0.0980;
875.7000;0.1481;-0.0980;
876.0000;0.1490;-0.0908;
876.3000;0.1587;-0.0669;
876.6000;0.1490;-0.0908;
876.9000;0.1465;-0.1075;
877.2000;0.1473;-0.1004;
877.5000;0.1490;-0.1051;
877.8000;0.1514;-0.0932;
878.1000;0.1481;-0.1099;
878.4000;0.1490;-0.1075;
878.7000;0.1481;-0.1123;
879.0000;0.1506;-0.1075;
879.3000;0.1473;-0.1099;
879.6000;0.1473;-0.1051;
879.9000;0.1457;-0.1147;
880.2000;0.1473;-0.1147;
880.5000;0.1465;-0.1171;
880.8000;0.1481;-0.1051;
881.1000;0.1481;-0.1051;
881.4000;0.1376;-0.1338;
881.7000;0.1473;-0.1099;
882.0000;0.1498;-0.1075;
882.3000;0.1547;-0.0908;
882.6000;0.1481;-0.1147;
882.9000;0.1465;-0.1219;
883.2000;0.1498;-0.1123;
883.5000;0.1490;-0.1123;
883.8000;0.1465;-0.1123;
884.1000;0.1481;-0.1099;
884.4000;0.1473;-0.1266;
884.7000;0.1498;-0.1290;
885.0000;0.1441;-0.1410;
885.3000;0.1498;-0.1219;
885.6000;0.1506;-0.1243;
885.9000;0.1490;-0.1290;
886.2000;0.1490;-0.1195;
886.5000;0.1481;-0.1147;
886.8000;0.1490;-0.1171;
887.1000;0.1506;-0.1028;
887.4000;0.1490;-0.1075;
887.7000;0.1481;-0.1099;
888.0000;0.1498;-0.1147;
888.3000;0.1490;-0.1195;
888.6000;0.1490;-0.1171;
888.9000;0.1498;-0.1195;
889.2000;0.1498;-0.1219;
889.5000;0.1457;-0.1266;
889.8000;0.1522;-0.1075;
890.1000;0.1481;-0.1195;
890.4000;0.1498;-0.1123;
890.7000;0.1490;-0.1123;
891.0000;0.1473;-0.1171;
891.3000;0.1563;-0.0908;
891.6000;0.1408;-0.1386;
891.9000;0.1473;-0.1195;
892.2000;0.1555;-0.0980;
892.5000;0.1498;-0.1266;
892.8000;0.1490;-0.1243;
893.1000;0.1481;-0.1290;
893.4000;0.1465;-0.1314;
893.7000;0.1506;-0.1243;
894.0000;0.1465;-0.1266;
894.3000;0.1506;-0.1195;
894.6000;0.1506;-0.1075;
894.9000;0.1506;-0.1028;
895.2000;0.1490;-0.1051;
895.5000;0.1522;-0.0980;
895.8000;0.1481;-0.1147;
896.1000;0.1490;-0.1123;
896.4000;0.1530;-0.1028;
896.7000;0.1498;-0.1075;
897.0000;0.1481;-0.1099;
897.3000;0.1571;-0.0908;
897.6000;0.1473;-0.1171;
897.9000;0.1490;-0.1147;
898.2000;0.1490;-0.1171;
898.5000;0.1538;-0.1075;
898.8000;0.1506;-0.1171;
899.1000;0.1522;-0.1171;
899.4000;0.1620;-0.0956;
899.7000;0.1490;-0.1338;
900.0000;0.1506;-0.1147;
900.3000;0.1490;-0.1147;
900.6000;0.1473;-0.1219;
900.9000;0.1473;-0.1195;
901.2000;0.1465;-0.1171;
901.5000;0.1481;-0.1243;
901.8000;0.1465;-0.1314;
902.1000;0.1490;-0.1219;
902.4000;0.1465;-0.1243;
902.7000;0.1481;-0.1171;
903.0000;0.1473;-0.1266;
903.3000;0.1538;-0.1123;
903.6000;0.1490;-0.1243;
903.9000;0.1514;-0.1171;
904.2000;0.1481;-0.1290;
904.5000;0.1473;-0.1290;
904.8000;0.1490;-0.1290;
905.1000;0.1433;-0.1434;
905.4000;0.1400;-0.1458;
905.7000;0.1473;-0.1243;
906.0000;0.1506;-0.1266;
906.3000;0.1498;-0.1338;
906.6000;0.1441;-0.1410;
906.9000;0.1473;-0.1266;
907.2000;0.1481;-0.1171;
907.5000;0.1490;-0.1195;
907.8000;0.1481;-0.1338;
908.1000;0.1425;-0.1529;
908.4000;0.1481;-0.1290;
908.7000;0.1481;-0.1290;
909.0000;0.1490;-0.1266;
909.3000;0.1490;-0.1290;
909.6000;0.1465;-0.1410;
909.9000;0.1481;-0.1410;
910.2000;0.1506;-0.1314;
910.5000;0.1473;-0.1362;
910.8000;0.1490;-0.1410;
911.1000;0.1473;-0.1505;
911.4000;0.1473;-0.1434;
911.7000;0.1473;-0.1434;
912.0000;0.1506;-0.1338;
912.3000;0.1481;-0.1362;
912.6000;0.1490;-0.1266;
912.9000;0.1481;-0.1243;
913.2000;0.1465;-0.1290;
913.5000;0.1481;-0.1314;
913.8000;0.1473;-0.1290;
914.1000;0.1514;-0.1171;
914.4000;0.1490;-0.1219;
914.7000;0.1473;-0.1290;
915.0000;0.1473;-0.1314;
915.3000;0.1514;-0.1243;
915.6000;0.1490;-0.1290;
915.9000;0.1547;-0.1075;
916.2000;0.1416;-0.1386;
916.5000;0.1490;-0.1266;
916.8000;0.1498;-0.1171;
917.1000;0.1498;-0.1147;
917.4000;0.1498;-0.1147;
917.7000;0.1490;-0.1219;
918.0000;0.1473;-0.1314;
918.3000;0.1376;-0.1601;
918.6000;0.1473;-0.1219;
918.9000;0.1490;-0.1147;
919.2000;0.1473;-0.1075;
919.5000;0.1490;-0.1051;
919.8000;0.1490;-0.1075;
920.1000;0.1490;-0.1004;
920.4000;0.1490;-0.0860;
920.7000;0.1490;-0.0789;
921.0000;0.1481;-0.0884;
921.3000;0.1481;-0.0908;
921.6000;0.1481;-0.0980;
921.9000;0.1465;-0.1099;
922.2000;0.1481;-0.1051;
922.5000;0.1530;-0.0932;
922.8000;0.1506;-0.1051;
923.1000;0.1481;-0.1147;
923.4000;0.1506;-0.1075;
923.7000;0.1473;-0.1171;
924.0000;0.1408;-0.1362;
924.3000;0.1490;-0.1147;
924.6000;0.1481;-0.1171;
924.9000;0.1441;-0.1290;
925.2000;0.1506;-0.1219;
925.5000;0.1506;-0.1219;
925.8000;0.1506;-0.1195;
926.1000;0.1498;-0.1219;
926.4000;0.1481;-0.1266;
926.7000;0.1481;-0.1219;
927.0000;0.1490;-0.1147;
927.3000;0.1490;-0.1147;
927.6000;0.1490;-0.1075;
927.9000;0.1473;-0.1099;
928.2000;0.1498;-0.1123;
928.5000;0.1490;-0.1051;
928.8000;0.1490;-0.1051;
929.1000;0.1481;-0.1051;
929.4000;0.1506;-0.1004;
929.7000;0.1498;-0.1004;
930.0000;0.1498;-0.1028;
930.3000;0.1416;-0.1219;
930.6000;0.1490;-0.1051;
930.9000;0.1473;-0.1171;
931.2000;0.1481;-0.1123;
931.5000;0.1481;-0.1123;
931.8000;0.1481;-0.1099;
932.1000;0.1465;-0.1099;
932.4000;0.1490;-0.1099;
932.7000;0.1506;-0.1171;
933.0000;0.1457;-0.1338;
933.3000;0.1473;-0.1338;
933.6000;0.1481;-0.1386;
933.9000;0.1473;-0.1362;
934.2000;0.1490;-0.1338;
934.5000;0.1490;-0.1386;
934.8000;0.1481;-0.1482;
935.1000;0.1563;-0.1266;
935.4000;0.1465;-0.1458;
935.7000;0.1506;-0.1338;
936.0000;0.1473;-0.1386;
936.3000;0.1514;-0.1266;
936.6000;0.1473;-0.1386;
936.9000;0.1555;-0.1099;
937.2000;0.1400;-0.1505;
937.5000;0.1473;-0.1290;
937.8000;0.1473;-0.1266;
938.1000;0.1416;-0.1434;
938.4000;0.1473;-0.1195;
938.7000;0.1311;-0.1601;
939.0000;0.1449;-0.1266;
939.3000;0.1490;-0.1171;
939.6000;0.1481;-0.1171;
939.9000;0.1449;-0.1266;
940.2000;0.1433;-0.1243;
940.5000;0.1441;-0.1171;
940.8000;0.1481;-0.1075;
941.1000;0.1473;-0.1123;
941.4000;0.1465;-0.1171;
941.7000;0.1473;-0.1099;
942.0000;0.1506;-0.1051;
942.3000;0.1506;-0.1099;
942.6000;0.1490;-0.1123;
942.9000;0.1465;-0.1219;
943.2000;0.1465;-0.1195;
943.5000;0.1465;-0.1123;
943.8000;0.1481;-0.1147;
944.1000;0.1473;-0.1099;
944.4000;0.1579;-0.0860;
944.7000;0.1416;-0.1290;
945.0000;0.1490;-0.1075;
945.3000;0.1490;-0.1099;
945.6000;0.1481;-0.1171;
945.9000;0.1481;-0.1219;
946.2000;0.1481;-0.1195;
946.5000;0.1473;-0.1243;
946.8000;0.1465;-0.1219;
947.1000;0.1522;-0.1051;
947.4000;0.1498;-0.1147;
947.7000;0.1449;-0.1314;
948.0000;0.1481;-0.1099;
948.3000;0.1498;-0.1075;
948.6000;0.1506;-0.0980;
948.9000;0.1595;-0.0669;
949.2000;0.1481;-0.1051;
949.5000;0.1408;-0.1290;
949.8000;0.1514;-0.1028;
950.1000;0.1481;-0.1099;
950.4000;0.1498;-0.1028;
950.7000;0.1490;-0.1051;
951.0000;0.1506;-0.1028;
951.3000;0.1473;-0.1099;
951.6000;0.1481;-0.1075;
951.9000;0.1481;-0.1075;
952.2000;0.1490;-0.1051;
952.5000;0.1416;-0.1266;
952.8000;0.1481;-0.1123;
953.1000;0.1376;-0.1482;
953.4000;0.1490;-0.1147;
953.7000;0.1449;-0.1195;
954.0000;0.1473;-0.1219;
954.3000;0.1481;-0.1243;
954.6000;0.1506;-0.1290;
954.9000;0.1490;-0.1290;
955.2000;0.1465;-0.1290;
955.5000;0.1457;-0.1314;
955.8000;0.1481;-0.1314;
956.1000;0.1473;-0.1243;
956.4000;0.1465;-0.1219;
956.7000;0.1481;-0.1195;
957.0000;0.1514;-0.1147;
957.3000;0.1481;-0.1171;
957.6000;0.1498;-0.1051;
957.9000;0.1490;-0.1099;
958.2000;0.1506;-0.1028;
958.5000;0.1473;-0.1123;
958.8000;0.1481;-0.1171;
959.1000;0.1490;-0.1099;
959.4000;0.1506;-0.1028;
959.7000;0.1481;-0.1147;
960.0000;0.1481;-0.1099;
960.3000;0.1465;-0.1075;
960.6000;0.1465;-0.1123;
960.9000;0.1604;-0.0717;
961.2000;0.1490;-0.1028;
961.5000;0.1465;-0.1099;
961.8000;0.1490;-0.1171;
962.1000;0.1481;-0.1147;
962.4000;0.1498;-0.1123;
962.7000;0.1473;-0.1195;
963.0000;0.1490;-0.1219;
963.3000;0.1465;-0.1243;
963.6000;0.1473;-0.1123;
963.9000;0.1522;-0.0980;
964.2000;0.1490;-0.1028;
964.5000;0.1481;-0.1099;
964.8000;0.1481;-0.1028;
965.1000;0.1481;-0.1028;
965.4000;0.1571;-0.0812;
965.7000;0.1465;-0.1123;
966.0000;0.1425;-0.1219;
966.3000;0.1490;-0.1099;
966.6000;0.1449;-0.1123;
966.9000;0.1498;-0.1028;
967.2000;0.1498;-0.1004;
967.5000;0.1490;-0.0980;
967.8000;0.1481;-0.1099;
968.1000;0.1490;-0.1051;
968.4000;0.1530;-0.0980;
968.7000;0.1498;-0.1099;
969.0000;0.1441;-0.1147;
969.3000;0.1490;-0.1075;
969.6000;0.1506;-0.1051;
969.9000;0.1481;-0.1171;
970.2000;0.1473;-0.1243;
970.5000;0.1490;-0.1195;
970.8000;0.1473;-0.1219;
971.1000;0.1506;-0.1219;
971.4000;0.1481;-0.1314;
971.7000;0.1473;-0.1362;
972.0000;0.1481;-0.1314;
972.3000;0.1514;-0.1219;
972.6000;0.1481;-0.1195;
972.9000;0.1473;-0.1171;
973.2000;0.1555;-0.1075;
973.5000;0.1498;-0.1171;
973.8000;0.1465;-0.1243;
974.1000;0.1473;-0.1219;
974.4000;0.1473;-0.1219;
974.7000;0.1465;-0.1195;
975.0000;0.1473;-0.1195;
975.3000;0.1498;-0.1123;
975.6000;0.1465;-0.1147;
975.9000;0.1514;-0.1051;
976.2000;0.1547;-0.0980;
976.5000;0.1498;-0.1075;
976.8000;0.1465;-0.1123;
977.1000;0.1490;-0.1075;
977.4000;0.1490;-0.1147;
977.7000;0.1481;-0.1075;
978.0000;0.1506;-0.1051;
978.3000;0.1441;-0.1171;
978.6000;0.1490;-0.1028;
978.9000;0.1490;-0.1075;
979.2000;0.1473;-0.1075;
979.5000;0.1481;-0.1099;
979.8000;0.1457;-0.1171;
980.1000;0.1481;-0.1147;
980.4000;0.1473;-0.1075;
980.7000;0.1481;-0.1075;
981.0000;0.1490;-0.1051;
981.3000;0.1481;-0.1028;
981.6000;0.1498;-0.0956;
981.9000;0.1506;-0.0980;
982.2000;0.1481;-0.1028;
982.5000;0.1490;-0.1028;
982.8000;0.1481;-0.1028;
983.1000;0.1498;-0.0980;
983.4000;0.1522;-0.0860;
983.7000;0.1481;-0.0956;
984.0000;0.1473;-0.0980;
984.3000;0.1457;-0.1028;
984.6000;0.1473;-0.0956;
984.9000;0.1506;-0.0956;
985.2000;0.1465;-0.1028;
985.5000;0.1465;-0.0980;
985.8000;0.1465;-0.0956;
986.1000;0.1481;-0.0956;
986.4000;0.1473;-0.1028;
986.7000;0.1449;-0.1123;
987.0000;0.1425;-0.1243;
987.3000;0.1473;-0.1195;
987.6000;0.1490;-0.1075;
987.9000;0.1473;-0.1099;
988.2000;0.1490;-0.1099;
988.5000;0.1473;-0.1171;
988.8000;0.1555;-0.0980;
989.1000;0.1465;-0.1219;
989.4000;0.1473;-0.1195;
989.7000;0.1530;-0.1075;
990.0000;0.1481;-0.1147;
990.3000;0.1498;-0.1099;
990.6000;0.1522;-0.1123;
990.9000;0.1522;-0.1147;
991.2000;0.1490;-0.1195;
991.5000;0.1473;-0.1195;
991.8000;0.1359;-0.1529;
992.1000;0.1506;-0.1219;
992.4000;0.1490;-0.1243;
992.7000;0.1498;-0.1219;
993.0000;0.1481;-0.1243;
993.3000;0.1465;-0.1266;
993.6000;0.1359;-0.1482;
993.9000;0.1514;-0.1028;
994.2000;0.1506;-0.1099;
994.5000;0.1481;-0.1099;
994.8000;0.1457;-0.1099;
995.1000;0.1481;-0.1004;
995.4000;0.1579;-0.0812;
995.7000;0.1506;-0.0956;
996.0000;0.1498;-0.1051;
996.3000;0.1506;-0.1123;
996.6000;0.1490;-0.1147;
996.9000;0.1465;-0.1147;
997.2000;0.1490;-0.1075;
997.5000;0.1473;-0.1099;
997.8000;0.1481;-0.1028;
998.1000;0.1498;-0.1147;
998.4000;0.1473;-0.1338;
998.7000;0.1490;-0.1266;
999.0000;0.1465;-0.1290;
999.3000;0.1490;-0.1219;
999.6000;0.1465;-0.1314;
999.9000;0.1506;-0.1290;
1000.2000;0.1490;-0.1314;
1000.5000;0.1490;-0.1338;
1000.8000;0.1506;-0.1290;
1001.1000;0.1481;-0.1362;
1001.4000;0.1473;-0.1386;
1001.7000;0.1490;-0.1338;
1002.0000;0.1498;-0.1219;
1002.3000;0.1473;-0.1290;
1002.6000;0.1481;-0.1362;
1002.9000;0.1441;-0.1482;
1003.2000;0.1473;-0.1458;
1003.5000;0.1481;-0.1410;
1003.8000;0.1473;-0.1410;
1004.1000;0.1473;-0.1362;
1004.4000;0.1490;-0.1290;
1004.7000;0.1465;-0.1362;
1005.0000;0.1473;-0.1386;
1005.3000;0.1490;-0.1219;
1005.6000;0.1506;-0.1028;
1005.9000;0.1498;-0.1051;
1006.2000;0.1490;-0.1051;
1006.5000;0.1457;-0.1195;
1006.8000;0.1604;-0.0908;
1007.1000;0.1498;-0.1338;
1007.4000;0.1400;-0.1529;
1007.7000;0.1498;-0.1219;
1008.0000;0.1490;-0.1171;
1008.3000;0.1449;-0.1266;
1008.6000;0.1514;-0.1171;
1008.9000;0.1530;-0.1147;
1009.2000;0.1408;-0.1386;
1009.5000;0.1465;-0.1290;
1009.8000;0.1481;-0.1195;
1010.1000;0.1514;-0.1099;
1010.4000;0.1490;-0.1123;
1010.7000;0.1457;-0.1219;
1011.0000;0.1490;-0.1099;
1011.3000;0.1490;-0.1147;
1011.6000;0.1530;-0.1099;
1011.9000;0.1498;-0.1195;
1012.2000;0.1514;-0.1171;
1012.5000;0.1563;-0.1123;
1012.8000;0.1555;-0.1075;
1013.1000;0.1473;-0.1219;
1013.4000;0.1473;-0.1290;
1013.7000;0.1498;-0.1243;
1014.0000;0.1481;-0.1314;
1014.3000;0.1514;-0.1219;
1014.6000;0.1490;-0.1386;
1014.9000;0.1481;-0.1338;
1015.2000;0.1473;-0.1338;
1015.5000;0.1514;-0.1195;
1015.8000;0.1481;-0.1266;
1016.1000;0.1481;-0.1195;
1016.4000;0.1465;-0.1290;
1016.7000;0.1465;-0.1314;
1017.0000;0.1481;-0.1243;
1017.3000;0.1490;-0.1219;
1017.6000;0.1498;-0.1195;
1017.9000;0.1433;-0.1362;
1018.2000;0.1490;-0.1219;
1018.5000;0.1498;-0.1147;
1018.8000;0.1547;-0.1075;
1019.1000;0.1481;-0.1243;
1019.4000;0.1506;-0.1171;
1019.7000;0.1498;-0.1099;
1020.0000;0.1465;-0.1243;
1020.3000;0.1473;-0.1051;
1020.6000;0.1465;-0.1123;
1020.9000;0.1506;-0.1099;
1021.2000;0.1473;-0.1219;
1021.5000;0.1498;-0.1171;
1021.8000;0.1498;-0.1219;
1022.1000;0.1400;-0.1553;
1022.4000;0.1481;-0.1266;
1022.7000;0.1473;-0.1290;
1023.0000;0.1481;-0.1195;
1023.3000;0.1416;-0.1362;
1023.6000;0.1449;-0.1314;
1023.9000;0.1457;-0.1314;
1024.2000;0.1481;-0.1290;
1024.5000;0.1514;-0.1290;
1024.8000;0.1498;-0.1338;
1025.1000;0.1498;-0.1314;
1025.4000;0.1481;-0.1338;
1025.7000;0.1449;-0.1386;
1026.0000;0.1416;-0.1458;
1026.3000;0.1506;-0.1243;
1026.6000;0.1506;-0.1338;
1026.9000;0.1490;-0.1362;
1027.2000;0.1481;-0.1338;
1027.5000;0.1490;-0.1386;
1027.8000;0.1514;-0.1338;
1028.1000;0.1408;-0.1505;
1028.4000;0.1465;-0.1314;
1028.7000;0.1481;-0.1314;
1029.0000;0.1498;-0.1243;
1029.3000;0.1498;-0.1195;
1029.6000;0.1506;-0.1123;
1029.9000;0.1449;-0.1290;
1030.2000;0.1538;-0.1004;
1030.5000;0.1506;-0.1099;
1030.8000;0.1481;-0.1243;
1031.1000;0.1481;-0.1266;
1031.4000;0.1457;-0.1362;
1031.7000;0.1481;-0.1266;
1032.0000;0.1595;-0.0932;
1032.3000;0.1498;-0.1195;
1032.6000;0.1457;-0.1219;
1032.9000;0.1473;-0.1004;
1033.2000;0.1522;-0.0932;
1033.5000;0.1506;-0.1004;
1033.8000;0.1490;-0.1051;
1034.1000;0.1571;-0.0956;
1034.4000;0.1425;-0.1338;
1034.7000;0.1473;-0.1171;
1035.0000;0.1449;-0.1243;
1035.3000;0.1490;-0.1099;
1035.6000;0.1441;-0.1171;
1035.9000;0.1473;-0.1004;
1036.2000;0.1506;-0.0908;
1036.5000;0.1555;-0.0789;
1036.8000;0.1473;-0.1028;
1037.1000;0.1506;-0.0980;
1037.4000;0.1473;-0.1028;
1037.7000;0.1506;-0.0884;
1038.0000;0.1538;-0.0765;
1038.3000;0.1481;-0.0932;
1038.6000;0.1465;-0.0932;
1038.9000;0.1506;-0.0812;
1039.2000;0.1465;-0.0884;
1039.5000;0.1473;-0.0908;
1039.8000;0.1522;-0.0836;
1040.1000;0.1473;-0.1004;
1040.4000;0.1481;-0.1075;
1040.7000;0.1425;-0.1219;
1041.0000;0.1473;-0.1075;
1041.3000;0.1473;-0.1123;
1041.6000;0.1465;-0.1195;
1041.9000;0.1490;-0.1147;
1042.2000;0.1457;-0.1266;
1042.5000;0.1498;-0.1171;
1042.8000;0.1498;-0.1171;
1043.1000;0.1514;-0.1051;
1043.4000;0.1473;-0.1243;
1043.7000;0.1481;-0.1290;
1044.0000;0.1490;-0.1290;
1044.3000;0.1490;-0.1314;
1044.6000;0.1547;-0.1171;
1044.9000;0.1498;-0.1338;
1045.2000;0.1490;-0.1243;
1045.5000;0.1498;-0.1075;
1045.8000;0.1490;-0.1123;
1046.1000;0.1425;-0.1266;
1046.4000;0.1587;-0.0836;
1046.7000;0.1547;-0.0956;
1047.0000;0.1490;-0.1099;
1047.3000;0.1457;-0.1266;
1047.6000;0.1441;-0.1219;
1047.9000;0.1465;-0.1075;
1048.2000;0.1449;-0.1075;
1048.5000;0.1490;-0.1004;
1048.8000;0.1473;-0.1051;
1049.1000;0.1490;-0.1028;
1049.4000;0.1481;-0.0980;
1049.7000;0.1473;-0.1075;
1050.0000;0.1530;-0.0932;
1050.3000;0.1490;-0.0956;
1050.6000;0.1498;-0.0932;
1050.9000;0.1506;-0.0932;
1051.2000;0.1433;-0.1171;
1051.5000;0.1481;-0.1123;
1051.8000;0.1481;-0.1075;
1052.1000;0.1530;-0.0908;
1052.4000;0.1490;-0.1028;
1052.7000;0.1481;-0.1075;
1053.0000;0.1538;-0.0860;
1053.3000;0.1473;-0.1075;
1053.6000;0.1473;-0.1075;
1053.9000;0.1457;-0.1099;
1054.2000;0.1359;-0.1290;
1054.5000;0.1490;-0.0956;
1054.8000;0.1490;-0.0908;
1055.1000;0.1481;-0.0884;
1055.4000;0.1498;-0.0908;
1055.7000;0.1498;-0.0932;
1056.0000;0.1498;-0.0980;
1056.3000;0.1457;-0.0980;
1056.6000;0.1449;-0.1075;
1056.9000;0.1506;-0.1028;
1057.2000;0.1587;-0.0789;
1057.5000;0.1498;-0.1051;
1057.8000;0.1481;-0.1028;
1058.1000;0.1481;-0.1099;
1058.4000;0.1538;-0.1004;
1058.7000;0.1481;-0.1219;
1059.0000;0.1498;-0.1243;
1059.3000;0.1490;-0.1243;
1059.6000;0.1481;-0.1219;
1059.9000;0.1498;-0.1219;
1060.2000;0.1506;-0.1243;
1060.5000;0.1490;-0.1195;
1060.8000;0.1376;-0.1482;
1061.1000;0.1473;-0.1195;
1061.4000;0.1514;-0.1075;
1061.7000;0.1506;-0.1075;
1062.0000;0.1530;-0.1028;
1062.3000;0.1457;-0.1123;
1062.6000;0.1473;-0.1147;
1062.9000;0.1465;-0.1171;
1063.2000;0.1498;-0.1099;
1063.5000;0.1506;-0.1099;
1063.8000;0.1506;-0.1051;
1064.1000;0.1490;-0.1099;
1064.4000;0.1490;-0.1051;
1064.7000;0.1425;-0.1219;
1065.0000;0.1498;-0.0980;
1065.3000;0.1490;-0.1004;
1065.6000;0.1481;-0.1051;
1065.9000;0.1490;-0.1004;
1066.2000;0.1465;-0.1075;
1066.5000;0.1547;-0.0932;
1066.8000;0.1473;-0.1147;
1067.1000;0.1457;-0.1195;
1067.4000;0.1498;-0.1099;
1067.7000;0.1498;-0.1171;
1068.0000;0.1498;-0.1219;
1068.3000;0.1506;-0.1266;
1068.6000;0.1473;-0.1386;
1068.9000;0.1481;-0.1290;
1069.2000;0.1571;-0.0980;
1069.5000;0.1449;-0.1123;
1069.8000;0.1400;-0.1171;
1070.1000;0.1490;-0.1028;
1070.4000;0.1530;-0.0860;
1070.7000;0.1481;-0.1004;
1071.0000;0.1473;-0.1075;
1071.3000;0.1384;-0.1290;
1071.6000;0.1457;-0.1171;
1071.9000;0.1490;-0.1171;
1072.2000;0.1425;-0.1338;
1072.5000;0.1457;-0.1243;
1072.8000;0.1490;-0.1219;
1073.1000;0.1498;-0.1171;
1073.4000;0.1473;-0.1195;
1073.7000;0.1473;-0.1171;
1074.0000;0.1481;-0.1219;
1074.3000;0.1473;-0.1147;
1074.6000;0.1473;-0.1243;
1074.9000;0.1490;-0.1123;
1075.2000;0.1457;-0.1171;
1075.5000;0.1449;-0.1123;
1075.8000;0.1481;-0.1075;
1076.1000;0.1457;-0.1099;
1076.4000;0.1473;-0.1171;
1076.7000;0.1465;-0.1219;
1077.0000;0.1498;-0.1099;
1077.3000;0.1481;-0.1147;
1077.6000;0.1506;-0.1075;
1077.9000;0.1547;-0.1004;
1078.2000;0.1457;-0.1171;
1078.5000;0.1481;-0.1123;
1078.8000;0.1498;-0.1171;
1079.1000;0.1490;-0.1123;
1079.4000;0.1449;-0.1195;
1079.7000;0.1498;-0.1051;
1080.0000;0.1547;-0.0884;
1080.3000;0.1506;-0.1004;
1080.6000;0.1506;-0.1028;
1080.9000;0.1473;-0.1028;
1081.2000;0.1425;-0.1147;
1081.5000;0.1490;-0.0956;
1081.8000;0.1384;-0.1266;
1082.1000;0.1473;-0.1075;
1082.4000;0.1408;-0.1195;
1082.7000;0.1441;-0.1147;
1083.0000;0.1433;-0.1075;
1083.3000;0.1490;-0.0980;
1083.6000;0.1490;-0.1004;
1083.9000;0.1490;-0.1051;
1084.2000;0.1457;-0.1147;
1084.5000;0.1490;-0.1147;
1084.8000;0.1457;-0.1195;
1085.1000;0.1481;-0.1028;
1085.4000;0.1498;-0.1004;
1085.7000;0.1490;-0.1075;
1086.0000;0.1490;-0.1099;
1086.3000;0.1555;-0.1028;
1086.6000;0.1514;-0.1290;
1086.9000;0.1498;-0.1243;
1087.2000;0.1514;-0.1099;
1087.5000;0.1473;-0.1171;
1087.8000;0.1498;-0.1028;
1088.1000;0.1481;-0.1028;
1088.4000;0.1465;-0.1075;
1088.7000;0.1506;-0.0956;
1089.0000;0.1490;-0.1075;
1089.3000;0.1498;-0.1099;
1089.6000;0.1522;-0.1051;
1089.9000;0.1473;-0.1123;
1090.2000;0.1449;-0.1195;
1090.5000;0.1506;-0.1075;
1090.8000;0.1473;-0.1123;
1091.1000;0.1473;-0.1147;
1091.4000;0.1481;-0.1195;
1091.7000;0.1473;-0.1243;
1092.0000;0.1498;-0.1171;
1092.3000;0.1481;-0.1243;
1092.6000;0.1490;-0.1195;
1092.9000;0.1457;-0.1243;
1093.2000;0.1408;-0.1219;
1093.5000;0.1498;-0.1004;
1093.8000;0.1481;-0.1004;
1094.1000;0.1490;-0.0956;
1094.4000;0.1498;-0.0956;
1094.7000;0.1490;-0.1028;
1095.0000;0.1473;-0.1099;
1095.3000;0.1481;-0.1075;
1095.6000;0.1481;-0.1028;
1095.9000;0.1465;-0.1075;
1096.2000;0.1473;-0.1099;
1096.5000;0.1473;-0.1123;
1096.8000;0.1449;-0.1123;
1097.1000;0.1506;-0.1099;
1097.4000;0.1514;-0.1147;
1097.7000;0.1498;-0.1147;
1098.0000;0.1473;-0.1195;
1098.3000;0.1481;-0.1171;
1098.6000;0.1481;-0.1171;
1098.9000;0.1481;-0.1147;
1099.2000;0.1498;-0.1075;
1099.5000;0.1490;-0.0980;
1099.8000;0.1449;-0.1028;
1100.1000;0.1490;-0.1075;
1100.4000;0.1481;-0.1075;
1100.7000;0.1473;-0.1099;
1101.0000;0.1433;-0.1195;
1101.3000;0.1498;-0.1004;
1101.6000;0.1416;-0.1219;
1101.9000;0.1481;-0.1171;
1102.2000;0.1490;-0.1147;
1102.5000;0.1425;-0.1386;
1102.8000;0.1473;-0.1171;
1103.1000;0.1490;-0.1123;
1103.4000;0.1514;-0.1051;
1103.7000;0.1522;-0.1051;
1104.0000;0.1473;-0.1147;
1104.3000;0.1481;-0.1075;
1104.6000;0.1498;-0.1075;
1104.9000;0.1490;-0.1147;
1105.2000;0.1490;-0.1147;
1105.5000;0.1449;-0.1314;
1105.8000;0.1522;-0.1171;
1106.1000;0.1498;-0.1171;
1106.4000;0.1457;-0.1266;
1106.7000;0.1490;-0.1219;
1107.0000;0.1457;-0.1410;
1107.3000;0.1457;-0.1410;
1107.6000;0.1506;-0.1362;
1107.9000;0.1506;-0.1410;
1108.2000;0.1473;-0.1529;
1108.5000;0.1490;-0.1362;
1108.8000;0.1563;-0.1147;
1109.1000;0.1481;-0.1338;
1109.4000;0.1457;-0.1314;
1109.7000;0.1392;-0.1505;
1110.0000;0.1425;-0.1362;
1110.3000;0.1506;-0.1123;
1110.6000;0.1457;-0.1147;
1110.9000;0.1481;-0.1099;
1111.2000;0.1514;-0.1004;
1111.5000;0.1506;-0.1123;
1111.8000;0.1481;-0.1171;
1112.1000;0.1490;-0.1171;
1112.4000;0.1481;-0.1195;
1112.7000;0.1506;-0.1266;
1113.0000;0.1490;-0.1410;
1113.3000;0.1473;-0.1338;
1113.6000;0.1506;-0.1266;
1113.9000;0.1498;-0.1243;
1114.2000;0.1498;-0.1171;
1114.5000;0.1498;-0.1147;
1114.8000;0.1465;-0.1219;
1115.1000;0.1490;-0.1219;
1115.4000;0.1506;-0.1219;
1115.7000;0.1481;-0.1266;
1116.0000;0.1481;-0.1290;
1116.3000;0.1465;-0.1386;
1116.6000;0.1465;-0.1386;
1116.9000;0.1481;-0.1290;
1117.2000;0.1498;-0.1290;
1117.5000;0.1514;-0.1195;
1117.8000;0.1481;-0.1099;
1118.1000;0.1441;-0.1123;
1118.4000;0.1490;-0.1004;
1118.7000;0.1481;-0.0980;
1119.0000;0.1473;-0.1123;
1119.3000;0.1449;-0.1075;
1119.6000;0.1473;-0.0980;
1119.9000;0.1514;-0.0836;
1120.2000;0.1457;-0.1004;
1120.5000;0.1481;-0.1028;
1120.8000;0.1473;-0.1075;
1121.1000;0.1506;-0.1099;
1121.4000;0.1473;-0.1243;
1121.7000;0.1490;-0.1171;
1122.0000;0.1498;-0.1147;
1122.3000;0.1490;-0.1243;
1122.6000;0.1457;-0.1338;
1122.9000;0.1490;-0.1243;
1123.2000;0.1530;-0.1147;
1123.5000;0.1481;-0.1266;
1123.8000;0.1465;-0.1290;
1124.1000;0.1441;-0.1386;
1124.4000;0.1506;-0.1195;
1124.7000;0.1514;-0.1219;
1125.0000;0.1481;-0.1219;
1125.3000;0.1473;-0.1171;
1125.6000;0.1490;-0.1195;
1125.9000;0.1538;-0.1004;
1126.2000;0.1530;-0.1051;
1126.5000;0.1465;-0.1171;
1126.8000;0.1498;-0.1195;
1127.1000;0.1490;-0.1123;
1127.4000;0.1392;-0.1482;
1127.7000;0.1441;-0.1314;
1128.0000;0.1490;-0.1266;
1128.3000;0.1498;-0.1314;
1128.6000;0.1425;-0.1553;
1128.9000;0.1457;-0.1386;
1129.2000;0.1490;-0.1290;
1129.5000;0.1490;-0.1195;
1129.8000;0.1465;-0.1219;
1130.1000;0.1457;-0.1147;
1130.4000;0.1490;-0.1004;
1130.7000;0.1490;-0.1004;
1131.0000;0.1563;-0.0884;
1131.3000;0.1384;-0.1458;
1131.6000;0.1481;-0.1243;
1131.9000;0.1441;-0.1410;
1132.2000;0.1490;-0.1338;
1132.5000;0.1465;-0.1362;
1132.8000;0.1473;-0.1243;
1133.1000;0.1473;-0.1266;
1133.4000;0.1498;-0.1147;
1133.7000;0.1490;-0.1195;
1134.0000;0.1481;-0.1195;
1134.3000;0.1490;-0.1219;
1134.6000;0.1473;-0.1099;
1134.9000;0.1498;-0.1075;
1135.2000;0.1490;-0.1075;
1135.5000;0.1457;-0.1171;
1135.8000;0.1498;-0.1051;
1136.1000;0.1473;-0.1075;
1136.4000;0.1481;-0.1051;
1136.7000;0.1481;-0.1051;
1137.0000;0.1481;-0.1099;
1137.3000;0.1473;-0.1171;
1137.6000;0.1579;-0.0884;
1137.9000;0.1498;-0.1075;
1138.2000;0.1481;-0.1123;
1138.5000;0.1457;-0.1171;
1138.8000;0.1506;-0.1051;
1139.1000;0.1457;-0.1147;
1139.4000;0.1498;-0.1051;
1139.7000;0.1506;-0.0908;
1140.0000;0.1514;-0.1004;
1140.3000;0.1376;-0.1410;
1140.6000;0.1514;-0.1075;
1140.9000;0.1498;-0.1147;
1141.2000;0.1481;-0.1219;
1141.5000;0.1498;-0.1147;
1141.8000;0.1457;-0.1314;
1142.1000;0.1530;-0.1147;
1142.4000;0.1498;-0.1290;
1142.7000;0.1490;-0.1219;
1143.0000;0.1457;-0.1219;
1143.3000;0.1490;-0.1099;
1143.6000;0.1490;-0.1075;
1143.9000;0.1465;-0.1147;
1144.2000;0.1490;-0.1123;
1144.5000;0.1498;-0.1171;
1144.8000;0.1473;-0.1243;
1145.1000;0.1490;-0.1195;
1145.4000;0.1490;-0.1099;
1145.7000;0.1490;-0.1123;
1146.0000;0.1490;-0.1147;
1146.3000;0.1490;-0.1243;
1146.6000;0.1465;-0.1386;
1146.9000;0.1481;-0.1362;
1147.2000;0.1490;-0.1266;
1147.5000;0.1514;-0.1123;
1147.8000;0.1481;-0.1171;
1148.1000;0.1498;-0.1123;
1148.4000;0.1473;-0.1147;
1148.7000;0.1400;-0.1362;
1149.0000;0.1555;-0.0932;
1149.3000;0.1522;-0.1004;
1149.6000;0.1506;-0.1123;
1149.9000;0.1481;-0.1195;
1150.2000;0.1644;-0.0765;
1150.5000;0.1506;-0.1171;
1150.8000;0.1481;-0.1290;
1151.1000;0.1400;-0.1458;
1151.4000;0.1571;-0.0932;
1151.7000;0.1498;-0.1171;
1152.0000;0.1490;-0.1195;
1152.3000;0.1473;-0.1171;
1152.6000;0.1465;-0.1147;
1152.9000;0.1498;-0.1051;
1153.2000;0.1457;-0.1171;
1153.5000;0.1490;-0.1028;
1153.8000;0.1465;-0.1195;
1154.1000;0.1490;-0.1123;
1154.4000;0.1473;-0.1147;
1154.7000;0.1473;-0.1075;
1155.0000;0.1481;-0.1075;
1155.3000;0.1604;-0.0669;
1155.6000;0.1465;-0.0980;
1155.9000;0.1465;-0.0956;
1156.2000;0.1490;-0.0884;
1156.5000;0.1481;-0.0908;
1156.8000;0.1490;-0.1004;
1157.1000;0.1473;-0.1123;
1157.4000;0.1457;-0.1195;
1157.7000;0.1498;-0.1099;
1158.0000;0.1498;-0.1051;
1158.3000;0.1506;-0.1004;
1158.6000;0.1481;-0.1004;
1158.9000;0.1490;-0.0980;
1159.2000;0.1498;-0.0956;
1159.5000;0.1506;-0.0980;
1159.8000;0.1425;-0.1195;
1160.1000;0.1473;-0.1147;
1160.4000;0.1514;-0.0908;
1160.7000;0.1473;-0.1075;
1161.0000;0.1506;-0.1004;
1161.3000;0.1481;-0.1028;
1161.6000;0.1441;-0.1099;
1161.9000;0.1506;-0.0932;
1162.2000;0.1473;-0.1171;
1162.5000;0.1465;-0.1171;
1162.8000;0.1457;-0.1171;
1163.1000;0.1433;-0.1266;
1163.4000;0.1481;-0.1147;
1163.7000;0.1490;-0.1075;
1164.0000;0.1522;-0.0980;
1164.3000;0.1498;-0.1075;
1164.6000;0.1506;-0.1075;
1164.9000;0.1433;-0.1290;
1165.2000;0.1465;-0.1243;
1165.5000;0.1473;-0.1171;
1165.8000;0.1514;-0.1099;
1166.1000;0.1490;-0.1171;
1166.4000;0.1465;-0.1290;
1166.7000;0.1473;-0.1219;
1167.0000;0.1490;-0.1219;
1167.3000;0.1498;-0.1147;
1167.6000;0.1481;-0.1195;
1167.9000;0.1506;-0.1123;
1168.2000;0.1481;-0.1147;
1168.5000;0.1481;-0.1171;
1168.8000;0.1473;-0.1099;
1169.1000;0.1490;-0.1051;
1169.4000;0.1490;-0.0980;
1169.7000;0.1555;-0.0860;
1170.0000;0.1465;-0.1123;
1170.3000;0.1473;-0.1051;
1170.6000;0.1473;-0.1075;
1170.9000;0.1490;-0.0980;
1171.2000;0.1490;-0.0956;
1171.5000;0.1498;-0.0908;
1171.8000;0.1498;-0.0860;
1172.1000;0.1498;-0.0980;
1172.4000;0.1514;-0.0980;
1172.7000;0.1522;-0.1028;
1173.0000;0.1449;-0.1147;
1173.3000;0.1481;-0.1004;
1173.6000;0.1547;-0.0932;
1173.9000;0.1441;-0.1171;
1174.2000;0.1481;-0.1004;
1174.5000;0.1490;-0.1075;
1174.8000;0.1498;-0.0956;
1175.1000;0.1506;-0.0884;
1175.4000;0.1481;-0.0908;
1175.7000;0.1555;-0.0717;
1176.0000;0.1498;-0.0836;
1176.3000;0.1490;-0.0884;
1176.6000;0.1359;-0.1219;
1176.9000;0.1465;-0.0932;
1177.2000;0.1490;-0.0884;
1177.5000;0.1416;-0.1147;
1177.8000;0.1449;-0.1004;
1178.1000;0.1490;-0.0860;
1178.4000;0.1555;-0.0812;
1178.7000;0.1400;-0.1171;
1179.0000;0.1506;-0.0908;
1179.3000;0.1465;-0.1051;
1179.6000;0.1481;-0.1004;
1179.9000;0.1490;-0.0956;
1180.2000;0.1481;-0.0980;
1180.5000;0.1506;-0.0932;
1180.8000;0.1506;-0.0956;
1181.1000;0.1473;-0.1099;
1181.4000;0.1498;-0.0956;
1181.7000;0.1400;-0.1266;
1182.0000;0.1490;-0.1004;
1182.3000;0.1514;-0.0956;
1182.6000;0.1465;-0.1004;
1182.9000;0.1473;-0.1028;
1183.2000;0.1490;-0.1004;
1183.5000;0.1465;-0.1147;
1183.8000;0.1498;-0.1028;
1184.1000;0.1506;-0.0980;
1184.4000;0.1473;-0.1051;
1184.7000;0.1457;-0.1075;
1185.0000;0.1530;-0.0980;
1185.3000;0.1555;-0.1004;
1185.6000;0.1498;-0.1147;
1185.9000;0.1490;-0.1195;
1186.2000;0.1490;-0.1266;
1186.5000;0.1498;-0.1219;
1186.8000;0.1481;-0.1243;
1187.1000;0.1449;-0.1243;
1187.4000;0.1490;-0.1147;
1187.7000;0.1498;-0.1099;
1188.0000;0.1506;-0.1051;
1188.3000;0.1465;-0.1051;
1188.6000;0.1506;-0.0932;
1188.9000;0.1481;-0.0980;
1189.2000;0.1530;-0.0860;
1189.5000;0.1490;-0.1004;
1189.8000;0.1514;-0.0932;
1190.1000;0.1498;-0.0932;
1190.4000;0.1473;-0.1028;
1190.7000;0.1555;-0.0812;
1191.0000;0.1490;-0.1004;
1191.3000;0.1490;-0.1004;
1191.6000;0.1490;-0.0980;
1191.9000;0.1506;-0.1028;
1192.2000;0.1473;-0.1075;
1192.5000;0.1481;-0.1147;
1192.8000;0.1498;-0.1099;
1193.1000;0.1481;-0.1171;
1193.4000;0.1433;-0.1290;
1193.7000;0.1473;-0.1243;
1194.0000;0.1473;-0.1290;
1194.3000;0.1498;-0.1314;
1194.6000;0.1490;-0.1314;
1194.9000;0.1457;-0.1314;
1195.2000;0.1506;-0.1243;
1195.5000;0.1522;-0.1171;
1195.8000;0.1490;-0.1171;
1196.1000;0.1498;-0.1099;
1196.4000;0.1481;-0.1123;
1196.7000;0.1506;-0.1051;
1197.0000;0.1506;-0.1028;
1197.3000;0.1473;-0.1099;
1197.6000;0.1563;-0.0884;
1197.9000;0.1449;-0.1147;
1198.2000;0.1481;-0.1075;
1198.5000;0.1490;-0.1051;
1198.8000;0.1473;-0.1051;
1199.1000;0.1498;-0.0956;
1199.4000;0.1465;-0.1051;
1199.7000;0.1490;-0.0980;
1200.0000;0.1538;-0.0789;
1200.3000;0.1481;-0.0980;
1200.6000;0.1506;-0.0980;
1200.9000;0.1636;-0.0597;
1201.2000;0.1481;-0.1004;
1201.5000;0.1555;-0.0789;
1201.8000;0.1449;-0.1051;
1202.1000;0.1530;-0.0884;
1202.4000;0.1481;-0.1004;
1202.7000;0.1547;-0.0836;
1203.0000;0.1490;-0.1051;
1203.3000;0.1473;-0.1075;
1203.6000;0.1465;-0.1123;
1203.9000;0.1490;-0.1099;
1204.2000;0.1457;-0.1147;
1204.5000;0.1433;-0.1243;
1204.8000;0.1473;-0.1099;
1205.1000;0.1449;-0.1171;
1205.4000;0.1465;-0.1099;
1205.7000;0.1538;-0.0884;
1206.0000;0.1473;-0.1075;
1206.3000;0.1490;-0.1075;
1206.6000;0.1481;-0.1123;
1206.9000;0.1473;-0.1147;
1207.2000;0.1465;-0.1099;
1207.5000;0.1490;-0.1051;
1207.8000;0.1473;-0.1123;
1208.1000;0.1490;-0.1075;
1208.4000;0.1481;-0.1075;
1208.7000;0.1490;-0.1075;
1209.0000;0.1481;-0.1147;
1209.3000;0.1506;-0.1051;
1209.6000;0.1514;-0.1099;
1209.9000;0.1465;-0.1219;
1210.2000;0.1400;-0.1434;
1210.5000;0.1490;-0.1243;
1210.8000;0.1490;-0.1243;
1211.1000;0.1441;-0.1195;
1211.4000;0.1465;-0.1123;
1211.7000;0.1408;-0.1266;
1212.0000;0.1457;-0.1171;
1212.3000;0.1481;-0.1195;
1212.6000;0.1490;-0.1195;
1212.9000;0.1473;-0.1266;
1213.2000;0.1490;-0.1195;
1213.5000;0.1514;-0.1123;
1213.8000;0.1449;-0.1314;
1214.1000;0.1506;-0.1123;
1214.4000;0.1449;-0.1290;
1214.7000;0.1481;-0.1195;
1215.0000;0.1481;-0.1195;
1215.3000;0.1473;-0.1195;
1215.6000;0.1473;-0.1171;
1215.9000;0.1498;-0.1123;
1216.2000;0.1481;-0.1219;
1216.5000;0.1490;-0.1290;
1216.8000;0.1514;-0.1243;
1217.1000;0.1506;-0.1219;
1217.4000;0.1498;-0.1219;
1217.7000;0.1498;-0.1147;
1218.0000;0.1514;-0.1171;
1218.3000;0.1514;-0.1147;
1218.6000;0.1490;-0.1195;
1218.9000;0.1506;-0.1099;
1219.2000;0.1473;-0.1147;
1219.5000;0.1498;-0.1123;
1219.8000;0.1481;-0.1195;
1220.1000;0.1465;-0.1171;
1220.4000;0.1506;-0.1099;
1220.7000;0.1481;-0.1290;
1221.0000;0.1498;-0.1314;
1221.3000;0.1433;-0.1458;
1221.6000;0.1490;-0.1314;
1221.9000;0.1473;-0.1362;
1222.2000;0.1498;-0.1290;
1222.5000;0.1498;-0.1219;
1222.8000;0.1490;-0.1171;
1223.1000;0.1473;-0.1123;
1223.4000;0.1425;-0.1290;
1223.7000;0.1506;-0.1099;
1224.0000;0.1563;-0.0932;
1224.3000;0.1473;-0.1051;
1224.6000;0.1481;-0.1123;
1224.9000;0.1555;-0.0908;
1225.2000;0.1481;-0.1195;
1225.5000;0.1473;-0.1243;
1225.8000;0.1547;-0.1075;
1226.1000;0.1481;-0.1434;
1226.4000;0.1506;-0.1338;
1226.7000;0.1465;-0.1410;
1227.0000;0.1522;-0.1219;
1227.3000;0.1506;-0.1219;
1227.6000;0.1490;-0.1147;
1227.9000;0.1506;-0.1051;
1228.2000;0.1465;-0.1147;
1228.5000;0.1473;-0.1123;
1228.8000;0.1473;-0.1171;
1229.1000;0.1481;-0.1123;
1229.4000;0.1490;-0.1195;
1229.7000;0.1498;-0.1266;
1230.0000;0.1498;-0.1266;
1230.3000;0.1465;-0.1314;
1230.6000;0.1473;-0.1243;
1230.9000;0.1481;-0.1195;
1231.2000;0.1490;-0.1123;
1231.5000;0.1498;-0.1099;
1231.8000;0.1473;-0.1075;
1232.1000;0.1522;-0.0932;
1232.4000;0.1473;-0.1028;
1232.7000;0.1473;-0.1051;
1233.0000;0.1465;-0.1147;
1233.3000;0.1457;-0.1147;
1233.6000;0.1514;-0.1051;
1233.9000;0.1481;-0.1147;
1234.2000;0.1441;-0.1195;
1234.5000;0.1481;-0.1099;
1234.8000;0.1490;-0.0980;
1235.1000;0.1490;-0.0956;
1235.4000;0.1490;-0.0908;
1235.7000;0.1498;-0.0908;
1236.0000;0.1473;-0.0956;
1236.3000;0.1498;-0.0836;
1236.6000;0.1620;-0.0526;
1236.9000;0.1490;-0.0836;
1237.2000;0.1473;-0.1004;
1237.5000;0.1465;-0.1028;
1237.8000;0.1498;-0.1075;
1238.1000;0.1481;-0.1147;
1238.4000;0.1490;-0.1195;
1238.7000;0.1457;-0.1243;
1239.0000;0.1465;-0.1147;
1239.3000;0.1490;-0.1099;
1239.6000;0.1343;-0.1529;
1239.9000;0.1473;-0.1266;
1240.2000;0.1481;-0.1195;
1240.5000;0.1506;-0.1099;
1240.8000;0.1449;-0.1290;
1241.1000;0.1449;-0.1243;
1241.4000;0.1498;-0.1099;
1241.7000;0.1490;-0.1195;
1242.0000;0.1392;-0.1577;
1242.3000;0.1465;-0.1362;
1242.6000;0.1498;-0.1243;
1242.9000;0.1408;-0.1505;
1243.2000;0.1595;-0.1099;
1243.5000;0.1465;-0.1482;
1243.8000;0.1465;-0.1410;
1244.1000;0.1522;-0.1243;
1244.4000;0.1555;-0.1195;
1244.7000;0.1473;-0.1314;
1245.0000;0.1571;-0.1171;
1245.3000;0.1530;-0.1290;
1245.6000;0.1498;-0.1314;
1245.9000;0.1457;-0.1338;
1246.2000;0.1473;-0.1290;
1246.5000;0.1481;-0.1338;
1246.8000;0.1473;-0.1314;
1247.1000;0.1473;-0.1243;
1247.4000;0.1327;-0.1673;
1247.7000;0.1490;-0.1243;
1248.0000;0.1473;-0.1266;
1248.3000;0.1481;-0.1171;
1248.6000;0.1490;-0.1123;
1248.9000;0.1481;-0.1147;
1249.2000;0.1481;-0.1195;
1249.5000;0.1441;-0.1243;
1249.8000;0.1490;-0.1147;
1250.1000;0.1481;-0.1171;
1250.4000;0.1481;-0.1243;
1250.7000;0.1481;-0.1290;
1251.0000;0.1490;-0.1362;
1251.3000;0.1481;-0.1458;
1251.6000;0.1530;-0.1386;
1251.9000;0.1481;-0.1434;
1252.2000;0.1498;-0.1314;
1252.5000;0.1465;-0.1386;
1252.8000;0.1457;-0.1290;
1253.1000;0.1498;-0.1195;
1253.4000;0.1441;-0.1338;
1253.7000;0.1481;-0.1195;
1254.0000;0.1473;-0.1243;
1254.3000;0.1481;-0.1314;
1254.6000;0.1498;-0.1195;
1254.9000;0.1490;-0.1171;
1255.2000;0.1465;-0.1195;
1255.5000;0.1530;-0.1075;
1255.8000;0.1514;-0.1147;
1256.1000;0.1490;-0.1219;
1256.4000;0.1498;-0.1147;
1256.7000;0.1506;-0.1195;
1257.0000;0.1449;-0.1266;
1257.3000;0.1465;-0.1243;
1257.6000;0.1490;-0.1314;
1257.9000;0.1490;-0.1338;
1258.2000;0.1473;-0.1314;
1258.5000;0.1465;-0.1290;
1258.8000;0.1481;-0.1290;
1259.1000;0.1457;-0.1338;
1259.4000;0.1465;-0.1171;
1259.7000;0.1465;-0.1219;
1260.0000;0.1473;-0.1147;
1260.3000;0.1498;-0.1051;
1260.6000;0.1481;-0.1147;
1260.9000;0.1522;-0.1099;
1261.2000;0.1498;-0.1099;
1261.5000;0.1473;-0.1219;
1261.8000;0.1490;-0.1195;
1262.1000;0.1506;-0.1219;
1262.4000;0.1538;-0.1147;
1262.7000;0.1498;-0.1314;
1263.0000;0.1481;-0.1314;
1263.3000;0.1481;-0.1266;
1263.6000;0.1473;-0.1266;
1263.9000;0.1481;-0.1195;
1264.2000;0.1481;-0.1219;
1264.5000;0.1481;-0.1171;
1264.8000;0.1498;-0.1123;
1265.1000;0.1384;-0.1362;
1265.4000;0.1465;-0.1123;
1265.7000;0.1498;-0.1123;
1266.0000;0.1547;-0.1051;
1266.3000;0.1473;-0.1314;
1266.6000;0.1473;-0.1290;
1266.9000;0.1425;-0.1458;
1267.2000;0.1481;-0.1266;
1267.5000;0.1490;-0.1314;
1267.8000;0.1522;-0.1147;
1268.1000;0.1481;-0.1243;
1268.4000;0.1400;-0.1505;
1268.7000;0.1425;-0.1410;
1269.0000;0.1547;-0.1147;
1269.3000;0.1490;-0.1219;
1269.6000;0.1506;-0.1195;
1269.9000;0.1481;-0.1314;
1270.2000;0.1490;-0.1195;
1270.5000;0.1351;-0.1505;
1270.8000;0.1514;-0.1123;
1271.1000;0.1490;-0.1195;
1271.4000;0.1628;-0.0765;
1271.7000;0.1441;-0.1266;
1272.0000;0.1473;-0.1147;
1272.3000;0.1335;-0.1553;
1272.6000;0.1547;-0.1075;
1272.9000;0.1465;-0.1314;
1273.2000;0.1473;-0.1314;
1273.5000;0.1579;-0.1004;
1273.8000;0.1506;-0.1147;
1274.1000;0.1481;-0.1147;
1274.4000;0.1481;-0.1123;
1274.7000;0.1473;-0.1219;
1275.0000;0.1490;-0.1195;
1275.3000;0.1481;-0.1219;
1275.6000;0.1473;-0.1266;
1275.9000;0.1506;-0.1219;
1276.2000;0.1490;-0.1266;
1276.5000;0.1481;-0.1290;
1276.8000;0.1490;-0.1338;
1277.1000;0.1490;-0.1386;
1277.4000;0.1481;-0.1362;
1277.7000;0.1473;-0.1386;
1278.0000;0.1481;-0.1577;
1278.3000;0.1498;-0.1482;
1278.6000;0.1457;-0.1505;
1278.9000;0.1514;-0.1434;
1279.2000;0.1514;-0.1314;
1279.5000;0.1465;-0.1338;
1279.8000;0.1506;-0.1171;
1280.1000;0.1465;-0.1171;
1280.4000;0.1490;-0.1075;
1280.7000;0.1506;-0.0884;
1281.0000;0.1490;-0.0956;
1281.3000;0.1490;-0.1004;
1281.6000;0.1506;-0.1028;
1281.9000;0.1490;-0.0980;
1282.2000;0.1457;-0.1123;
1282.5000;0.1473;-0.1147;
1282.8000;0.1457;-0.1123;
1283.1000;0.1555;-0.0836;
1283.4000;0.1514;-0.0908;
1283.7000;0.1481;-0.1028;
1284.0000;0.1490;-0.1099;
1284.3000;0.1490;-0.1219;
1284.6000;0.1473;-0.1266;
1284.9000;0.1465;-0.1314;
1285.2000;0.1498;-0.1266;
1285.5000;0.1441;-0.1362;
1285.8000;0.1522;-0.1219;
1286.1000;0.1481;-0.1338;
1286.4000;0.1473;-0.1290;
1286.7000;0.1490;-0.1243;
1287.0000;0.1481;-0.1266;
1287.3000;0.1498;-0.1219;
1287.6000;0.1473;-0.1243;
1287.9000;0.1490;-0.1243;
1288.2000;0.1490;-0.1171;
1288.5000;0.1498;-0.1195;
1288.8000;0.1481;-0.1290;
1289.1000;0.1490;-0.1195;
1289.4000;0.1498;-0.1314;
1289.7000;0.1498;-0.1243;
1290.0000;0.1481;-0.1195;
1290.3000;0.1481;-0.1147;
1290.6000;0.1498;-0.1075;
1290.9000;0.1490;-0.1075;
1291.2000;0.1481;-0.1075;
1291.5000;0.1449;-0.1195;
1291.8000;0.1563;-0.0980;
1292.1000;0.1555;-0.0980;
1292.4000;0.1441;-0.1290;
1292.7000;0.1506;-0.1219;
1293.0000;0.1538;-0.1099;
1293.3000;0.1311;-0.1697;
1293.6000;0.1490;-0.1171;
1293.9000;0.1481;-0.1147;
1294.2000;0.1490;-0.1243;
1294.5000;0.1506;-0.1195;
1294.8000;0.1416;-0.1410;
1295.1000;0.1473;-0.1266;
1295.4000;0.1490;-0.1123;
1295.7000;0.1490;-0.1219;
1296.0000;0.1481;-0.1195;
1296.3000;0.1490;-0.1195;
1296.6000;0.1465;-0.1290;
1296.9000;0.1465;-0.1290;
1297.2000;0.1481;-0.1243;
1297.5000;0.1498;-0.1195;
1297.8000;0.1490;-0.1195;
1298.1000;0.1481;-0.1266;
1298.4000;0.1498;-0.1219;
1298.7000;0.1506;-0.1147;
1299.0000;0.1498;-0.1171;
1299.3000;0.1481;-0.1266;
1299.6000;0.1490;-0.1195;
1299.9000;0.1490;-0.1243;
1300.2000;0.1457;-0.1314;
1300.5000;0.1514;-0.1266;
1300.8000;0.1465;-0.1266;
1301.1000;0.1498;-0.1147;
1301.4000;0.1498;-0.1123;
1301.7000;0.1473;-0.1171;
1302.0000;0.1481;-0.1171;
1302.3000;0.1457;-0.1290;
1302.6000;0.1481;-0.1195;
1302.9000;0.1506;-0.1123;
1303.2000;0.1481;-0.1147;
1303.5000;0.1441;-0.1195;
1303.8000;0.1506;-0.0956;
1304.1000;0.1473;-0.1123;
1304.4000;0.1473;-0.1171;
1304.7000;0.1604;-0.0812;
1305.0000;0.1481;-0.1171;
1305.3000;0.1538;-0.1099;
1305.6000;0.1587;-0.1028;
1305.9000;0.1473;-0.1338;
1306.2000;0.1490;-0.1362;
1306.5000;0.1465;-0.1434;
1306.8000;0.1473;-0.1362;
1307.1000;0.1498;-0.1266;
1307.4000;0.1473;-0.1266;
1307.7000;0.1506;-0.1171;
1308.0000;0.1457;-0.1386;
1308.3000;0.1473;-0.1338;
1308.6000;0.1490;-0.1243;
1308.9000;0.1465;-0.1314;
1309.2000;0.1481;-0.1147;
1309.5000;0.1498;-0.1075;
1309.8000;0.1490;-0.1099;
1310.1000;0.1514;-0.1123;
1310.4000;0.1506;-0.1123;
1310.7000;0.1481;-0.1171;
1311.0000;0.1481;-0.1051;
1311.3000;0.1498;-0.1051;
1311.6000;0.1490;-0.1004;
1311.9000;0.1457;-0.1075;
1312.2000;0.1465;-0.1075;
1312.5000;0.1481;-0.1051;
1312.8000;0.1498;-0.1028;
1313.1000;0.1473;-0.1147;
1313.4000;0.1457;-0.1290;
1313.7000;0.1490;-0.1147;
1314.0000;0.1498;-0.1075;
1314.3000;0.1506;-0.1099;
1314.6000;0.1473;-0.1123;
1314.9000;0.1457;-0.1147;
1315.2000;0.1481;-0.1075;
1315.5000;0.1473;-0.1075;
1315.8000;0.1433;-0.1171;
1316.1000;0.1481;-0.1099;
1316.4000;0.1587;-0.0860;
1316.7000;0.1441;-0.1195;
1317.0000;0.1498;-0.1147;
1317.3000;0.1490;-0.1219;
1317.6000;0.1490;-0.1266;
1317.9000;0.1473;-0.1195;
1318.2000;0.1506;-0.1123;
1318.5000;0.1408;-0.1338;
1318.8000;0.1506;-0.1028;
1319.1000;0.1481;-0.0980;
1319.4000;0.1490;-0.0956;
1319.7000;0.1473;-0.0956;
1320.0000;0.1359;-0.1195;
1320.3000;0.1506;-0.0789;
1320.6000;0.1481;-0.0980;
1320.9000;0.1441;-0.1195;
1321.2000;0.1490;-0.0956;
1321.5000;0.1498;-0.0932;
1321.8000;0.1498;-0.0932;
1322.1000;0.1490;-0.0980;
1322.4000;0.1498;-0.1004;
1322.7000;0.1473;-0.1147;
1323.0000;0.1522;-0.1075;
1323.3000;0.1506;-0.1219;
1323.6000;0.1498;-0.1290;
1323.9000;0.1473;-0.1266;
1324.2000;0.1481;-0.1195;
1324.5000;0.1481;-0.1219;
1324.8000;0.1481;-0.1219;
1325.1000;0.1498;-0.1243;
1325.4000;0.1498;-0.1243;
1325.7000;0.1490;-0.1171;
1326.0000;0.1498;-0.0980;
1326.3000;0.1351;-0.1482;
1326.6000;0.1465;-0.1123;
1326.9000;0.1522;-0.1028;
1327.2000;0.1498;-0.1123;
1327.5000;0.1498;-0.1099;
1327.8000;0.1522;-0.1028;
1328.1000;0.1457;-0.1123;
1328.4000;0.1481;-0.1075;
1328.7000;0.1473;-0.1075;
1329.0000;0.1465;-0.1099;
1329.3000;0.1498;-0.1075;
1329.6000;0.1449;-0.1243;
1329.9000;0.1514;-0.1099;
1330.2000;0.1498;-0.1147;
1330.5000;0.1490;-0.1195;
1330.8000;0.1457;-0.1243;
1331.1000;0.1490;-0.1171;
1331.4000;0.1498;-0.1075;
1331.7000;0.1490;-0.1028;
1332.0000;0.1490;-0.1099;
1332.3000;0.1514;-0.1051;
1332.6000;0.1481;-0.1099;
1332.9000;0.1473;-0.1075;
1333.2000;0.1490;-0.0956;
1333.5000;0.1481;-0.1051;
1333.8000;0.1457;-0.1171;
1334.1000;0.1490;-0.1123;
1334.4000;0.1498;-0.0932;
1334.7000;0.1579;-0.0741;
1335.0000;0.1457;-0.1099;
1335.3000;0.1457;-0.1147;
1335.6000;0.1490;-0.1051;
1335.9000;0.1490;-0.1075;
1336.2000;0.1506;-0.0980;
1336.5000;0.1514;-0.1075;
1336.8000;0.1595;-0.0860;
1337.1000;0.1498;-0.1123;
1337.4000;0.1465;-0.1195;
1337.7000;0.1498;-0.1004;
1338.0000;0.1498;-0.1004;
1338.3000;0.1449;-0.1147;
1338.6000;0.1473;-0.1123;
1338.9000;0.1473;-0.1171;
1339.2000;0.1473;-0.1266;
1339.5000;0.1449;-0.1290;
1339.8000;0.1441;-0.1266;
1340.1000;0.1481;-0.1099;
1340.4000;0.1473;-0.1099;
1340.7000;0.1465;-0.1171;
1341.0000;0.1473;-0.1171;
1341.3000;0.1449;-0.1290;
1341.6000;0.1506;-0.1219;
1341.9000;0.1490;-0.1243;
1342.2000;0.1465;-0.1266;
1342.5000;0.1612;-0.0860;
1342.8000;0.1490;-0.1147;
1343.1000;0.1498;-0.1195;
1343.4000;0.1481;-0.1099;
1343.7000;0.1490;-0.1051;
1344.0000;0.1498;-0.1051;
1344.3000;0.1481;-0.1195;
1344.6000;0.1514;-0.1147;
1344.9000;0.1473;-0.1195;
1345.2000;0.1481;-0.1147;
1345.5000;0.1490;-0.1099;
1345.8000;0.1490;-0.1123;
1346.1000;0.1481;-0.1123;
1346.4000;0.1473;-0.1171;
1346.7000;0.1465;-0.1243;
1347.0000;0.1481;-0.1147;
1347.3000;0.1506;-0.1123;
1347.6000;0.1498;-0.1243;
1347.9000;0.1473;-0.1362;
1348.2000;0.1547;-0.1123;
1348.5000;0.1506;-0.1171;
1348.8000;0.1506;-0.1147;
1349.1000;0.1514;-0.1147;
1349.4000;0.1481;-0.1195;
1349.7000;0.1490;-0.1171;
1350.0000;0.1473;-0.1195;
1350.3000;0.1498;-0.1123;
1350.6000;0.1481;-0.1195;
1350.9000;0.1490;-0.1195;
1351.2000;0.1498;-0.1123;
1351.5000;0.1449;-0.1386;
1351.8000;0.1473;-0.1290;
1352.1000;0.1473;-0.1314;
1352.4000;0.1441;-0.1458;
1352.7000;0.1498;-0.1338;
1353.0000;0.1465;-0.1386;
1353.3000;0.1481;-0.1338;
1353.6000;0.1498;-0.1314;
1353.9000;0.1506;-0.1314;
1354.2000;0.1498;-0.1338;
1354.5000;0.1490;-0.1314;
1354.8000;0.1408;-0.1434;
1355.1000;0.1490;-0.1171;
1355.4000;0.1490;-0.1099;
1355.7000;0.1498;-0.1219;
1356.0000;0.1473;-0.1290;
1356.3000;0.1465;-0.1362;
1356.6000;0.1465;-0.1386;
1356.9000;0.1425;-0.1529;
1357.2000;0.1490;-0.1386;
1357.5000;0.1457;-0.1458;
1357.8000;0.1563;-0.1147;
1358.1000;0.1392;-0.1434;
1358.4000;0.1498;-0.1243;
1358.7000;0.1433;-0.1434;
1359.0000;0.1498;-0.1171;
1359.3000;0.1498;-0.1290;
1359.6000;0.1425;-0.1529;
1359.9000;0.1506;-0.1338;
1360.2000;0.1498;-0.1290;
1360.5000;0.1465;-0.1362;
1360.8000;0.1481;-0.1410;
1361.1000;0.1481;-0.1434;
1361.4000;0.1425;-0.1625;
1361.7000;0.1481;-0.1434;
1362.0000;0.1408;-0.1601;
1362.3000;0.1498;-0.1410;
1362.6000;0.1490;-0.1410;
1362.9000;0.1465;-0.1458;
1363.2000;0.1490;-0.1482;
1363.5000;0.1473;-0.1601;
1363.8000;0.1514;-0.1482;
1364.1000;0.1473;-0.1529;
1364.4000;0.1433;-0.1577;
1364.7000;0.1481;-0.1338;
1365.0000;0.1481;-0.1338;
1365.3000;0.1473;-0.1434;
1365.6000;0.1457;-0.1458;
1365.9000;0.1498;-0.1314;
1366.2000;0.1490;-0.1314;
1366.5000;0.1433;-0.1505;
1366.8000;0.1481;-0.1410;
1367.1000;0.1481;-0.1410;
1367.4000;0.1490;-0.1386;
1367.7000;0.1538;-0.1195;
1368.0000;0.1416;-0.1625;
1368.3000;0.1490;-0.1505;
1368.6000;0.1473;-0.1410;
1368.9000;0.1506;-0.1266;
1369.2000;0.1498;-0.1243;
1369.5000;0.1498;-0.1290;
1369.8000;0.1490;-0.1362;
1370.1000;0.1514;-0.1338;
1370.4000;0.1522;-0.1314;
1370.7000;0.1473;-0.1410;
1371.0000;0.1506;-0.1243;
1371.3000;0.1506;-0.1243;
1371.6000;0.1473;-0.1362;
1371.9000;0.1490;-0.1362;
1372.2000;0.1481;-0.1362;
1372.5000;0.1498;-0.1290;
1372.8000;0.1490;-0.1314;
1373.1000;0.1473;-0.1314;
1373.4000;0.1490;-0.1290;
1373.7000;0.1457;-0.1458;
1374.0000;0.1490;-0.1410;
1374.3000;0.1555;-0.1147;
1374.6000;0.1490;-0.1290;
1374.9000;0.1465;-0.1362;
1375.2000;0.1490;-0.1410;
1375.5000;0.1514;-0.1338;
1375.8000;0.1490;-0.1410;
1376.1000;0.1506;-0.1410;
1376.4000;0.1514;-0.1434;
1376.7000;0.1498;-0.1505;
1377.0000;0.1481;-0.1529;
1377.3000;0.1490;-0.1529;
1377.6000;0.1490;-0.1577;
1377.9000;0.1498;-0.1482;
1378.2000;0.1449;-0.1577;
1378.5000;0.1490;-0.1482;
1378.8000;0.1571;-0.1195;
1379.1000;0.1490;-0.1482;
1379.4000;0.1473;-0.1529;
1379.7000;0.1481;-0.1505;
1380.0000;0.1490;-0.1553;
1380.3000;0.1490;-0.1625;
1380.6000;0.1481;-0.1553;
1380.9000;0.1506;-0.1553;
1381.2000;0.1498;-0.1505;
1381.5000;0.1490;-0.1529;
1381.8000;0.1473;-0.1529;
1382.1000;0.1481;-0.1529;
1382.4000;0.1514;-0.1458;
1382.7000;0.1441;-0.1649;
1383.0000;0.1490;-0.1434;
1383.3000;0.1490;-0.1362;
1383.6000;0.1441;-0.1458;
1383.9000;0.1498;-0.1314;
1384.2000;0.1465;-0.1290;
1384.5000;0.1457;-0.1314;
1384.8000;0.1449;-0.1386;
1385.1000;0.1547;-0.1123;
1385.4000;0.1498;-0.1243;
1385.7000;0.1506;-0.1290;
1386.0000;0.1481;-0.1266;
1386.3000;0.1376;-0.1434;
1386.6000;0.1490;-0.1147;
1386.9000;0.1555;-0.1123;
1387.2000;0.1514;-0.1243;
1387.5000;0.1351;-0.1744;
1387.8000;0.1620;-0.0956;
1388.1000;0.1498;-0.1243;
1388.4000;0.1481;-0.1314;
1388.7000;0.1473;-0.1290;
1389.0000;0.1547;-0.1171;
1389.3000;0.1465;-0.1362;
1389.6000;0.1490;-0.1314;
1389.9000;0.1490;-0.1266;
1390.2000;0.1522;-0.1195;
1390.5000;0.1457;-0.1386;
1390.8000;0.1490;-0.1290;
1391.1000;0.1506;-0.1290;
1391.4000;0.1490;-0.1338;
1391.7000;0.1498;-0.1314;
1392.0000;0.1514;-0.1314;
1392.3000;0.1490;-0.1362;
1392.6000;0.1490;-0.1434;
1392.9000;0.1490;-0.1458;
1393.2000;0.1481;-0.1482;
1393.5000;0.1473;-0.1529;
1393.8000;0.1506;-0.1458;
1394.1000;0.1498;-0.1386;
1394.4000;0.1490;-0.1458;
1394.7000;0.1473;-0.1529;
1395.0000;0.1481;-0.1410;
1395.3000;0.1571;-0.1075;
1395.6000;0.1481;-0.1266;
1395.9000;0.1490;-0.1147;
1396.2000;0.1506;-0.1028;
1396.5000;0.1498;-0.1051;
1396.8000;0.1498;-0.1051;
1397.1000;0.1514;-0.1004;
1397.4000;0.1465;-0.1099;
1397.7000;0.1498;-0.1004;
1398.0000;0.1481;-0.1075;
1398.3000;0.1490;-0.1075;
1398.6000;0.1506;-0.1028;
1398.9000;0.1473;-0.1123;
1399.2000;0.1490;-0.1051;
1399.5000;0.1465;-0.1219;
1399.8000;0.1465;-0.1219;
