time/ms;Fluo/V;P700 deltaI/I x10³;
-199.8000;0.4200;-0.8947;
-199.5000;0.4233;-0.8774;
-199.2000;0.4233;-0.8725;
-198.9000;0.4217;-0.8897;
-198.6000;0.4225;-0.8897;
-198.3000;0.4233;-0.8848;
-198.0000;0.4274;-0.8651;
-197.7000;0.4274;-0.8651;
-197.4000;0.4241;-0.8799;
-197.1000;0.4249;-0.8774;
-196.8000;0.4233;-0.8823;
-196.5000;0.4184;-0.8947;
-196.2000;0.4217;-0.8873;
-195.9000;0.4241;-0.8799;
-195.6000;0.4225;-0.8848;
-195.3000;0.4241;-0.8774;
-195.0000;0.4257;-0.8848;
-194.7000;0.4265;-0.8947;
-194.4000;0.4257;-0.8971;
-194.1000;0.4233;-0.8996;
-193.8000;0.4233;-0.8922;
-193.5000;0.4249;-0.8873;
-193.2000;0.4249;-0.8873;
-192.9000;0.4249;-0.8848;
-192.6000;0.4265;-0.8848;
-192.3000;0.4233;-0.9021;
-192.0000;0.4241;-0.8996;
-191.7000;0.4241;-0.8996;
-191.4000;0.4241;-0.9045;
-191.1000;0.4208;-0.9021;
-190.8000;0.4265;-0.8848;
-190.5000;0.4265;-0.8897;
-190.2000;0.4225;-0.8922;
-189.9000;0.4249;-0.8922;
-189.6000;0.4225;-0.9070;
-189.3000;0.4241;-0.8996;
-189.0000;0.4249;-0.9070;
-188.7000;0.4257;-0.9021;
-188.4000;0.4265;-0.8971;
-188.1000;0.4298;-0.8749;
-187.8000;0.4265;-0.8848;
-187.5000;0.4184;-0.9119;
-187.2000;0.4257;-0.8971;
-186.9000;0.4306;-0.8799;
-186.6000;0.4363;-0.8725;
-186.3000;0.4274;-0.8897;
-186.0000;0.4249;-0.8996;
-185.7000;0.4257;-0.9070;
-185.4000;0.4274;-0.9045;
-185.1000;0.4274;-0.9070;
-184.8000;0.4233;-0.9193;
-184.5000;0.4233;-0.9341;
-184.2000;0.4257;-0.9292;
-183.9000;0.4249;-0.9242;
-183.6000;0.4249;-0.9144;
-183.3000;0.4249;-0.9021;
-183.0000;0.4257;-0.8947;
-182.7000;0.4249;-0.8947;
-182.4000;0.4265;-0.8947;
-182.1000;0.4298;-0.8823;
-181.8000;0.4241;-0.8848;
-181.5000;0.4265;-0.8749;
-181.2000;0.4249;-0.8873;
-180.9000;0.4274;-0.8971;
-180.6000;0.4257;-0.9045;
-180.3000;0.4233;-0.9193;
-180.0000;0.4257;-0.9193;
-179.7000;0.4274;-0.9144;
-179.4000;0.4265;-0.9242;
-179.1000;0.4225;-0.9267;
-178.8000;0.4274;-0.9193;
-178.5000;0.4282;-0.9144;
-178.2000;0.4274;-0.9095;
-177.9000;0.4257;-0.9021;
-177.6000;0.4241;-0.9070;
-177.3000;0.4274;-0.9021;
-177.0000;0.4265;-0.9045;
-176.7000;0.4265;-0.9021;
-176.4000;0.4225;-0.9095;
-176.1000;0.4290;-0.8996;
-175.8000;0.4265;-0.9095;
-175.5000;0.4298;-0.9119;
-175.2000;0.4257;-0.9144;
-174.9000;0.4265;-0.9193;
-174.6000;0.4322;-0.8996;
-174.3000;0.4265;-0.9095;
-174.0000;0.4274;-0.9095;
-173.7000;0.4265;-0.9045;
-173.4000;0.4265;-0.8971;
-173.1000;0.4274;-0.8971;
-172.8000;0.4265;-0.8996;
-172.5000;0.4282;-0.8947;
-172.2000;0.4282;-0.9045;
-171.9000;0.4257;-0.9095;
-171.6000;0.4339;-0.8922;
-171.3000;0.4282;-0.9045;
-171.0000;0.4265;-0.9021;
-170.7000;0.4282;-0.8996;
-170.4000;0.4282;-0.9021;
-170.1000;0.4274;-0.9021;
-169.8000;0.4282;-0.8996;
-169.5000;0.4265;-0.9070;
-169.2000;0.4217;-0.9218;
-168.9000;0.4257;-0.9119;
-168.6000;0.4290;-0.9021;
-168.3000;0.4290;-0.8996;
-168.0000;0.4314;-0.8922;
-167.7000;0.4274;-0.8922;
-167.4000;0.4265;-0.8947;
-167.1000;0.4265;-0.8996;
-166.8000;0.4274;-0.8971;
-166.5000;0.4282;-0.8897;
-166.2000;0.4265;-0.8848;
-165.9000;0.4298;-0.8823;
-165.6000;0.4306;-0.8823;
-165.3000;0.4274;-0.8897;
-165.0000;0.4282;-0.8873;
-164.7000;0.4233;-0.8971;
-164.4000;0.4274;-0.8873;
-164.1000;0.4274;-0.8922;
-163.8000;0.4282;-0.8873;
-163.5000;0.4274;-0.8971;
-163.2000;0.4306;-0.8897;
-162.9000;0.4290;-0.8897;
-162.6000;0.4314;-0.8897;
-162.3000;0.4282;-0.8971;
-162.0000;0.4217;-0.9242;
-161.7000;0.4282;-0.9119;
-161.4000;0.4257;-0.9168;
-161.1000;0.4290;-0.9119;
-160.8000;0.4241;-0.9292;
-160.5000;0.4282;-0.9144;
-160.2000;0.4282;-0.9168;
-159.9000;0.4298;-0.9242;
-159.6000;0.4274;-0.9218;
-159.3000;0.4274;-0.9242;
-159.0000;0.4265;-0.9144;
-158.7000;0.4290;-0.9021;
-158.4000;0.4257;-0.8971;
-158.1000;0.4274;-0.8996;
-157.8000;0.4290;-0.8947;
-157.5000;0.4225;-0.9168;
-157.2000;0.4282;-0.9021;
-156.9000;0.4306;-0.8996;
-156.6000;0.4274;-0.9070;
-156.3000;0.4282;-0.9095;
-156.0000;0.4290;-0.9045;
-155.7000;0.4298;-0.9045;
-155.4000;0.4290;-0.9095;
-155.1000;0.4306;-0.9095;
-154.8000;0.4298;-0.9119;
-154.5000;0.4298;-0.9119;
-154.2000;0.4298;-0.9193;
-153.9000;0.4298;-0.9267;
-153.6000;0.4282;-0.9119;
-153.3000;0.4290;-0.9070;
-153.0000;0.4330;-0.8971;
-152.7000;0.4298;-0.8996;
-152.4000;0.4298;-0.8922;
-152.1000;0.4306;-0.9021;
-151.8000;0.4306;-0.9045;
-151.5000;0.4314;-0.9144;
-151.2000;0.4379;-0.8873;
-150.9000;0.4282;-0.9095;
-150.6000;0.4282;-0.9070;
-150.3000;0.4298;-0.9144;
-150.0000;0.4314;-0.9119;
-149.7000;0.4314;-0.9168;
-149.4000;0.4314;-0.9193;
-149.1000;0.4257;-0.9267;
-148.8000;0.4290;-0.9292;
-148.5000;0.4314;-0.9242;
-148.2000;0.4322;-0.9144;
-147.9000;0.4314;-0.9095;
-147.6000;0.4330;-0.9095;
-147.3000;0.4306;-0.9070;
-147.0000;0.4290;-0.9095;
-146.7000;0.4314;-0.9021;
-146.4000;0.4290;-0.9119;
-146.1000;0.4290;-0.9095;
-145.8000;0.4306;-0.9119;
-145.5000;0.4330;-0.9070;
-145.2000;0.4322;-0.9119;
-144.9000;0.4314;-0.9193;
-144.6000;0.4290;-0.9292;
-144.3000;0.4314;-0.9267;
-144.0000;0.4355;-0.9119;
-143.7000;0.4298;-0.9168;
-143.4000;0.4339;-0.9045;
-143.1000;0.4298;-0.9095;
-142.8000;0.4314;-0.9119;
-142.5000;0.4225;-0.9390;
-142.2000;0.4314;-0.9168;
-141.9000;0.4265;-0.9292;
-141.6000;0.4339;-0.9070;
-141.3000;0.4314;-0.9119;
-141.0000;0.4322;-0.9119;
-140.7000;0.4371;-0.9119;
-140.4000;0.4322;-0.9095;
-140.1000;0.4322;-0.9095;
-139.8000;0.4314;-0.9119;
-139.5000;0.4306;-0.9070;
-139.2000;0.4387;-0.8823;
-138.9000;0.4330;-0.9021;
-138.6000;0.4322;-0.9021;
-138.3000;0.4314;-0.9045;
-138.0000;0.4274;-0.9045;
-137.7000;0.4322;-0.8873;
-137.4000;0.4339;-0.8848;
-137.1000;0.4322;-0.8848;
-136.8000;0.4330;-0.8799;
-136.5000;0.4339;-0.8848;
-136.2000;0.4339;-0.8873;
-135.9000;0.4347;-0.8873;
-135.6000;0.4347;-0.8947;
-135.3000;0.4355;-0.8873;
-135.0000;0.4322;-0.8897;
-134.7000;0.4339;-0.8947;
-134.4000;0.4330;-0.9021;
-134.1000;0.4314;-0.8996;
-133.8000;0.4322;-0.8897;
-133.5000;0.4347;-0.8947;
-133.2000;0.4363;-0.8873;
-132.9000;0.4314;-0.8996;
-132.6000;0.4322;-0.8996;
-132.3000;0.4347;-0.8947;
-132.0000;0.4330;-0.9045;
-131.7000;0.4347;-0.9045;
-131.4000;0.4355;-0.8971;
-131.1000;0.4339;-0.8996;
-130.8000;0.4355;-0.8922;
-130.5000;0.4355;-0.8897;
-130.2000;0.4347;-0.8947;
-129.9000;0.4363;-0.8897;
-129.6000;0.4355;-0.8971;
-129.3000;0.4355;-0.8897;
-129.0000;0.4355;-0.8922;
-128.7000;0.4371;-0.8996;
-128.4000;0.4363;-0.9045;
-128.1000;0.4339;-0.9070;
-127.8000;0.4363;-0.9045;
-127.5000;0.4347;-0.9095;
-127.2000;0.4347;-0.9070;
-126.9000;0.4339;-0.9095;
-126.6000;0.4347;-0.8996;
-126.3000;0.4363;-0.8947;
-126.0000;0.4363;-0.8897;
-125.7000;0.4339;-0.8971;
-125.4000;0.4347;-0.8922;
-125.1000;0.4355;-0.9045;
-124.8000;0.4404;-0.8971;
-124.5000;0.4363;-0.9095;
-124.2000;0.4355;-0.9119;
-123.9000;0.4355;-0.8996;
-123.6000;0.4404;-0.8996;
-123.3000;0.4355;-0.9193;
-123.0000;0.4347;-0.9242;
-122.7000;0.4339;-0.9218;
-122.4000;0.4363;-0.9144;
-122.1000;0.4347;-0.9045;
-121.8000;0.4420;-0.8922;
-121.5000;0.4396;-0.8897;
-121.2000;0.4363;-0.8947;
-120.9000;0.4363;-0.8971;
-120.6000;0.4355;-0.8947;
-120.3000;0.4363;-0.8947;
-120.0000;0.4379;-0.8873;
-119.7000;0.4379;-0.8922;
-119.4000;0.4314;-0.9144;
-119.1000;0.4363;-0.8897;
-118.8000;0.4347;-0.8823;
-118.5000;0.4339;-0.8823;
-118.2000;0.4355;-0.8873;
-117.9000;0.4347;-0.8922;
-117.6000;0.4355;-0.9045;
-117.3000;0.4379;-0.8996;
-117.0000;0.4412;-0.8947;
-116.7000;0.4379;-0.8971;
-116.4000;0.4363;-0.9070;
-116.1000;0.4387;-0.9021;
-115.8000;0.4290;-0.9316;
-115.5000;0.4371;-0.9045;
-115.2000;0.4387;-0.9070;
-114.9000;0.4379;-0.9070;
-114.6000;0.4387;-0.9070;
-114.3000;0.4363;-0.9095;
-114.0000;0.4371;-0.9095;
-113.7000;0.4396;-0.8897;
-113.4000;0.4379;-0.8897;
-113.1000;0.4355;-0.8996;
-112.8000;0.4379;-0.8922;
-112.5000;0.4371;-0.8996;
-112.2000;0.4379;-0.9045;
-111.9000;0.4371;-0.9144;
-111.6000;0.4371;-0.9218;
-111.3000;0.4387;-0.9267;
-111.0000;0.4379;-0.9267;
-110.7000;0.4379;-0.9292;
-110.4000;0.4387;-0.9193;
-110.1000;0.4387;-0.9218;
-109.8000;0.4404;-0.9292;
-109.5000;0.4396;-0.9267;
-109.2000;0.4396;-0.9168;
-108.9000;0.4387;-0.9168;
-108.6000;0.4387;-0.9144;
-108.3000;0.4396;-0.9144;
-108.0000;0.4387;-0.9144;
-107.7000;0.4371;-0.9095;
-107.4000;0.4387;-0.9070;
-107.1000;0.4387;-0.9144;
-106.8000;0.4396;-0.9144;
-106.5000;0.4396;-0.9021;
-106.2000;0.4387;-0.8996;
-105.9000;0.4387;-0.9095;
-105.6000;0.4387;-0.9095;
-105.3000;0.4420;-0.9021;
-105.0000;0.4404;-0.9095;
-104.7000;0.4412;-0.9070;
-104.4000;0.4404;-0.9045;
-104.1000;0.4396;-0.9070;
-103.8000;0.4453;-0.8823;
-103.5000;0.4404;-0.8996;
-103.2000;0.4404;-0.9045;
-102.9000;0.4387;-0.9095;
-102.6000;0.4404;-0.9021;
-102.3000;0.4412;-0.9119;
-102.0000;0.4396;-0.9242;
-101.7000;0.4371;-0.9292;
-101.4000;0.4404;-0.9144;
-101.1000;0.4387;-0.9218;
-100.8000;0.4412;-0.9070;
-100.5000;0.4420;-0.9045;
-100.2000;0.4412;-0.9119;
-99.9000;0.4469;-0.8947;
-99.6000;0.4420;-0.9070;
-99.3000;0.4412;-0.8996;
-99.0000;0.4436;-0.8922;
-98.7000;0.4387;-0.9119;
-98.4000;0.4469;-0.8947;
-98.1000;0.4420;-0.9070;
-97.8000;0.4396;-0.9218;
-97.5000;0.4404;-0.9168;
-97.2000;0.4412;-0.9095;
-96.9000;0.4436;-0.9095;
-96.6000;0.4420;-0.9193;
-96.3000;0.4428;-0.9242;
-96.0000;0.4428;-0.9168;
-95.7000;0.4420;-0.9267;
-95.4000;0.4428;-0.9193;
-95.1000;0.4420;-0.9193;
-94.8000;0.4428;-0.9218;
-94.5000;0.4444;-0.9144;
-94.2000;0.4436;-0.9144;
-93.9000;0.4412;-0.9095;
-93.6000;0.4420;-0.9119;
-93.3000;0.4420;-0.9119;
-93.0000;0.4453;-0.9119;
-92.7000;0.4420;-0.9267;
-92.4000;0.4420;-0.9292;
-92.1000;0.4436;-0.9316;
-91.8000;0.4436;-0.9366;
-91.5000;0.4428;-0.9440;
-91.2000;0.4420;-0.9415;
-90.9000;0.4396;-0.9538;
-90.6000;0.4428;-0.9514;
-90.3000;0.4436;-0.9563;
-90.0000;0.4493;-0.9341;
-89.7000;0.4453;-0.9440;
-89.4000;0.4444;-0.9341;
-89.1000;0.4428;-0.9242;
-88.8000;0.4444;-0.9021;
-88.5000;0.4420;-0.9095;
-88.2000;0.4436;-0.9045;
-87.9000;0.4355;-0.9218;
-87.6000;0.4420;-0.8947;
-87.3000;0.4420;-0.9070;
-87.0000;0.4428;-0.9070;
-86.7000;0.4420;-0.9168;
-86.4000;0.4428;-0.9218;
-86.1000;0.4444;-0.9267;
-85.8000;0.4396;-0.9316;
-85.5000;0.4444;-0.9193;
-85.2000;0.4428;-0.9366;
-84.9000;0.4428;-0.9440;
-84.6000;0.4444;-0.9464;
-84.3000;0.4444;-0.9390;
-84.0000;0.4444;-0.9242;
-83.7000;0.4453;-0.9292;
-83.4000;0.4453;-0.9341;
-83.1000;0.4493;-0.9168;
-82.8000;0.4453;-0.9242;
-82.5000;0.4436;-0.9242;
-82.2000;0.4453;-0.9218;
-81.9000;0.4420;-0.9267;
-81.6000;0.4363;-0.9415;
-81.3000;0.4444;-0.9218;
-81.0000;0.4436;-0.9168;
-80.7000;0.4461;-0.9070;
-80.4000;0.4469;-0.9070;
-80.1000;0.4428;-0.9193;
-79.8000;0.4436;-0.9144;
-79.5000;0.4444;-0.9119;
-79.2000;0.4453;-0.9119;
-78.9000;0.4493;-0.9070;
-78.6000;0.4436;-0.9168;
-78.3000;0.4461;-0.9218;
-78.0000;0.4461;-0.9242;
-77.7000;0.4469;-0.9218;
-77.4000;0.4469;-0.9144;
-77.1000;0.4412;-0.9267;
-76.8000;0.4453;-0.9168;
-76.5000;0.4558;-0.8971;
-76.2000;0.4453;-0.9267;
-75.9000;0.4477;-0.9218;
-75.6000;0.4477;-0.9193;
-75.3000;0.4501;-0.9119;
-75.0000;0.4518;-0.9070;
-74.7000;0.4461;-0.9193;
-74.4000;0.4469;-0.9168;
-74.1000;0.4526;-0.8971;
-73.8000;0.4477;-0.8996;
-73.5000;0.4461;-0.9045;
-73.2000;0.4444;-0.8996;
-72.9000;0.4477;-0.8947;
-72.6000;0.4485;-0.8922;
-72.3000;0.4428;-0.9045;
-72.0000;0.4453;-0.9045;
-71.7000;0.4436;-0.9021;
-71.4000;0.4469;-0.8922;
-71.1000;0.4485;-0.8922;
-70.8000;0.4469;-0.9070;
-70.5000;0.4485;-0.9095;
-70.2000;0.4477;-0.9193;
-69.9000;0.4469;-0.9119;
-69.6000;0.4444;-0.9218;
-69.3000;0.4477;-0.8971;
-69.0000;0.4477;-0.8996;
-68.7000;0.4575;-0.8799;
-68.4000;0.4485;-0.9021;
-68.1000;0.4396;-0.9267;
-67.8000;0.4477;-0.9021;
-67.5000;0.4501;-0.9021;
-67.2000;0.4510;-0.9021;
-66.9000;0.4485;-0.9021;
-66.6000;0.4469;-0.8971;
-66.3000;0.4510;-0.8799;
-66.0000;0.4485;-0.8873;
-65.7000;0.4461;-0.8897;
-65.4000;0.4485;-0.8848;
-65.1000;0.4493;-0.8873;
-64.8000;0.4469;-0.8848;
-64.5000;0.4485;-0.8749;
-64.2000;0.4485;-0.8651;
-63.9000;0.4477;-0.8725;
-63.6000;0.4461;-0.8749;
-63.3000;0.4485;-0.8823;
-63.0000;0.4477;-0.8947;
-62.7000;0.4485;-0.8823;
-62.4000;0.4501;-0.8823;
-62.1000;0.4469;-0.8873;
-61.8000;0.4501;-0.8848;
-61.5000;0.4477;-0.8922;
-61.2000;0.4510;-0.8823;
-60.9000;0.4493;-0.8897;
-60.6000;0.4493;-0.8848;
-60.3000;0.4501;-0.8848;
-60.0000;0.4510;-0.8823;
-59.7000;0.4518;-0.8848;
-59.4000;0.4534;-0.8799;
-59.1000;0.4510;-0.8873;
-58.8000;0.4510;-0.8947;
-58.5000;0.4583;-0.8799;
-58.2000;0.4493;-0.9021;
-57.9000;0.4493;-0.9045;
-57.6000;0.4493;-0.9144;
-57.3000;0.4501;-0.9168;
-57.0000;0.4485;-0.9144;
-56.7000;0.4436;-0.9316;
-56.4000;0.4477;-0.9242;
-56.1000;0.4477;-0.9242;
-55.8000;0.4501;-0.9193;
-55.5000;0.4510;-0.9267;
-55.2000;0.4493;-0.9218;
-54.9000;0.4558;-0.8971;
-54.6000;0.4485;-0.9144;
-54.3000;0.4501;-0.9095;
-54.0000;0.4493;-0.9119;
-53.7000;0.4542;-0.9119;
-53.4000;0.4518;-0.9144;
-53.1000;0.4518;-0.9144;
-52.8000;0.4501;-0.9193;
-52.5000;0.4518;-0.9119;
-52.2000;0.4518;-0.9119;
-51.9000;0.4461;-0.9267;
-51.6000;0.4518;-0.9193;
-51.3000;0.4485;-0.9292;
-51.0000;0.4550;-0.9242;
-50.7000;0.4567;-0.9193;
-50.4000;0.4558;-0.9119;
-50.1000;0.4510;-0.9242;
-49.8000;0.4534;-0.9168;
-49.5000;0.4518;-0.9242;
-49.2000;0.4526;-0.9292;
-48.9000;0.4518;-0.9341;
-48.6000;0.4526;-0.9218;
-48.3000;0.4526;-0.9242;
-48.0000;0.4477;-0.9292;
-47.7000;0.4501;-0.9119;
-47.4000;0.4510;-0.9095;
-47.1000;0.4526;-0.9095;
-46.8000;0.4526;-0.9095;
-46.5000;0.4518;-0.9070;
-46.2000;0.4510;-0.9021;
-45.9000;0.4518;-0.8971;
-45.6000;0.4534;-0.8873;
-45.3000;0.4518;-0.8922;
-45.0000;0.4510;-0.8947;
-44.7000;0.4526;-0.8996;
-44.4000;0.4518;-0.9095;
-44.1000;0.4575;-0.8922;
-43.8000;0.4526;-0.8996;
-43.5000;0.4526;-0.9045;
-43.2000;0.4534;-0.9021;
-42.9000;0.4534;-0.9045;
-42.6000;0.4518;-0.9070;
-42.3000;0.4526;-0.9045;
-42.0000;0.4550;-0.8971;
-41.7000;0.4510;-0.8996;
-41.4000;0.4510;-0.8971;
-41.1000;0.4550;-0.8996;
-40.8000;0.4518;-0.9095;
-40.5000;0.4526;-0.9095;
-40.2000;0.4518;-0.9168;
-39.9000;0.4526;-0.9168;
-39.6000;0.4534;-0.9095;
-39.3000;0.4558;-0.9045;
-39.0000;0.4550;-0.9021;
-38.7000;0.4526;-0.9045;
-38.4000;0.4542;-0.8947;
-38.1000;0.4550;-0.8873;
-37.8000;0.4550;-0.8922;
-37.5000;0.4542;-0.8922;
-37.2000;0.4550;-0.8922;
-36.9000;0.4542;-0.8897;
-36.6000;0.4558;-0.8873;
-36.3000;0.4534;-0.8897;
-36.0000;0.4534;-0.8996;
-35.7000;0.4542;-0.8922;
-35.4000;0.4485;-0.9119;
-35.1000;0.4501;-0.9021;
-34.8000;0.4501;-0.8996;
-34.5000;0.4542;-0.8996;
-34.2000;0.4550;-0.8971;
-33.9000;0.4510;-0.9021;
-33.6000;0.4444;-0.9218;
-33.3000;0.4534;-0.8971;
-33.0000;0.4567;-0.8823;
-32.7000;0.4550;-0.8922;
-32.4000;0.4485;-0.9168;
-32.1000;0.4518;-0.9095;
-31.8000;0.4558;-0.9045;
-31.5000;0.4534;-0.9119;
-31.2000;0.4542;-0.9070;
-30.9000;0.4518;-0.9045;
-30.6000;0.4526;-0.9070;
-30.3000;0.4534;-0.9070;
-30.0000;0.4558;-0.9021;
-29.7000;0.4510;-0.9095;
-29.4000;0.4591;-0.8947;
-29.1000;0.4534;-0.9095;
-28.8000;0.4526;-0.9070;
-28.5000;0.4567;-0.8996;
-28.2000;0.4542;-0.9095;
-27.9000;0.4534;-0.9119;
-27.6000;0.4550;-0.8947;
-27.3000;0.4534;-0.9045;
-27.0000;0.4542;-0.9021;
-26.7000;0.4501;-0.9168;
-26.4000;0.4477;-0.9193;
-26.1000;0.4542;-0.8971;
-25.8000;0.4526;-0.9070;
-25.5000;0.4624;-0.8774;
-25.2000;0.4534;-0.8947;
-24.9000;0.4550;-0.9021;
-24.6000;0.4550;-0.8996;
-24.3000;0.4558;-0.8996;
-24.0000;0.4567;-0.8922;
-23.7000;0.4542;-0.8971;
-23.4000;0.4550;-0.9095;
-23.1000;0.4558;-0.9095;
-22.8000;0.4567;-0.9021;
-22.5000;0.4575;-0.8971;
-22.2000;0.4558;-0.9021;
-21.9000;0.4542;-0.9144;
-21.6000;0.4558;-0.9021;
-21.3000;0.4550;-0.8996;
-21.0000;0.4518;-0.9144;
-20.7000;0.4550;-0.9168;
-20.4000;0.4542;-0.9119;
-20.1000;0.4534;-0.9193;
-19.8000;0.4542;-0.9242;
-19.5000;0.4550;-0.9218;
-19.2000;0.4550;-0.9144;
-18.9000;0.4558;-0.9168;
-18.6000;0.4558;-0.9168;
-18.3000;0.4558;-0.9144;
-18.0000;0.4575;-0.9144;
-17.7000;0.4567;-0.9095;
-17.4000;0.4567;-0.9095;
-17.1000;0.4542;-0.9119;
-16.8000;0.4558;-0.9045;
-16.5000;0.4575;-0.8996;
-16.2000;0.4542;-0.9021;
-15.9000;0.4558;-0.8922;
-15.6000;0.4550;-0.9021;
-15.3000;0.4558;-0.9070;
-15.0000;0.4558;-0.9218;
-14.7000;0.4575;-0.9267;
-14.4000;0.4583;-0.9341;
-14.1000;0.4567;-0.9440;
-13.8000;0.4583;-0.9440;
-13.5000;0.4583;-0.9415;
-13.2000;0.4558;-0.9415;
-12.9000;0.4575;-0.9390;
-12.6000;0.4575;-0.9242;
-12.3000;0.4542;-0.9341;
-12.0000;0.4591;-0.9168;
-11.7000;0.4558;-0.9218;
-11.4000;0.4583;-0.9242;
-11.1000;0.4526;-0.9415;
-10.8000;0.4558;-0.9341;
-10.5000;0.4583;-0.9193;
-10.2000;0.4542;-0.9267;
-9.9000;0.4558;-0.9193;
-9.6000;0.4591;-0.9095;
-9.3000;0.4567;-0.9168;
-9.0000;0.4558;-0.9144;
-8.7000;0.4599;-0.8996;
-8.4000;0.4607;-0.8873;
-8.1000;0.4558;-0.9045;
-7.8000;0.4567;-0.9070;
-7.5000;0.4599;-0.9021;
-7.2000;0.4575;-0.9119;
-6.9000;0.4558;-0.9193;
-6.6000;0.4558;-0.9218;
-6.3000;0.4550;-0.9267;
-6.0000;0.4534;-0.9366;
-5.7000;0.4542;-0.9242;
-5.4000;0.4567;-0.9242;
-5.1000;0.4583;-0.9267;
-4.8000;0.4583;-0.9242;
-4.5000;0.4599;-0.9144;
-4.2000;0.4583;-0.9168;
-3.9000;0.4558;-0.9292;
-3.6000;0.4567;-0.9267;
-3.3000;0.4567;-0.9193;
-3.0000;0.4583;-0.9193;
-2.7000;0.4518;-0.9316;
-2.4000;0.4591;-0.9119;
-2.1000;0.4583;-0.9144;
-1.8000;0.4575;-0.9144;
-1.5000;0.4583;-0.9144;
-1.2000;0.4583;-0.9119;
-0.9000;0.4575;-0.9144;
-0.6000;0.4567;-0.9070;
-0.3000;0.4542;-0.9095;
0.0000;0.4542;-0.9095;
0.3000;0.4737;-0.9390;
0.6000;0.5201;-0.8922;
0.9000;0.5608;-0.8429;
1.2000;0.5853;-0.8035;
1.5000;0.6146;-0.7566;
1.8000;0.6333;-0.7172;
2.1000;0.6504;-0.6827;
2.4000;0.6618;-0.6630;
2.7000;0.6732;-0.6359;
3.0000;0.6813;-0.6112;
3.3000;0.6878;-0.5915;
3.6000;0.6952;-0.5743;
3.9000;0.7000;-0.5693;
4.2000;0.7041;-0.5422;
4.5000;0.7057;-0.5373;
4.8000;0.7090;-0.5422;
5.1000;0.7106;-0.5398;
5.4000;0.7147;-0.5373;
5.7000;0.7179;-0.5398;
6.0000;0.7196;-0.5422;
6.3000;0.7212;-0.5373;
6.6000;0.7236;-0.5422;
6.9000;0.7236;-0.5472;
7.2000;0.7269;-0.5447;
7.5000;0.7277;-0.5373;
7.8000;0.7285;-0.5398;
8.1000;0.7293;-0.5496;
8.4000;0.7326;-0.5447;
8.7000;0.7310;-0.5447;
9.0000;0.7350;-0.5324;
9.3000;0.7342;-0.5299;
9.6000;0.7359;-0.5225;
9.9000;0.7375;-0.5225;
10.2000;0.7367;-0.5250;
10.5000;0.7399;-0.5299;
10.8000;0.7391;-0.5348;
11.1000;0.7424;-0.5324;
11.4000;0.7416;-0.5398;
11.7000;0.7489;-0.5348;
12.0000;0.7432;-0.5496;
12.3000;0.7521;-0.5225;
12.6000;0.7432;-0.5398;
12.9000;0.7448;-0.5447;
13.2000;0.7497;-0.5398;
13.5000;0.7489;-0.5398;
13.8000;0.7464;-0.5545;
14.1000;0.7505;-0.5496;
14.4000;0.7538;-0.5447;
14.7000;0.7546;-0.5521;
15.0000;0.7554;-0.5595;
15.3000;0.7578;-0.5521;
15.6000;0.7570;-0.5595;
15.9000;0.7603;-0.5595;
16.2000;0.7586;-0.5545;
16.5000;0.7603;-0.5619;
16.8000;0.7619;-0.5570;
17.1000;0.7586;-0.5644;
17.4000;0.7627;-0.5545;
17.7000;0.7643;-0.5521;
18.0000;0.7668;-0.5595;
18.3000;0.7692;-0.5595;
18.6000;0.7603;-0.5841;
18.9000;0.7635;-0.5792;
19.2000;0.7692;-0.5841;
19.5000;0.7741;-0.5743;
19.8000;0.7717;-0.5915;
20.1000;0.7700;-0.5964;
20.4000;0.7717;-0.6014;
20.7000;0.7733;-0.6014;
21.0000;0.7749;-0.5989;
21.3000;0.7774;-0.6014;
21.6000;0.7782;-0.6014;
21.9000;0.7790;-0.6063;
22.2000;0.7814;-0.6063;
22.5000;0.7790;-0.6137;
22.8000;0.7814;-0.6137;
23.1000;0.7880;-0.6038;
23.4000;0.7831;-0.6112;
23.7000;0.7839;-0.6162;
24.0000;0.7790;-0.6383;
24.3000;0.7831;-0.6186;
24.6000;0.7855;-0.6162;
24.9000;0.7831;-0.6260;
25.2000;0.7904;-0.6162;
25.5000;0.7880;-0.6285;
25.8000;0.7871;-0.6285;
26.1000;0.7880;-0.6309;
26.4000;0.7896;-0.6334;
26.7000;0.7920;-0.6260;
27.0000;0.7937;-0.6186;
27.3000;0.7855;-0.6408;
27.6000;0.7937;-0.6236;
27.9000;0.7953;-0.6260;
28.2000;0.7953;-0.6260;
28.5000;0.7961;-0.6260;
28.8000;0.7969;-0.6260;
29.1000;0.7993;-0.6211;
29.4000;0.7985;-0.6334;
29.7000;0.7977;-0.6334;
30.0000;0.8010;-0.6260;
30.3000;0.8002;-0.6334;
30.6000;0.8002;-0.6383;
30.9000;0.7977;-0.6531;
31.2000;0.8026;-0.6334;
31.5000;0.8034;-0.6359;
31.8000;0.8034;-0.6285;
32.1000;0.8018;-0.6383;
32.4000;0.8050;-0.6334;
32.7000;0.8059;-0.6408;
33.0000;0.8075;-0.6359;
33.3000;0.8059;-0.6507;
33.6000;0.8075;-0.6556;
33.9000;0.8091;-0.6482;
34.2000;0.8075;-0.6581;
34.5000;0.8099;-0.6605;
34.8000;0.8067;-0.6778;
35.1000;0.8083;-0.6753;
35.4000;0.8140;-0.6630;
35.7000;0.8124;-0.6679;
36.0000;0.8148;-0.6581;
36.3000;0.8091;-0.6778;
36.6000;0.8124;-0.6802;
36.9000;0.8140;-0.6802;
37.2000;0.8148;-0.6778;
37.5000;0.8156;-0.6778;
37.8000;0.8148;-0.6778;
38.1000;0.8148;-0.6778;
38.4000;0.8173;-0.6753;
38.7000;0.8173;-0.6679;
39.0000;0.8173;-0.6605;
39.3000;0.8156;-0.6679;
39.6000;0.8230;-0.6630;
39.9000;0.8181;-0.6778;
40.2000;0.8205;-0.6827;
40.5000;0.8173;-0.6876;
40.8000;0.8197;-0.6926;
41.1000;0.8221;-0.6802;
41.4000;0.8189;-0.6876;
41.7000;0.8213;-0.6827;
42.0000;0.8221;-0.6852;
42.3000;0.8246;-0.6802;
42.6000;0.8230;-0.6802;
42.9000;0.8197;-0.6926;
43.2000;0.8254;-0.6778;
43.5000;0.8319;-0.6605;
43.8000;0.8246;-0.6901;
44.1000;0.8254;-0.6852;
44.4000;0.8124;-0.7123;
44.7000;0.8254;-0.6802;
45.0000;0.8278;-0.6778;
45.3000;0.8262;-0.6827;
45.6000;0.8270;-0.6778;
45.9000;0.8246;-0.6753;
46.2000;0.8278;-0.6704;
46.5000;0.8287;-0.6581;
46.8000;0.8278;-0.6679;
47.1000;0.8311;-0.6655;
47.4000;0.8344;-0.6605;
47.7000;0.8295;-0.6679;
48.0000;0.8270;-0.6728;
48.3000;0.8303;-0.6630;
48.6000;0.8327;-0.6581;
48.9000;0.8319;-0.6630;
49.2000;0.8319;-0.6728;
49.5000;0.8335;-0.6728;
49.8000;0.8344;-0.6679;
50.1000;0.8344;-0.6630;
50.4000;0.8327;-0.6704;
50.7000;0.8335;-0.6655;
51.0000;0.8344;-0.6728;
51.3000;0.8344;-0.6802;
51.6000;0.8344;-0.6802;
51.9000;0.8335;-0.6901;
52.2000;0.8344;-0.6876;
52.5000;0.8319;-0.6926;
52.8000;0.8360;-0.6827;
53.1000;0.8352;-0.6852;
53.4000;0.8327;-0.6852;
53.7000;0.8392;-0.6728;
54.0000;0.8384;-0.6827;
54.3000;0.8360;-0.6975;
54.6000;0.8400;-0.7024;
54.9000;0.8376;-0.6926;
55.2000;0.8384;-0.6950;
55.5000;0.8384;-0.6876;
55.8000;0.8392;-0.6926;
56.1000;0.8400;-0.6852;
56.4000;0.8400;-0.6827;
56.7000;0.8400;-0.6876;
57.0000;0.8409;-0.6876;
57.3000;0.8392;-0.7000;
57.6000;0.8409;-0.7074;
57.9000;0.8409;-0.7147;
58.2000;0.8425;-0.7098;
58.5000;0.8409;-0.7024;
58.8000;0.8433;-0.7024;
59.1000;0.8433;-0.7000;
59.4000;0.8417;-0.6975;
59.7000;0.8425;-0.6950;
60.0000;0.8409;-0.7049;
60.3000;0.8441;-0.6975;
60.6000;0.8433;-0.7049;
60.9000;0.8417;-0.7172;
61.2000;0.8441;-0.7147;
61.5000;0.8409;-0.7172;
61.8000;0.8441;-0.7147;
62.1000;0.8466;-0.7024;
62.4000;0.8466;-0.7000;
62.7000;0.8457;-0.7123;
63.0000;0.8457;-0.7221;
63.3000;0.8425;-0.7320;
63.6000;0.8457;-0.7147;
63.9000;0.8449;-0.7221;
64.2000;0.8466;-0.7271;
64.5000;0.8441;-0.7295;
64.8000;0.8482;-0.7123;
65.1000;0.8474;-0.7074;
65.4000;0.8474;-0.7024;
65.7000;0.8490;-0.6975;
66.0000;0.8466;-0.7123;
66.3000;0.8466;-0.7098;
66.6000;0.8466;-0.7074;
66.9000;0.8474;-0.7000;
67.2000;0.8490;-0.7000;
67.5000;0.8506;-0.6876;
67.8000;0.8514;-0.6950;
68.1000;0.8498;-0.6950;
68.4000;0.8482;-0.7098;
68.7000;0.8498;-0.7024;
69.0000;0.8523;-0.7000;
69.3000;0.8490;-0.7098;
69.6000;0.8466;-0.7172;
69.9000;0.8490;-0.7172;
70.2000;0.8506;-0.7049;
70.5000;0.8498;-0.7074;
70.8000;0.8482;-0.7197;
71.1000;0.8482;-0.7197;
71.4000;0.8466;-0.7221;
71.7000;0.8514;-0.7221;
72.0000;0.8506;-0.7197;
72.3000;0.8514;-0.7197;
72.6000;0.8514;-0.7098;
72.9000;0.8531;-0.7024;
73.2000;0.8523;-0.7074;
73.5000;0.8514;-0.7074;
73.8000;0.8531;-0.7074;
74.1000;0.8523;-0.7147;
74.4000;0.8514;-0.7172;
74.7000;0.8531;-0.7147;
75.0000;0.8433;-0.7369;
75.3000;0.8563;-0.7000;
75.6000;0.8514;-0.7098;
75.9000;0.8514;-0.7000;
76.2000;0.8514;-0.6926;
76.5000;0.8563;-0.6778;
76.8000;0.8547;-0.6926;
77.1000;0.8523;-0.7074;
77.4000;0.8523;-0.7123;
77.7000;0.8539;-0.7024;
78.0000;0.8547;-0.7024;
78.3000;0.8539;-0.6975;
78.6000;0.8539;-0.6876;
78.9000;0.8523;-0.6950;
79.2000;0.8547;-0.6876;
79.5000;0.8547;-0.6876;
79.8000;0.8580;-0.6852;
80.1000;0.8539;-0.6975;
80.4000;0.8555;-0.7024;
80.7000;0.8514;-0.7049;
81.0000;0.8539;-0.6975;
81.3000;0.8547;-0.6876;
81.6000;0.8563;-0.6876;
81.9000;0.8506;-0.7024;
82.2000;0.8531;-0.7000;
82.5000;0.8514;-0.7000;
82.8000;0.8547;-0.6926;
83.1000;0.8531;-0.6950;
83.4000;0.8498;-0.7049;
83.7000;0.8588;-0.6852;
84.0000;0.8523;-0.6975;
84.3000;0.8523;-0.6926;
84.6000;0.8555;-0.6926;
84.9000;0.8555;-0.6975;
85.2000;0.8563;-0.6876;
85.5000;0.8596;-0.6876;
85.8000;0.8531;-0.7024;
86.1000;0.8580;-0.6975;
86.4000;0.8563;-0.7024;
86.7000;0.8523;-0.7221;
87.0000;0.8555;-0.7049;
87.3000;0.8547;-0.7074;
87.6000;0.8612;-0.6926;
87.9000;0.8628;-0.6876;
88.2000;0.8571;-0.6950;
88.5000;0.8612;-0.6852;
88.8000;0.8588;-0.6926;
89.1000;0.8571;-0.7024;
89.4000;0.8596;-0.6950;
89.7000;0.8580;-0.6975;
90.0000;0.8571;-0.7024;
90.3000;0.8555;-0.7024;
90.6000;0.8563;-0.6926;
90.9000;0.8580;-0.6852;
91.2000;0.8547;-0.7000;
91.5000;0.8612;-0.6852;
91.8000;0.8571;-0.7000;
92.1000;0.8588;-0.6901;
92.4000;0.8563;-0.7000;
92.7000;0.8571;-0.7049;
93.0000;0.8588;-0.6975;
93.3000;0.8596;-0.6975;
93.6000;0.8588;-0.7024;
93.9000;0.8571;-0.7098;
94.2000;0.8588;-0.7074;
94.5000;0.8596;-0.7049;
94.8000;0.8588;-0.7074;
95.1000;0.8596;-0.7123;
95.4000;0.8612;-0.7172;
95.7000;0.8596;-0.7197;
96.0000;0.8604;-0.7221;
96.3000;0.8580;-0.7271;
96.6000;0.8596;-0.7246;
96.9000;0.8596;-0.7221;
97.2000;0.8596;-0.7295;
97.5000;0.8588;-0.7246;
97.8000;0.8588;-0.7172;
98.1000;0.8596;-0.7098;
98.4000;0.8580;-0.7221;
98.7000;0.8571;-0.7197;
99.0000;0.8628;-0.7000;
99.3000;0.8596;-0.7074;
99.6000;0.8588;-0.7098;
99.9000;0.8612;-0.7049;
100.2000;0.8596;-0.7123;
100.5000;0.8596;-0.7123;
100.8000;0.8620;-0.7074;
101.1000;0.8620;-0.6975;
101.4000;0.8588;-0.7123;
101.7000;0.8588;-0.7123;
102.0000;0.8612;-0.7074;
102.3000;0.8596;-0.7123;
102.6000;0.8571;-0.7147;
102.9000;0.8604;-0.7049;
103.2000;0.8596;-0.7172;
103.5000;0.8604;-0.7221;
103.8000;0.8580;-0.7271;
104.1000;0.8580;-0.7271;
104.4000;0.8588;-0.7197;
104.7000;0.8498;-0.7443;
105.0000;0.8563;-0.7246;
105.3000;0.8596;-0.7074;
105.6000;0.8571;-0.7197;
105.9000;0.8588;-0.7197;
106.2000;0.8596;-0.7197;
106.5000;0.8547;-0.7345;
106.8000;0.8523;-0.7468;
107.1000;0.8596;-0.7147;
107.4000;0.8596;-0.7147;
107.7000;0.8563;-0.7172;
108.0000;0.8588;-0.7197;
108.3000;0.8596;-0.7221;
108.6000;0.8612;-0.7197;
108.9000;0.8628;-0.7172;
109.2000;0.8588;-0.7147;
109.5000;0.8596;-0.7123;
109.8000;0.8604;-0.7172;
110.1000;0.8661;-0.7049;
110.4000;0.8612;-0.7123;
110.7000;0.8580;-0.7221;
111.0000;0.8596;-0.7246;
111.3000;0.8620;-0.7246;
111.6000;0.8620;-0.7271;
111.9000;0.8661;-0.7147;
112.2000;0.8612;-0.7246;
112.5000;0.8702;-0.6950;
112.8000;0.8596;-0.7320;
113.1000;0.8596;-0.7295;
113.4000;0.8604;-0.7271;
113.7000;0.8596;-0.7295;
114.0000;0.8604;-0.7320;
114.3000;0.8588;-0.7369;
114.6000;0.8612;-0.7271;
114.9000;0.8612;-0.7246;
115.2000;0.8588;-0.7295;
115.5000;0.8604;-0.7295;
115.8000;0.8596;-0.7369;
116.1000;0.8612;-0.7271;
116.4000;0.8596;-0.7345;
116.7000;0.8588;-0.7320;
117.0000;0.8588;-0.7295;
117.3000;0.8702;-0.7123;
117.6000;0.8620;-0.7295;
117.9000;0.8604;-0.7345;
118.2000;0.8596;-0.7394;
118.5000;0.8604;-0.7419;
118.8000;0.8604;-0.7345;
119.1000;0.8588;-0.7468;
119.4000;0.8588;-0.7394;
119.7000;0.8620;-0.7369;
120.0000;0.8620;-0.7320;
120.3000;0.8628;-0.7246;
120.6000;0.8604;-0.7271;
120.9000;0.8588;-0.7246;
121.2000;0.8612;-0.7197;
121.5000;0.8620;-0.7221;
121.8000;0.8596;-0.7271;
122.1000;0.8596;-0.7369;
122.4000;0.8604;-0.7369;
122.7000;0.8620;-0.7295;
123.0000;0.8596;-0.7369;
123.3000;0.8596;-0.7369;
123.6000;0.8571;-0.7443;
123.9000;0.8612;-0.7419;
124.2000;0.8620;-0.7443;
124.5000;0.8612;-0.7369;
124.8000;0.8588;-0.7320;
125.1000;0.8588;-0.7320;
125.4000;0.8612;-0.7197;
125.7000;0.8637;-0.7098;
126.0000;0.8620;-0.7123;
126.3000;0.8669;-0.7049;
126.6000;0.8596;-0.7246;
126.9000;0.8596;-0.7197;
127.2000;0.8588;-0.7098;
127.5000;0.8612;-0.7049;
127.8000;0.8596;-0.7074;
128.1000;0.8580;-0.7197;
128.4000;0.8604;-0.7172;
128.7000;0.8580;-0.7197;
129.0000;0.8612;-0.7246;
129.3000;0.8612;-0.7246;
129.6000;0.8563;-0.7517;
129.9000;0.8628;-0.7246;
130.2000;0.8604;-0.7271;
130.5000;0.8620;-0.7221;
130.8000;0.8514;-0.7419;
131.1000;0.8620;-0.7246;
131.4000;0.8563;-0.7394;
131.7000;0.8702;-0.7074;
132.0000;0.8669;-0.7074;
132.3000;0.8563;-0.7345;
132.6000;0.8563;-0.7295;
132.9000;0.8604;-0.7098;
133.2000;0.8604;-0.7197;
133.5000;0.8604;-0.7147;
133.8000;0.8588;-0.7320;
134.1000;0.8612;-0.7271;
134.4000;0.8612;-0.7246;
134.7000;0.8596;-0.7221;
135.0000;0.8612;-0.7172;
135.3000;0.8588;-0.7172;
135.6000;0.8702;-0.6926;
135.9000;0.8620;-0.7197;
136.2000;0.8620;-0.7295;
136.5000;0.8514;-0.7640;
136.8000;0.8628;-0.7345;
137.1000;0.8645;-0.7345;
137.4000;0.8596;-0.7443;
137.7000;0.8604;-0.7295;
138.0000;0.8580;-0.7320;
138.3000;0.8604;-0.7197;
138.6000;0.8726;-0.6876;
138.9000;0.8580;-0.7147;
139.2000;0.8612;-0.7123;
139.5000;0.8596;-0.7246;
139.8000;0.8653;-0.7147;
140.1000;0.8555;-0.7468;
140.4000;0.8580;-0.7468;
140.7000;0.8604;-0.7394;
141.0000;0.8571;-0.7468;
141.3000;0.8539;-0.7566;
141.6000;0.8596;-0.7419;
141.9000;0.8514;-0.7640;
142.2000;0.8596;-0.7443;
142.5000;0.8604;-0.7468;
142.8000;0.8677;-0.7123;
143.1000;0.8620;-0.7172;
143.4000;0.8628;-0.7074;
143.7000;0.8588;-0.7197;
144.0000;0.8628;-0.7147;
144.3000;0.8580;-0.7172;
144.6000;0.8596;-0.7147;
144.9000;0.8596;-0.7098;
145.2000;0.8620;-0.7098;
145.5000;0.8612;-0.7074;
145.8000;0.8604;-0.7147;
146.1000;0.8604;-0.7172;
146.4000;0.8596;-0.7221;
146.7000;0.8612;-0.7172;
147.0000;0.8612;-0.7147;
147.3000;0.8604;-0.7172;
147.6000;0.8612;-0.7147;
147.9000;0.8604;-0.7147;
148.2000;0.8588;-0.7197;
148.5000;0.8596;-0.7221;
148.8000;0.8596;-0.7271;
149.1000;0.8604;-0.7271;
149.4000;0.8612;-0.7271;
149.7000;0.8588;-0.7271;
150.0000;0.8588;-0.7271;
150.3000;0.8604;-0.7221;
150.6000;0.8612;-0.7221;
150.9000;0.8588;-0.7369;
151.2000;0.8596;-0.7271;
151.5000;0.8604;-0.7147;
151.8000;0.8580;-0.7197;
152.1000;0.8580;-0.7197;
152.4000;0.8588;-0.7197;
152.7000;0.8604;-0.7197;
153.0000;0.8604;-0.7246;
153.3000;0.8612;-0.7172;
153.6000;0.8604;-0.7172;
153.9000;0.8604;-0.7147;
154.2000;0.8580;-0.7221;
154.5000;0.8612;-0.7049;
154.8000;0.8637;-0.7074;
155.1000;0.8596;-0.7197;
155.4000;0.8588;-0.7197;
155.7000;0.8612;-0.7098;
156.0000;0.8604;-0.7147;
156.3000;0.8580;-0.7172;
156.6000;0.8580;-0.7172;
156.9000;0.8490;-0.7493;
157.2000;0.8596;-0.7098;
157.5000;0.8555;-0.7221;
157.8000;0.8628;-0.7123;
158.1000;0.8596;-0.7221;
158.4000;0.8685;-0.7049;
158.7000;0.8694;-0.6975;
159.0000;0.8596;-0.7221;
159.3000;0.8604;-0.7147;
159.6000;0.8604;-0.7098;
159.9000;0.8628;-0.7024;
160.2000;0.8563;-0.7147;
160.5000;0.8547;-0.7147;
160.8000;0.8620;-0.7000;
161.1000;0.8571;-0.7049;
161.4000;0.8620;-0.6827;
161.7000;0.8563;-0.7123;
162.0000;0.8571;-0.7147;
162.3000;0.8555;-0.7123;
162.6000;0.8588;-0.7049;
162.9000;0.8596;-0.7024;
163.2000;0.8588;-0.7098;
163.5000;0.8620;-0.7000;
163.8000;0.8620;-0.7000;
164.1000;0.8563;-0.7049;
164.4000;0.8588;-0.7024;
164.7000;0.8580;-0.7049;
165.0000;0.8563;-0.7172;
165.3000;0.8588;-0.7197;
165.6000;0.8588;-0.7123;
165.9000;0.8547;-0.7172;
166.2000;0.8596;-0.7049;
166.5000;0.8596;-0.7000;
166.8000;0.8580;-0.7024;
167.1000;0.8571;-0.7000;
167.4000;0.8580;-0.7074;
167.7000;0.8588;-0.7098;
168.0000;0.8580;-0.7049;
168.3000;0.8588;-0.7024;
168.6000;0.8588;-0.7074;
168.9000;0.8580;-0.7049;
169.2000;0.8588;-0.7049;
169.5000;0.8571;-0.7024;
169.8000;0.8580;-0.7049;
170.1000;0.8588;-0.7049;
170.4000;0.8588;-0.7074;
170.7000;0.8588;-0.7123;
171.0000;0.8612;-0.7123;
171.3000;0.8555;-0.7246;
171.6000;0.8580;-0.7172;
171.9000;0.8580;-0.7197;
172.2000;0.8571;-0.7221;
172.5000;0.8596;-0.7221;
172.8000;0.8555;-0.7345;
173.1000;0.8571;-0.7246;
173.4000;0.8588;-0.7098;
173.7000;0.8580;-0.7074;
174.0000;0.8571;-0.7147;
174.3000;0.8563;-0.7197;
174.6000;0.8661;-0.6975;
174.9000;0.8514;-0.7394;
175.2000;0.8588;-0.7271;
175.5000;0.8571;-0.7369;
175.8000;0.8555;-0.7320;
176.1000;0.8571;-0.7197;
176.4000;0.8637;-0.7024;
176.7000;0.8612;-0.7074;
177.0000;0.8514;-0.7345;
177.3000;0.8588;-0.7221;
177.6000;0.8596;-0.7197;
177.9000;0.8637;-0.7123;
178.2000;0.8523;-0.7295;
178.5000;0.8580;-0.7123;
178.8000;0.8563;-0.7098;
179.1000;0.8637;-0.6901;
179.4000;0.8596;-0.7049;
179.7000;0.8571;-0.7024;
180.0000;0.8563;-0.7049;
180.3000;0.8506;-0.7246;
180.6000;0.8563;-0.7147;
180.9000;0.8555;-0.7172;
181.2000;0.8580;-0.7123;
181.5000;0.8563;-0.7221;
181.8000;0.8571;-0.7172;
182.1000;0.8547;-0.7320;
182.4000;0.8612;-0.7123;
182.7000;0.8531;-0.7320;
183.0000;0.8539;-0.7320;
183.3000;0.8596;-0.7147;
183.6000;0.8555;-0.7221;
183.9000;0.8555;-0.7197;
184.2000;0.8555;-0.7197;
184.5000;0.8547;-0.7197;
184.8000;0.8555;-0.7074;
185.1000;0.8531;-0.7172;
185.4000;0.8620;-0.7000;
185.7000;0.8547;-0.7246;
186.0000;0.8555;-0.7172;
186.3000;0.8555;-0.7197;
186.6000;0.8547;-0.7221;
186.9000;0.8571;-0.7172;
187.2000;0.8571;-0.7147;
187.5000;0.8555;-0.7197;
187.8000;0.8571;-0.7246;
188.1000;0.8547;-0.7271;
188.4000;0.8547;-0.7246;
188.7000;0.8571;-0.7197;
189.0000;0.8571;-0.7172;
189.3000;0.8555;-0.7221;
189.6000;0.8547;-0.7295;
189.9000;0.8539;-0.7369;
190.2000;0.8547;-0.7468;
190.5000;0.8547;-0.7468;
190.8000;0.8555;-0.7443;
191.1000;0.8555;-0.7443;
191.4000;0.8571;-0.7419;
191.7000;0.8555;-0.7369;
192.0000;0.8555;-0.7295;
192.3000;0.8580;-0.7221;
192.6000;0.8563;-0.7271;
192.9000;0.8539;-0.7419;
193.2000;0.8555;-0.7419;
193.5000;0.8563;-0.7271;
193.8000;0.8563;-0.7271;
194.1000;0.8539;-0.7320;
194.4000;0.8539;-0.7369;
194.7000;0.8555;-0.7295;
195.0000;0.8555;-0.7271;
195.3000;0.8612;-0.7098;
195.6000;0.8555;-0.7221;
195.9000;0.8555;-0.7221;
196.2000;0.8547;-0.7246;
196.5000;0.8539;-0.7197;
196.8000;0.8563;-0.7123;
197.1000;0.8555;-0.7221;
197.4000;0.8555;-0.7172;
197.7000;0.8506;-0.7295;
198.0000;0.8539;-0.7197;
198.3000;0.8571;-0.7123;
198.6000;0.8531;-0.7246;
198.9000;0.8514;-0.7345;
199.2000;0.8482;-0.7369;
199.5000;0.8514;-0.7246;
199.8000;0.8514;-0.7246;
200.1000;0.8531;-0.7271;
200.4000;0.8466;-0.7419;
200.7000;0.8466;-0.7443;
201.0000;0.8531;-0.7246;
201.3000;0.8571;-0.7221;
201.6000;0.8547;-0.7246;
201.9000;0.8685;-0.6926;
202.2000;0.8547;-0.7221;
202.5000;0.8523;-0.7295;
202.8000;0.8547;-0.7221;
203.1000;0.8531;-0.7246;
203.4000;0.8596;-0.6975;
203.7000;0.8555;-0.7098;
204.0000;0.8547;-0.7098;
204.3000;0.8531;-0.7197;
204.6000;0.8531;-0.7197;
204.9000;0.8531;-0.7246;
205.2000;0.8539;-0.7246;
205.5000;0.8514;-0.7172;
205.8000;0.8531;-0.7147;
206.1000;0.8547;-0.7147;
206.4000;0.8531;-0.7221;
206.7000;0.8539;-0.7246;
207.0000;0.8539;-0.7172;
207.3000;0.8547;-0.7147;
207.6000;0.8531;-0.7197;
207.9000;0.8539;-0.7197;
208.2000;0.8539;-0.7246;
208.5000;0.8506;-0.7345;
208.8000;0.8531;-0.7246;
209.1000;0.8498;-0.7345;
209.4000;0.8531;-0.7246;
209.7000;0.8514;-0.7320;
210.0000;0.8523;-0.7320;
210.3000;0.8539;-0.7271;
210.6000;0.8531;-0.7271;
210.9000;0.8531;-0.7320;
211.2000;0.8498;-0.7394;
211.5000;0.8539;-0.7246;
211.8000;0.8531;-0.7271;
212.1000;0.8531;-0.7246;
212.4000;0.8539;-0.7246;
212.7000;0.8531;-0.7295;
213.0000;0.8523;-0.7295;
213.3000;0.8547;-0.7271;
213.6000;0.8514;-0.7345;
213.9000;0.8523;-0.7221;
214.2000;0.8523;-0.7271;
214.5000;0.8547;-0.7221;
214.8000;0.8539;-0.7246;
215.1000;0.8531;-0.7221;
215.4000;0.8523;-0.7271;
215.7000;0.8523;-0.7271;
216.0000;0.8620;-0.6876;
216.3000;0.8531;-0.7098;
216.6000;0.8506;-0.7098;
216.9000;0.8514;-0.7172;
217.2000;0.8620;-0.6901;
217.5000;0.8514;-0.7098;
217.8000;0.8506;-0.7197;
218.1000;0.8531;-0.7123;
218.4000;0.8531;-0.7147;
218.7000;0.8514;-0.7123;
219.0000;0.8514;-0.7123;
219.3000;0.8514;-0.7074;
219.6000;0.8506;-0.6975;
219.9000;0.8482;-0.7049;
220.2000;0.8506;-0.7098;
220.5000;0.8433;-0.7345;
220.8000;0.8531;-0.7172;
221.1000;0.8506;-0.7246;
221.4000;0.8490;-0.7271;
221.7000;0.8531;-0.7295;
222.0000;0.8514;-0.7320;
222.3000;0.8514;-0.7320;
222.6000;0.8571;-0.7147;
222.9000;0.8506;-0.7345;
223.2000;0.8531;-0.7172;
223.5000;0.8506;-0.7246;
223.8000;0.8441;-0.7345;
224.1000;0.8490;-0.7246;
224.4000;0.8555;-0.7074;
224.7000;0.8498;-0.7074;
225.0000;0.8482;-0.7098;
225.3000;0.8482;-0.7074;
225.6000;0.8425;-0.7221;
225.9000;0.8498;-0.7098;
226.2000;0.8490;-0.7147;
226.5000;0.8482;-0.7221;
226.8000;0.8482;-0.7295;
227.1000;0.8514;-0.7197;
227.4000;0.8498;-0.7123;
227.7000;0.8482;-0.7123;
228.0000;0.8441;-0.7221;
228.3000;0.8506;-0.7049;
228.6000;0.8506;-0.6975;
228.9000;0.8498;-0.7000;
229.2000;0.8490;-0.7172;
229.5000;0.8490;-0.7147;
229.8000;0.8490;-0.7172;
230.1000;0.8449;-0.7295;
230.4000;0.8490;-0.7147;
230.7000;0.8482;-0.7221;
231.0000;0.8490;-0.7221;
231.3000;0.8474;-0.7147;
231.6000;0.8384;-0.7468;
231.9000;0.8490;-0.7172;
232.2000;0.8490;-0.7123;
232.5000;0.8490;-0.7123;
232.8000;0.8474;-0.7147;
233.1000;0.8466;-0.7147;
233.4000;0.8474;-0.7098;
233.7000;0.8490;-0.7024;
234.0000;0.8466;-0.7074;
234.3000;0.8490;-0.7172;
234.6000;0.8498;-0.7197;
234.9000;0.8474;-0.7295;
235.2000;0.8466;-0.7295;
235.5000;0.8457;-0.7320;
235.8000;0.8474;-0.7197;
236.1000;0.8490;-0.7123;
236.4000;0.8490;-0.7172;
236.7000;0.8482;-0.7197;
237.0000;0.8498;-0.7221;
237.3000;0.8490;-0.7295;
237.6000;0.8490;-0.7246;
237.9000;0.8490;-0.7221;
238.2000;0.8482;-0.7246;
238.5000;0.8490;-0.7197;
238.8000;0.8490;-0.7074;
239.1000;0.8466;-0.7074;
239.4000;0.8474;-0.7147;
239.7000;0.8482;-0.7172;
240.0000;0.8482;-0.7172;
240.3000;0.8474;-0.7123;
240.6000;0.8474;-0.7123;
240.9000;0.8474;-0.7221;
241.2000;0.8457;-0.7172;
241.5000;0.8449;-0.7123;
241.8000;0.8466;-0.7049;
242.1000;0.8449;-0.7024;
242.4000;0.8474;-0.7024;
242.7000;0.8457;-0.6975;
243.0000;0.8482;-0.6975;
243.3000;0.8449;-0.7098;
243.6000;0.8466;-0.7123;
243.9000;0.8482;-0.7123;
244.2000;0.8482;-0.7197;
244.5000;0.8466;-0.7221;
244.8000;0.8425;-0.7345;
245.1000;0.8466;-0.7221;
245.4000;0.8457;-0.7098;
245.7000;0.8449;-0.7123;
246.0000;0.8457;-0.7197;
246.3000;0.8490;-0.7098;
246.6000;0.8441;-0.7246;
246.9000;0.8449;-0.7246;
247.2000;0.8457;-0.7295;
247.5000;0.8457;-0.7320;
247.8000;0.8474;-0.7221;
248.1000;0.8482;-0.7172;
248.4000;0.8466;-0.7221;
248.7000;0.8457;-0.7246;
249.0000;0.8482;-0.7271;
249.3000;0.8441;-0.7345;
249.6000;0.8490;-0.7271;
249.9000;0.8466;-0.7345;
250.2000;0.8474;-0.7345;
250.5000;0.8466;-0.7493;
250.8000;0.8449;-0.7542;
251.1000;0.8449;-0.7542;
251.4000;0.8441;-0.7443;
251.7000;0.8466;-0.7345;
252.0000;0.8498;-0.7221;
252.3000;0.8441;-0.7369;
252.6000;0.8466;-0.7320;
252.9000;0.8441;-0.7197;
253.2000;0.8449;-0.7098;
253.5000;0.8457;-0.7098;
253.8000;0.8441;-0.7074;
254.1000;0.8449;-0.7049;
254.4000;0.8449;-0.7000;
254.7000;0.8417;-0.7049;
255.0000;0.8449;-0.6975;
255.3000;0.8449;-0.6876;
255.6000;0.8433;-0.6975;
255.9000;0.8457;-0.7000;
256.2000;0.8433;-0.7000;
256.5000;0.8449;-0.7000;
256.8000;0.8441;-0.7024;
257.1000;0.8417;-0.7147;
257.4000;0.8425;-0.7098;
257.7000;0.8425;-0.7024;
258.0000;0.8400;-0.7123;
258.3000;0.8441;-0.7074;
258.6000;0.8425;-0.7074;
258.9000;0.8441;-0.7123;
259.2000;0.8474;-0.7000;
259.5000;0.8425;-0.7147;
259.8000;0.8449;-0.7074;
260.1000;0.8441;-0.7123;
260.4000;0.8425;-0.7147;
260.7000;0.8425;-0.7147;
261.0000;0.8441;-0.7123;
261.3000;0.8441;-0.7049;
261.6000;0.8449;-0.6975;
261.9000;0.8457;-0.6901;
262.2000;0.8441;-0.6852;
262.5000;0.8433;-0.6901;
262.8000;0.8449;-0.7000;
263.1000;0.8384;-0.7147;
263.4000;0.8506;-0.6778;
263.7000;0.8441;-0.6901;
264.0000;0.8433;-0.6926;
264.3000;0.8449;-0.6926;
264.6000;0.8409;-0.6975;
264.9000;0.8490;-0.6778;
265.2000;0.8409;-0.6975;
265.5000;0.8449;-0.6876;
265.8000;0.8425;-0.7024;
266.1000;0.8417;-0.7000;
266.4000;0.8449;-0.6852;
266.7000;0.8433;-0.6876;
267.0000;0.8425;-0.6926;
267.3000;0.8376;-0.7074;
267.6000;0.8417;-0.7000;
267.9000;0.8417;-0.7098;
268.2000;0.8490;-0.6926;
268.5000;0.8344;-0.7345;
268.8000;0.8417;-0.7049;
269.1000;0.8441;-0.6975;
269.4000;0.8360;-0.7147;
269.7000;0.8417;-0.6975;
270.0000;0.8409;-0.7098;
270.3000;0.8441;-0.7098;
270.6000;0.8417;-0.7074;
270.9000;0.8417;-0.7074;
271.2000;0.8433;-0.7000;
271.5000;0.8376;-0.7098;
271.8000;0.8417;-0.7000;
272.1000;0.8417;-0.7172;
272.4000;0.8425;-0.7123;
272.7000;0.8392;-0.7320;
273.0000;0.8433;-0.7221;
273.3000;0.8433;-0.7246;
273.6000;0.8441;-0.7172;
273.9000;0.8425;-0.7271;
274.2000;0.8409;-0.7246;
274.5000;0.8417;-0.7221;
274.8000;0.8425;-0.7147;
275.1000;0.8409;-0.7172;
275.4000;0.8409;-0.7074;
275.7000;0.8417;-0.7098;
276.0000;0.8417;-0.7123;
276.3000;0.8425;-0.7123;
276.6000;0.8449;-0.7049;
276.9000;0.8417;-0.7000;
277.2000;0.8400;-0.7000;
277.5000;0.8409;-0.6975;
277.8000;0.8392;-0.7000;
278.1000;0.8360;-0.7049;
278.4000;0.8400;-0.6901;
278.7000;0.8457;-0.6778;
279.0000;0.8409;-0.6901;
279.3000;0.8392;-0.6901;
279.6000;0.8392;-0.6876;
279.9000;0.8400;-0.6975;
280.2000;0.8392;-0.7049;
280.5000;0.8409;-0.7049;
280.8000;0.8384;-0.6950;
281.1000;0.8433;-0.6876;
281.4000;0.8400;-0.6950;
281.7000;0.8392;-0.6926;
282.0000;0.8409;-0.6926;
282.3000;0.8449;-0.6802;
282.6000;0.8384;-0.7024;
282.9000;0.8392;-0.6975;
283.2000;0.8384;-0.6975;
283.5000;0.8384;-0.7049;
283.8000;0.8352;-0.7123;
284.1000;0.8384;-0.7024;
284.4000;0.8384;-0.7000;
284.7000;0.8384;-0.6926;
285.0000;0.8400;-0.6926;
285.3000;0.8384;-0.6926;
285.6000;0.8384;-0.6876;
285.9000;0.8392;-0.6802;
286.2000;0.8392;-0.6901;
286.5000;0.8417;-0.6950;
286.8000;0.8368;-0.7000;
287.1000;0.8384;-0.7000;
287.4000;0.8376;-0.7098;
287.7000;0.8376;-0.7147;
288.0000;0.8376;-0.7172;
288.3000;0.8376;-0.7123;
288.6000;0.8352;-0.7123;
288.9000;0.8368;-0.7098;
289.2000;0.8376;-0.7074;
289.5000;0.8360;-0.7098;
289.8000;0.8360;-0.7098;
290.1000;0.8376;-0.7000;
290.4000;0.8433;-0.6876;
290.7000;0.8384;-0.7000;
291.0000;0.8368;-0.7074;
291.3000;0.8352;-0.7074;
291.6000;0.8335;-0.7123;
291.9000;0.8287;-0.7271;
292.2000;0.8376;-0.7000;
292.5000;0.8335;-0.7074;
292.8000;0.8335;-0.7074;
293.1000;0.8352;-0.7172;
293.4000;0.8392;-0.7197;
293.7000;0.8384;-0.7197;
294.0000;0.8335;-0.7246;
294.3000;0.8425;-0.7024;
294.6000;0.8311;-0.7246;
294.9000;0.8360;-0.7098;
295.2000;0.8360;-0.7123;
295.5000;0.8352;-0.7049;
295.8000;0.8368;-0.6975;
296.1000;0.8449;-0.6802;
296.4000;0.8335;-0.7074;
296.7000;0.8344;-0.7098;
297.0000;0.8352;-0.7024;
297.3000;0.8392;-0.7000;
297.6000;0.8368;-0.6975;
297.9000;0.8352;-0.6926;
298.2000;0.8352;-0.6950;
298.5000;0.8376;-0.6975;
298.8000;0.8360;-0.6876;
299.1000;0.8376;-0.6876;
299.4000;0.8376;-0.6901;
299.7000;0.8368;-0.6975;
300.0000;0.8376;-0.6975;
300.3000;0.8368;-0.6926;
300.6000;0.8368;-0.7024;
300.9000;0.8360;-0.7000;
301.2000;0.8376;-0.6950;
301.5000;0.8409;-0.6753;
301.8000;0.8376;-0.6778;
302.1000;0.8344;-0.6852;
302.4000;0.8368;-0.6778;
302.7000;0.8360;-0.6778;
303.0000;0.8344;-0.6852;
303.3000;0.8368;-0.6778;
303.6000;0.8376;-0.6753;
303.9000;0.8360;-0.6852;
304.2000;0.8376;-0.6827;
304.5000;0.8360;-0.6975;
304.8000;0.8376;-0.6975;
305.1000;0.8384;-0.6975;
305.4000;0.8441;-0.6728;
305.7000;0.8335;-0.6975;
306.0000;0.8376;-0.6852;
306.3000;0.8368;-0.6852;
306.6000;0.8360;-0.6901;
306.9000;0.8319;-0.7049;
307.2000;0.8327;-0.7074;
307.5000;0.8327;-0.7123;
307.8000;0.8352;-0.7123;
308.1000;0.8352;-0.7197;
308.4000;0.8335;-0.7221;
308.7000;0.8368;-0.7172;
309.0000;0.8295;-0.7320;
309.3000;0.8352;-0.7221;
309.6000;0.8344;-0.7123;
309.9000;0.8360;-0.7049;
310.2000;0.8344;-0.7049;
310.5000;0.8335;-0.7024;
310.8000;0.8295;-0.7197;
311.1000;0.8344;-0.7221;
311.4000;0.8254;-0.7468;
311.7000;0.8368;-0.7147;
312.0000;0.8344;-0.7123;
312.3000;0.8319;-0.7074;
312.6000;0.8360;-0.7024;
312.9000;0.8352;-0.7074;
313.2000;0.8352;-0.7147;
313.5000;0.8287;-0.7246;
313.8000;0.8352;-0.7123;
314.1000;0.8335;-0.7197;
314.4000;0.8327;-0.7147;
314.7000;0.8368;-0.7024;
315.0000;0.8319;-0.7123;
315.3000;0.8360;-0.6975;
315.6000;0.8303;-0.7049;
315.9000;0.8344;-0.6926;
316.2000;0.8327;-0.6950;
316.5000;0.8441;-0.6728;
316.8000;0.8327;-0.6926;
317.1000;0.8335;-0.6852;
317.4000;0.8319;-0.6926;
317.7000;0.8335;-0.6778;
318.0000;0.8327;-0.6876;
318.3000;0.8327;-0.6876;
318.6000;0.8262;-0.7098;
318.9000;0.8319;-0.6876;
319.2000;0.8319;-0.6827;
319.5000;0.8335;-0.6778;
319.8000;0.8344;-0.6827;
320.1000;0.8327;-0.6852;
320.4000;0.8327;-0.6827;
320.7000;0.8327;-0.6852;
321.0000;0.8213;-0.7147;
321.3000;0.8303;-0.6950;
321.6000;0.8327;-0.6901;
321.9000;0.8319;-0.6802;
322.2000;0.8319;-0.6876;
322.5000;0.8303;-0.6926;
322.8000;0.8311;-0.6926;
323.1000;0.8311;-0.6901;
323.4000;0.8303;-0.6926;
323.7000;0.8246;-0.7098;
324.0000;0.8311;-0.7049;
324.3000;0.8319;-0.7147;
324.6000;0.8303;-0.7098;
324.9000;0.8311;-0.7074;
325.2000;0.8303;-0.7098;
325.5000;0.8295;-0.7147;
325.8000;0.8303;-0.7172;
326.1000;0.8303;-0.7172;
326.4000;0.8352;-0.7098;
326.7000;0.8311;-0.7197;
327.0000;0.8327;-0.7074;
327.3000;0.8311;-0.7024;
327.6000;0.8303;-0.7024;
327.9000;0.8287;-0.7074;
328.2000;0.8278;-0.7024;
328.5000;0.8319;-0.7000;
328.8000;0.8295;-0.7000;
329.1000;0.8311;-0.6876;
329.4000;0.8303;-0.6876;
329.7000;0.8303;-0.6950;
330.0000;0.8335;-0.6876;
330.3000;0.8311;-0.6926;
330.6000;0.8319;-0.6802;
330.9000;0.8246;-0.6876;
331.2000;0.8311;-0.6679;
331.5000;0.8246;-0.6926;
331.8000;0.8278;-0.6901;
332.1000;0.8311;-0.6827;
332.4000;0.8319;-0.6827;
332.7000;0.8319;-0.6778;
333.0000;0.8368;-0.6655;
333.3000;0.8295;-0.6778;
333.6000;0.8303;-0.6876;
333.9000;0.8262;-0.6975;
334.2000;0.8303;-0.6852;
334.5000;0.8303;-0.6926;
334.8000;0.8311;-0.6852;
335.1000;0.8295;-0.6802;
335.4000;0.8287;-0.6852;
335.7000;0.8278;-0.6802;
336.0000;0.8319;-0.6778;
336.3000;0.8287;-0.6852;
336.6000;0.8311;-0.6827;
336.9000;0.8303;-0.6827;
337.2000;0.8303;-0.6950;
337.5000;0.8311;-0.6975;
337.8000;0.8278;-0.6950;
338.1000;0.8278;-0.6901;
338.4000;0.8270;-0.6926;
338.7000;0.8287;-0.6827;
339.0000;0.8270;-0.6926;
339.3000;0.8295;-0.6975;
339.6000;0.8295;-0.6876;
339.9000;0.8303;-0.6876;
340.2000;0.8352;-0.6827;
340.5000;0.8278;-0.7000;
340.8000;0.8246;-0.7123;
341.1000;0.8270;-0.7000;
341.4000;0.8287;-0.6901;
341.7000;0.8295;-0.6852;
342.0000;0.8303;-0.6926;
342.3000;0.8287;-0.6975;
342.6000;0.8287;-0.6852;
342.9000;0.8262;-0.6950;
343.2000;0.8278;-0.6876;
343.5000;0.8278;-0.6852;
343.8000;0.8262;-0.6901;
344.1000;0.8287;-0.6802;
344.4000;0.8287;-0.6852;
344.7000;0.8287;-0.6827;
345.0000;0.8287;-0.6704;
345.3000;0.8287;-0.6728;
345.6000;0.8278;-0.6679;
345.9000;0.8270;-0.6753;
346.2000;0.8278;-0.6778;
346.5000;0.8327;-0.6704;
346.8000;0.8270;-0.6827;
347.1000;0.8262;-0.6802;
347.4000;0.8254;-0.6827;
347.7000;0.8238;-0.6901;
348.0000;0.8262;-0.6802;
348.3000;0.8262;-0.6827;
348.6000;0.8270;-0.6901;
348.9000;0.8254;-0.6926;
349.2000;0.8254;-0.7049;
349.5000;0.8262;-0.6926;
349.8000;0.8270;-0.6876;
350.1000;0.8254;-0.6852;
350.4000;0.8254;-0.6926;
350.7000;0.8262;-0.6926;
351.0000;0.8270;-0.6975;
351.3000;0.8287;-0.7049;
351.6000;0.8262;-0.7074;
351.9000;0.8278;-0.6975;
352.2000;0.8278;-0.6975;
352.5000;0.8295;-0.6901;
352.8000;0.8262;-0.6852;
353.1000;0.8262;-0.6728;
353.4000;0.8278;-0.6704;
353.7000;0.8295;-0.6655;
354.0000;0.8278;-0.6679;
354.3000;0.8262;-0.6728;
354.6000;0.8287;-0.6753;
354.9000;0.8287;-0.6753;
355.2000;0.8262;-0.6852;
355.5000;0.8287;-0.6827;
355.8000;0.8352;-0.6704;
356.1000;0.8287;-0.6975;
356.4000;0.8295;-0.6852;
356.7000;0.8278;-0.6852;
357.0000;0.8278;-0.6827;
357.3000;0.8262;-0.6827;
357.6000;0.8254;-0.6852;
357.9000;0.8254;-0.6852;
358.2000;0.8238;-0.6926;
358.5000;0.8270;-0.6852;
358.8000;0.8254;-0.6876;
359.1000;0.8230;-0.6901;
359.4000;0.8238;-0.6852;
359.7000;0.8238;-0.6704;
360.0000;0.8238;-0.6704;
360.3000;0.8213;-0.6753;
360.6000;0.8287;-0.6581;
360.9000;0.8246;-0.6679;
361.2000;0.8254;-0.6655;
361.5000;0.8238;-0.6753;
361.8000;0.8295;-0.6531;
362.1000;0.8254;-0.6655;
362.4000;0.8246;-0.6630;
362.7000;0.8230;-0.6753;
363.0000;0.8238;-0.6704;
363.3000;0.8246;-0.6605;
363.6000;0.8205;-0.6679;
363.9000;0.8254;-0.6581;
364.2000;0.8254;-0.6630;
364.5000;0.8221;-0.6655;
364.8000;0.8254;-0.6630;
365.1000;0.8287;-0.6531;
365.4000;0.8254;-0.6630;
365.7000;0.8254;-0.6655;
366.0000;0.8262;-0.6679;
366.3000;0.8311;-0.6630;
366.6000;0.8254;-0.6704;
366.9000;0.8344;-0.6507;
367.2000;0.8246;-0.6704;
367.5000;0.8254;-0.6704;
367.8000;0.8262;-0.6679;
368.1000;0.8262;-0.6753;
368.4000;0.8246;-0.6753;
368.7000;0.8246;-0.6827;
369.0000;0.8270;-0.6852;
369.3000;0.8230;-0.6827;
369.6000;0.8197;-0.6926;
369.9000;0.8262;-0.6802;
370.2000;0.8295;-0.6704;
370.5000;0.8254;-0.6679;
370.8000;0.8254;-0.6704;
371.1000;0.8238;-0.6605;
371.4000;0.8246;-0.6581;
371.7000;0.8262;-0.6531;
372.0000;0.8238;-0.6556;
372.3000;0.8246;-0.6482;
372.6000;0.8246;-0.6482;
372.9000;0.8238;-0.6556;
373.2000;0.8246;-0.6605;
373.5000;0.8213;-0.6753;
373.8000;0.8238;-0.6704;
374.1000;0.8238;-0.6753;
374.4000;0.8262;-0.6728;
374.7000;0.8164;-0.6901;
375.0000;0.8246;-0.6581;
375.3000;0.8221;-0.6507;
375.6000;0.8230;-0.6531;
375.9000;0.8238;-0.6482;
376.2000;0.8238;-0.6507;
376.5000;0.8173;-0.6753;
376.8000;0.8246;-0.6605;
377.1000;0.8213;-0.6753;
377.4000;0.8213;-0.6753;
377.7000;0.8230;-0.6728;
378.0000;0.8238;-0.6655;
378.3000;0.8221;-0.6655;
378.6000;0.8230;-0.6655;
378.9000;0.8213;-0.6630;
379.2000;0.8230;-0.6679;
379.5000;0.8238;-0.6753;
379.8000;0.8205;-0.6753;
380.1000;0.8213;-0.6802;
380.4000;0.8246;-0.6655;
380.7000;0.8213;-0.6679;
381.0000;0.8213;-0.6704;
381.3000;0.8230;-0.6655;
381.6000;0.8221;-0.6581;
381.9000;0.8221;-0.6556;
382.2000;0.8213;-0.6655;
382.5000;0.8230;-0.6679;
382.8000;0.8205;-0.6655;
383.1000;0.8213;-0.6630;
383.4000;0.8221;-0.6605;
383.7000;0.8205;-0.6605;
384.0000;0.8205;-0.6655;
384.3000;0.8311;-0.6433;
384.6000;0.8197;-0.6778;
384.9000;0.8197;-0.6852;
385.2000;0.8164;-0.6827;
385.5000;0.8189;-0.6827;
385.8000;0.8205;-0.6778;
386.1000;0.8230;-0.6753;
386.4000;0.8173;-0.6802;
386.7000;0.8205;-0.6753;
387.0000;0.8221;-0.6728;
387.3000;0.8156;-0.6901;
387.6000;0.8254;-0.6679;
387.9000;0.8189;-0.6876;
388.2000;0.8205;-0.6852;
388.5000;0.8221;-0.6802;
388.8000;0.8189;-0.6778;
389.1000;0.8213;-0.6704;
389.4000;0.8197;-0.6704;
389.7000;0.8205;-0.6655;
390.0000;0.8189;-0.6630;
390.3000;0.8197;-0.6679;
390.6000;0.8205;-0.6581;
390.9000;0.8213;-0.6581;
391.2000;0.8213;-0.6556;
391.5000;0.8221;-0.6605;
391.8000;0.8213;-0.6556;
392.1000;0.8205;-0.6679;
392.4000;0.8197;-0.6728;
392.7000;0.8140;-0.6876;
393.0000;0.8205;-0.6630;
393.3000;0.8205;-0.6630;
393.6000;0.8197;-0.6728;
393.9000;0.8213;-0.6704;
394.2000;0.8238;-0.6556;
394.5000;0.8262;-0.6457;
394.8000;0.8205;-0.6556;
395.1000;0.8221;-0.6531;
395.4000;0.8205;-0.6531;
395.7000;0.8221;-0.6408;
396.0000;0.8181;-0.6507;
396.3000;0.8213;-0.6408;
396.6000;0.8197;-0.6531;
396.9000;0.8205;-0.6507;
397.2000;0.8197;-0.6556;
397.5000;0.8189;-0.6581;
397.8000;0.8189;-0.6556;
398.1000;0.8221;-0.6433;
398.4000;0.8189;-0.6433;
398.7000;0.8205;-0.6309;
399.0000;0.8205;-0.6285;
399.3000;0.8213;-0.6260;
399.6000;0.8230;-0.6260;
399.9000;0.8246;-0.6260;
400.2000;0.8189;-0.6507;
400.5000;0.8181;-0.6556;
400.8000;0.8254;-0.6433;
401.1000;0.8205;-0.6531;
401.4000;0.8230;-0.6482;
401.7000;0.8205;-0.6531;
402.0000;0.8278;-0.6408;
402.3000;0.8189;-0.6581;
402.6000;0.8164;-0.6605;
402.9000;0.8173;-0.6581;
403.2000;0.8181;-0.6581;
403.5000;0.8213;-0.6531;
403.8000;0.8205;-0.6679;
404.1000;0.8238;-0.6605;
404.4000;0.8164;-0.6802;
404.7000;0.8197;-0.6704;
405.0000;0.8189;-0.6655;
405.3000;0.8189;-0.6778;
405.6000;0.8189;-0.6753;
405.9000;0.8262;-0.6581;
406.2000;0.8083;-0.7024;
406.5000;0.8181;-0.6802;
406.8000;0.8181;-0.6827;
407.1000;0.8181;-0.6753;
407.4000;0.8205;-0.6679;
407.7000;0.8205;-0.6605;
408.0000;0.8173;-0.6679;
408.3000;0.8205;-0.6630;
408.6000;0.8181;-0.6704;
408.9000;0.8221;-0.6531;
409.2000;0.8156;-0.6728;
409.5000;0.8173;-0.6704;
409.8000;0.8278;-0.6383;
410.1000;0.8156;-0.6679;
410.4000;0.8181;-0.6531;
410.7000;0.8148;-0.6630;
411.0000;0.8173;-0.6630;
411.3000;0.8156;-0.6679;
411.6000;0.8107;-0.6753;
411.9000;0.8156;-0.6704;
412.2000;0.8173;-0.6655;
412.5000;0.8164;-0.6581;
412.8000;0.8164;-0.6581;
413.1000;0.8156;-0.6531;
413.4000;0.8189;-0.6507;
413.7000;0.8132;-0.6728;
414.0000;0.8164;-0.6704;
414.3000;0.8181;-0.6704;
414.6000;0.8173;-0.6704;
414.9000;0.8197;-0.6655;
415.2000;0.8156;-0.6630;
415.5000;0.8164;-0.6556;
415.8000;0.8173;-0.6605;
416.1000;0.8189;-0.6605;
416.4000;0.8173;-0.6581;
416.7000;0.8107;-0.6728;
417.0000;0.8148;-0.6630;
417.3000;0.8156;-0.6630;
417.6000;0.8181;-0.6556;
417.9000;0.8173;-0.6581;
418.2000;0.8181;-0.6531;
418.5000;0.8173;-0.6531;
418.8000;0.8173;-0.6507;
419.1000;0.8189;-0.6531;
419.4000;0.8164;-0.6507;
419.7000;0.8173;-0.6531;
420.0000;0.8164;-0.6605;
420.3000;0.8173;-0.6679;
420.6000;0.8164;-0.6655;
420.9000;0.8173;-0.6704;
421.2000;0.8156;-0.6630;
421.5000;0.8124;-0.6605;
421.8000;0.8205;-0.6309;
422.1000;0.8156;-0.6457;
422.4000;0.8148;-0.6408;
422.7000;0.8181;-0.6260;
423.0000;0.8148;-0.6285;
423.3000;0.8164;-0.6260;
423.6000;0.8148;-0.6309;
423.9000;0.8246;-0.6162;
424.2000;0.8148;-0.6457;
424.5000;0.8213;-0.6285;
424.8000;0.8156;-0.6359;
425.1000;0.8164;-0.6408;
425.4000;0.8173;-0.6359;
425.7000;0.8124;-0.6531;
426.0000;0.8148;-0.6531;
426.3000;0.8132;-0.6581;
426.6000;0.8164;-0.6507;
426.9000;0.8287;-0.6260;
427.2000;0.8173;-0.6556;
427.5000;0.8164;-0.6581;
427.8000;0.8132;-0.6704;
428.1000;0.8156;-0.6605;
428.4000;0.8197;-0.6359;
428.7000;0.8116;-0.6531;
429.0000;0.8140;-0.6408;
429.3000;0.8116;-0.6408;
429.6000;0.8173;-0.6383;
429.9000;0.8181;-0.6408;
430.2000;0.8230;-0.6260;
430.5000;0.8197;-0.6162;
430.8000;0.8140;-0.6482;
431.1000;0.8140;-0.6482;
431.4000;0.8116;-0.6482;
431.7000;0.8059;-0.6630;
432.0000;0.8140;-0.6457;
432.3000;0.8107;-0.6507;
432.6000;0.8254;-0.6211;
432.9000;0.8148;-0.6507;
433.2000;0.8148;-0.6605;
433.5000;0.8140;-0.6605;
433.8000;0.8197;-0.6482;
434.1000;0.8173;-0.6482;
434.4000;0.8140;-0.6556;
434.7000;0.8124;-0.6507;
435.0000;0.8124;-0.6507;
435.3000;0.8148;-0.6433;
435.6000;0.8221;-0.6162;
435.9000;0.8140;-0.6334;
436.2000;0.8132;-0.6383;
436.5000;0.8124;-0.6359;
436.8000;0.8156;-0.6408;
437.1000;0.8156;-0.6457;
437.4000;0.8116;-0.6605;
437.7000;0.8140;-0.6531;
438.0000;0.8156;-0.6507;
438.3000;0.8148;-0.6507;
438.6000;0.8164;-0.6482;
438.9000;0.8156;-0.6457;
439.2000;0.8148;-0.6556;
439.5000;0.8205;-0.6531;
439.8000;0.8132;-0.6704;
440.1000;0.8132;-0.6704;
440.4000;0.8140;-0.6630;
440.7000;0.8132;-0.6679;
441.0000;0.8132;-0.6679;
441.3000;0.8124;-0.6728;
441.6000;0.8156;-0.6630;
441.9000;0.8124;-0.6556;
442.2000;0.8156;-0.6581;
442.5000;0.8124;-0.6630;
442.8000;0.8132;-0.6556;
443.1000;0.8156;-0.6507;
443.4000;0.8148;-0.6531;
443.7000;0.8116;-0.6605;
444.0000;0.8148;-0.6531;
444.3000;0.8148;-0.6581;
444.6000;0.8148;-0.6507;
444.9000;0.8132;-0.6556;
445.2000;0.8132;-0.6531;
445.5000;0.8156;-0.6457;
445.8000;0.8124;-0.6630;
446.1000;0.8116;-0.6531;
446.4000;0.8116;-0.6581;
446.7000;0.8116;-0.6581;
447.0000;0.8107;-0.6630;
447.3000;0.8132;-0.6605;
447.6000;0.8099;-0.6605;
447.9000;0.8075;-0.6728;
448.2000;0.8132;-0.6655;
448.5000;0.8132;-0.6679;
448.8000;0.8116;-0.6778;
449.1000;0.8132;-0.6704;
449.4000;0.8107;-0.6679;
449.7000;0.8124;-0.6605;
450.0000;0.8132;-0.6679;
450.3000;0.8124;-0.6630;
450.6000;0.8107;-0.6728;
450.9000;0.8116;-0.6605;
451.2000;0.8107;-0.6605;
451.5000;0.8075;-0.6704;
451.8000;0.8124;-0.6581;
452.1000;0.8107;-0.6581;
452.4000;0.8075;-0.6704;
452.7000;0.8099;-0.6605;
453.0000;0.8107;-0.6655;
453.3000;0.8116;-0.6630;
453.6000;0.8132;-0.6531;
453.9000;0.8083;-0.6630;
454.2000;0.8107;-0.6507;
454.5000;0.8099;-0.6408;
454.8000;0.8124;-0.6408;
455.1000;0.8107;-0.6457;
455.4000;0.8132;-0.6408;
455.7000;0.8116;-0.6482;
456.0000;0.8107;-0.6457;
456.3000;0.8099;-0.6507;
456.6000;0.8099;-0.6531;
456.9000;0.8091;-0.6556;
457.2000;0.8042;-0.6704;
457.5000;0.8132;-0.6482;
457.8000;0.8067;-0.6581;
458.1000;0.8107;-0.6457;
458.4000;0.8132;-0.6482;
458.7000;0.8181;-0.6433;
459.0000;0.8083;-0.6655;
459.3000;0.8116;-0.6581;
459.6000;0.8132;-0.6507;
459.9000;0.8099;-0.6605;
460.2000;0.8067;-0.6630;
460.5000;0.8116;-0.6630;
460.8000;0.8124;-0.6655;
461.1000;0.8099;-0.6728;
461.4000;0.8091;-0.6655;
461.7000;0.8042;-0.6704;
462.0000;0.8116;-0.6482;
462.3000;0.8107;-0.6457;
462.6000;0.8091;-0.6531;
462.9000;0.8099;-0.6531;
463.2000;0.8107;-0.6531;
463.5000;0.8116;-0.6507;
463.8000;0.8116;-0.6507;
464.1000;0.8107;-0.6433;
464.4000;0.8124;-0.6383;
464.7000;0.8107;-0.6383;
465.0000;0.8099;-0.6433;
465.3000;0.8156;-0.6260;
465.6000;0.8091;-0.6334;
465.9000;0.8124;-0.6285;
466.2000;0.8132;-0.6334;
466.5000;0.8140;-0.6285;
466.8000;0.8091;-0.6457;
467.1000;0.8099;-0.6408;
467.4000;0.8099;-0.6457;
467.7000;0.8099;-0.6457;
468.0000;0.8091;-0.6507;
468.3000;0.8042;-0.6507;
468.6000;0.8107;-0.6383;
468.9000;0.8099;-0.6334;
469.2000;0.8132;-0.6211;
469.5000;0.8140;-0.6186;
469.8000;0.8099;-0.6383;
470.1000;0.8083;-0.6383;
470.4000;0.8075;-0.6260;
470.7000;0.8075;-0.6236;
471.0000;0.8091;-0.6211;
471.3000;0.8091;-0.6162;
471.6000;0.8091;-0.6137;
471.9000;0.8059;-0.6236;
472.2000;0.8164;-0.6014;
472.5000;0.8099;-0.6236;
472.8000;0.8083;-0.6285;
473.1000;0.7993;-0.6556;
473.4000;0.8091;-0.6334;
473.7000;0.8091;-0.6408;
474.0000;0.8091;-0.6433;
474.3000;0.8099;-0.6482;
474.6000;0.8091;-0.6507;
474.9000;0.8099;-0.6531;
475.2000;0.8083;-0.6531;
475.5000;0.8091;-0.6556;
475.8000;0.8075;-0.6556;
476.1000;0.8083;-0.6556;
476.4000;0.8091;-0.6482;
476.7000;0.8075;-0.6433;
477.0000;0.8091;-0.6334;
477.3000;0.8075;-0.6457;
477.6000;0.8083;-0.6556;
477.9000;0.8075;-0.6482;
478.2000;0.8083;-0.6581;
478.5000;0.8075;-0.6630;
478.8000;0.8099;-0.6482;
479.1000;0.8083;-0.6457;
479.4000;0.8050;-0.6507;
479.7000;0.8075;-0.6383;
480.0000;0.8083;-0.6408;
480.3000;0.8099;-0.6359;
480.6000;0.8083;-0.6383;
480.9000;0.8010;-0.6704;
481.2000;0.8067;-0.6605;
481.5000;0.8091;-0.6531;
481.8000;0.7961;-0.6802;
482.1000;0.8116;-0.6457;
482.4000;0.8083;-0.6531;
482.7000;0.8067;-0.6605;
483.0000;0.8067;-0.6605;
483.3000;0.8034;-0.6655;
483.6000;0.8083;-0.6556;
483.9000;0.8067;-0.6605;
484.2000;0.8042;-0.6605;
484.5000;0.8083;-0.6507;
484.8000;0.8067;-0.6556;
485.1000;0.8083;-0.6531;
485.4000;0.8083;-0.6531;
485.7000;0.8116;-0.6482;
486.0000;0.8067;-0.6630;
486.3000;0.8083;-0.6655;
486.6000;0.8083;-0.6556;
486.9000;0.8075;-0.6556;
487.2000;0.8067;-0.6556;
487.5000;0.8059;-0.6679;
487.8000;0.8075;-0.6655;
488.1000;0.8067;-0.6655;
488.4000;0.8067;-0.6679;
488.7000;0.8067;-0.6679;
489.0000;0.8091;-0.6679;
489.3000;0.8059;-0.6655;
489.6000;0.8067;-0.6655;
489.9000;0.8067;-0.6605;
490.2000;0.8059;-0.6605;
490.5000;0.8083;-0.6630;
490.8000;0.8059;-0.6753;
491.1000;0.8067;-0.6753;
491.4000;0.8083;-0.6630;
491.7000;0.8075;-0.6655;
492.0000;0.8059;-0.6778;
492.3000;0.8083;-0.6753;
492.6000;0.8067;-0.6778;
492.9000;0.8002;-0.6950;
493.2000;0.8067;-0.6728;
493.5000;0.8059;-0.6630;
493.8000;0.8059;-0.6630;
494.1000;0.8083;-0.6556;
494.4000;0.8075;-0.6507;
494.7000;0.8067;-0.6531;
495.0000;0.8075;-0.6531;
495.3000;0.7977;-0.6753;
495.6000;0.8075;-0.6482;
495.9000;0.8067;-0.6507;
496.2000;0.8075;-0.6507;
496.5000;0.8059;-0.6457;
496.8000;0.8059;-0.6433;
497.1000;0.8059;-0.6433;
497.4000;0.8050;-0.6482;
497.7000;0.8050;-0.6482;
498.0000;0.8042;-0.6433;
498.3000;0.8042;-0.6383;
498.6000;0.8059;-0.6457;
498.9000;0.8034;-0.6605;
499.2000;0.8050;-0.6655;
499.5000;0.8059;-0.6605;
499.8000;0.8083;-0.6482;
500.1000;0.8059;-0.6531;
500.4000;0.8034;-0.6679;
500.7000;0.8050;-0.6655;
501.0000;0.8059;-0.6630;
501.3000;0.8018;-0.6679;
501.6000;0.8059;-0.6556;
501.9000;0.8091;-0.6507;
502.2000;0.8042;-0.6605;
502.5000;0.8050;-0.6556;
502.8000;0.8042;-0.6605;
503.1000;0.8067;-0.6507;
503.4000;0.8059;-0.6531;
503.7000;0.8018;-0.6556;
504.0000;0.8042;-0.6507;
504.3000;0.8067;-0.6531;
504.6000;0.8067;-0.6531;
504.9000;0.8034;-0.6679;
505.2000;0.8059;-0.6531;
505.5000;0.8075;-0.6482;
505.8000;0.8034;-0.6531;
506.1000;0.8050;-0.6507;
506.4000;0.8042;-0.6531;
506.7000;0.8059;-0.6482;
507.0000;0.8034;-0.6482;
507.3000;0.8042;-0.6433;
507.6000;0.8018;-0.6531;
507.9000;0.8050;-0.6507;
508.2000;0.8059;-0.6482;
508.5000;0.8099;-0.6433;
508.8000;0.8050;-0.6630;
509.1000;0.8042;-0.6482;
509.4000;0.8059;-0.6408;
509.7000;0.8026;-0.6507;
510.0000;0.7993;-0.6531;
510.3000;0.8050;-0.6433;
510.6000;0.8050;-0.6457;
510.9000;0.8067;-0.6383;
511.2000;0.8050;-0.6433;
511.5000;0.8099;-0.6359;
511.8000;0.8067;-0.6408;
512.1000;0.8059;-0.6457;
512.4000;0.8050;-0.6482;
512.7000;0.8034;-0.6408;
513.0000;0.8034;-0.6383;
513.3000;0.8091;-0.6260;
513.6000;0.8050;-0.6359;
513.9000;0.8026;-0.6507;
514.2000;0.8026;-0.6630;
514.5000;0.8099;-0.6457;
514.8000;0.8059;-0.6531;
515.1000;0.8010;-0.6556;
515.4000;0.8010;-0.6482;
515.7000;0.8050;-0.6408;
516.0000;0.8026;-0.6457;
516.3000;0.8050;-0.6408;
516.6000;0.8034;-0.6359;
516.9000;0.8059;-0.6334;
517.2000;0.7993;-0.6408;
517.5000;0.8042;-0.6236;
517.8000;0.8026;-0.6285;
518.1000;0.7961;-0.6433;
518.4000;0.8140;-0.6063;
518.7000;0.8050;-0.6260;
519.0000;0.8026;-0.6383;
519.3000;0.8042;-0.6457;
519.6000;0.8042;-0.6408;
519.9000;0.8140;-0.6186;
520.2000;0.8026;-0.6383;
520.5000;0.8059;-0.6334;
520.8000;0.7985;-0.6507;
521.1000;0.8026;-0.6383;
521.4000;0.8067;-0.6309;
521.7000;0.8026;-0.6309;
522.0000;0.8034;-0.6236;
522.3000;0.8010;-0.6334;
522.6000;0.8018;-0.6309;
522.9000;0.8042;-0.6236;
523.2000;0.8018;-0.6186;
523.5000;0.8042;-0.6162;
523.8000;0.8050;-0.6211;
524.1000;0.8018;-0.6309;
524.4000;0.8042;-0.6260;
524.7000;0.8018;-0.6359;
525.0000;0.8034;-0.6309;
525.3000;0.8002;-0.6309;
525.6000;0.7969;-0.6334;
525.9000;0.8010;-0.6359;
526.2000;0.7977;-0.6507;
526.5000;0.8010;-0.6334;
526.8000;0.8026;-0.6334;
527.1000;0.8026;-0.6383;
527.4000;0.8091;-0.6309;
527.7000;0.7977;-0.6581;
528.0000;0.8010;-0.6507;
528.3000;0.8018;-0.6433;
528.6000;0.8018;-0.6433;
528.9000;0.8010;-0.6531;
529.2000;0.8018;-0.6482;
529.5000;0.8010;-0.6482;
529.8000;0.8026;-0.6408;
530.1000;0.8026;-0.6334;
530.4000;0.8026;-0.6383;
530.7000;0.8034;-0.6408;
531.0000;0.8010;-0.6433;
531.3000;0.8034;-0.6359;
531.6000;0.8026;-0.6359;
531.9000;0.8034;-0.6285;
532.2000;0.8042;-0.6236;
532.5000;0.8034;-0.6236;
532.8000;0.7993;-0.6383;
533.1000;0.8002;-0.6334;
533.4000;0.8034;-0.6285;
533.7000;0.8002;-0.6383;
534.0000;0.8026;-0.6285;
534.3000;0.8034;-0.6260;
534.6000;0.8018;-0.6260;
534.9000;0.8050;-0.6236;
535.2000;0.8034;-0.6433;
535.5000;0.8018;-0.6433;
535.8000;0.8018;-0.6433;
536.1000;0.8018;-0.6359;
536.4000;0.8026;-0.6334;
536.7000;0.8018;-0.6359;
537.0000;0.8002;-0.6383;
537.3000;0.8026;-0.6309;
537.6000;0.8026;-0.6260;
537.9000;0.8026;-0.6186;
538.2000;0.8010;-0.6211;
538.5000;0.8002;-0.6211;
538.8000;0.8010;-0.6186;
539.1000;0.7985;-0.6236;
539.4000;0.7985;-0.6211;
539.7000;0.8018;-0.6236;
540.0000;0.7985;-0.6334;
540.3000;0.8042;-0.6211;
540.6000;0.7993;-0.6334;
540.9000;0.8067;-0.6236;
541.2000;0.8010;-0.6260;
541.5000;0.8010;-0.6285;
541.8000;0.8042;-0.6383;
542.1000;0.8042;-0.6383;
542.4000;0.8042;-0.6433;
542.7000;0.8018;-0.6482;
543.0000;0.8026;-0.6581;
543.3000;0.8018;-0.6630;
543.6000;0.8018;-0.6581;
543.9000;0.8010;-0.6507;
544.2000;0.7993;-0.6457;
544.5000;0.8010;-0.6383;
544.8000;0.8010;-0.6507;
545.1000;0.8026;-0.6531;
545.4000;0.8042;-0.6605;
545.7000;0.8018;-0.6704;
546.0000;0.8010;-0.6728;
546.3000;0.8034;-0.6704;
546.6000;0.8034;-0.6704;
546.9000;0.8010;-0.6679;
547.2000;0.8018;-0.6556;
547.5000;0.8018;-0.6507;
547.8000;0.8026;-0.6383;
548.1000;0.7993;-0.6408;
548.4000;0.8018;-0.6383;
548.7000;0.7985;-0.6581;
549.0000;0.7993;-0.6507;
549.3000;0.7977;-0.6457;
549.6000;0.7985;-0.6433;
549.9000;0.8002;-0.6408;
550.2000;0.8034;-0.6359;
550.5000;0.7985;-0.6433;
550.8000;0.7993;-0.6433;
551.1000;0.7977;-0.6433;
551.4000;0.8002;-0.6334;
551.7000;0.7969;-0.6334;
552.0000;0.8010;-0.6211;
552.3000;0.8002;-0.6260;
552.6000;0.8075;-0.6112;
552.9000;0.8010;-0.6309;
553.2000;0.8002;-0.6260;
553.5000;0.8002;-0.6186;
553.8000;0.8002;-0.6236;
554.1000;0.7985;-0.6334;
554.4000;0.7993;-0.6236;
554.7000;0.7977;-0.6309;
555.0000;0.8002;-0.6260;
555.3000;0.7993;-0.6112;
555.6000;0.7953;-0.6285;
555.9000;0.7969;-0.6285;
556.2000;0.7993;-0.6359;
556.5000;0.7993;-0.6359;
556.8000;0.8010;-0.6334;
557.1000;0.7977;-0.6408;
557.4000;0.7993;-0.6433;
557.7000;0.7993;-0.6408;
558.0000;0.7993;-0.6334;
558.3000;0.8010;-0.6260;
558.6000;0.8002;-0.6260;
558.9000;0.7993;-0.6211;
559.2000;0.8002;-0.6211;
559.5000;0.8018;-0.6088;
559.8000;0.7993;-0.6088;
560.1000;0.8002;-0.6063;
560.4000;0.7977;-0.6162;
560.7000;0.7993;-0.6137;
561.0000;0.7985;-0.6211;
561.3000;0.8026;-0.6211;
561.6000;0.7961;-0.6309;
561.9000;0.8018;-0.6285;
562.2000;0.7977;-0.6457;
562.5000;0.7993;-0.6359;
562.8000;0.8026;-0.6309;
563.1000;0.8010;-0.6334;
563.4000;0.7993;-0.6433;
563.7000;0.7945;-0.6507;
564.0000;0.7969;-0.6433;
564.3000;0.7937;-0.6457;
564.6000;0.7977;-0.6359;
564.9000;0.7896;-0.6531;
565.2000;0.7977;-0.6383;
565.5000;0.8034;-0.6260;
565.8000;0.8034;-0.6236;
566.1000;0.7953;-0.6309;
566.4000;0.7977;-0.6309;
566.7000;0.7985;-0.6309;
567.0000;0.7993;-0.6285;
567.3000;0.7969;-0.6309;
567.6000;0.7969;-0.6260;
567.9000;0.8018;-0.6112;
568.2000;0.8026;-0.6088;
568.5000;0.7993;-0.6088;
568.8000;0.7969;-0.6186;
569.1000;0.7977;-0.6162;
569.4000;0.7961;-0.6186;
569.7000;0.7985;-0.6186;
570.0000;0.7953;-0.6236;
570.3000;0.7969;-0.6112;
570.6000;0.7985;-0.6112;
570.9000;0.7993;-0.6088;
571.2000;0.7945;-0.6186;
571.5000;0.7985;-0.6014;
571.8000;0.8010;-0.5989;
572.1000;0.7993;-0.6112;
572.4000;0.8010;-0.6088;
572.7000;0.8042;-0.6088;
573.0000;0.7985;-0.6211;
573.3000;0.8002;-0.6137;
573.6000;0.7993;-0.6211;
573.9000;0.7993;-0.6063;
574.2000;0.7985;-0.6038;
574.5000;0.7993;-0.6038;
574.8000;0.7985;-0.6014;
575.1000;0.7977;-0.6063;
575.4000;0.7953;-0.6186;
575.7000;0.7985;-0.6063;
576.0000;0.7993;-0.6063;
576.3000;0.7969;-0.6112;
576.6000;0.7977;-0.6162;
576.9000;0.7993;-0.6088;
577.2000;0.7969;-0.6088;
577.5000;0.7977;-0.6088;
577.8000;0.7977;-0.6063;
578.1000;0.8010;-0.5890;
578.4000;0.8002;-0.5890;
578.7000;0.7977;-0.5940;
579.0000;0.7977;-0.5989;
579.3000;0.7985;-0.6014;
579.6000;0.7993;-0.6063;
579.9000;0.7977;-0.6162;
580.2000;0.7977;-0.6137;
580.5000;0.7888;-0.6260;
580.8000;0.7993;-0.5915;
581.1000;0.7985;-0.5964;
581.4000;0.7985;-0.6038;
581.7000;0.8034;-0.5964;
582.0000;0.7977;-0.6211;
582.3000;0.7985;-0.6236;
582.6000;0.7985;-0.6162;
582.9000;0.7985;-0.6137;
583.2000;0.7977;-0.6088;
583.5000;0.7977;-0.6038;
583.8000;0.7977;-0.6014;
584.1000;0.7953;-0.6162;
584.4000;0.8002;-0.6186;
584.7000;0.7985;-0.6260;
585.0000;0.7977;-0.6285;
585.3000;0.7969;-0.6260;
585.6000;0.7977;-0.6186;
585.9000;0.7969;-0.6186;
586.2000;0.7985;-0.6038;
586.5000;0.8018;-0.5940;
586.8000;0.7961;-0.6137;
587.1000;0.7961;-0.6088;
587.4000;0.7969;-0.5989;
587.7000;0.7953;-0.6063;
588.0000;0.7969;-0.6038;
588.3000;0.7961;-0.6063;
588.6000;0.7961;-0.6063;
588.9000;0.7977;-0.6063;
589.2000;0.7977;-0.6063;
589.5000;0.7969;-0.6088;
589.8000;0.7953;-0.6137;
590.1000;0.7961;-0.6112;
590.4000;0.7928;-0.6186;
590.7000;0.8042;-0.5940;
591.0000;0.7961;-0.6063;
591.3000;0.7969;-0.6112;
591.6000;0.7961;-0.6186;
591.9000;0.7977;-0.6112;
592.2000;0.7977;-0.6014;
592.5000;0.7977;-0.6038;
592.8000;0.7977;-0.6112;
593.1000;0.7977;-0.6137;
593.4000;0.7945;-0.6137;
593.7000;0.7953;-0.6038;
594.0000;0.7953;-0.6088;
594.3000;0.7961;-0.6112;
594.6000;0.7912;-0.6211;
594.9000;0.7953;-0.6063;
595.2000;0.7945;-0.6088;
595.5000;0.7961;-0.6137;
595.8000;0.7937;-0.6236;
596.1000;0.7945;-0.6236;
596.4000;0.7961;-0.6063;
596.7000;0.7945;-0.5964;
597.0000;0.7977;-0.5964;
597.3000;0.7961;-0.5989;
597.6000;0.7953;-0.5964;
597.9000;0.7953;-0.6014;
598.2000;0.7937;-0.6014;
598.5000;0.7945;-0.5989;
598.8000;0.7945;-0.5964;
599.1000;0.7953;-0.6014;
599.4000;0.7920;-0.6038;
599.7000;0.7953;-0.6038;
600.0000;0.7937;-0.5989;
600.3000;0.7920;-0.6063;
600.6000;0.7896;-0.6063;
600.9000;0.7725;-0.6383;
601.2000;0.7611;-0.6482;
601.5000;0.7489;-0.6655;
601.8000;0.7334;-0.6901;
602.1000;0.7204;-0.7098;
602.4000;0.7090;-0.7197;
602.7000;0.7000;-0.7345;
603.0000;0.6862;-0.7493;
603.3000;0.6764;-0.7690;
603.6000;0.6691;-0.7838;
603.9000;0.6593;-0.8010;
604.2000;0.6520;-0.7985;
604.5000;0.6439;-0.8109;
604.8000;0.6382;-0.8232;
605.1000;0.6317;-0.8380;
605.4000;0.6252;-0.8503;
605.7000;0.6203;-0.8552;
606.0000;0.6129;-0.8651;
606.3000;0.6121;-0.8651;
606.6000;0.6056;-0.8676;
606.9000;0.6015;-0.8651;
607.2000;0.5975;-0.8774;
607.5000;0.5918;-0.8676;
607.8000;0.5910;-0.8676;
608.1000;0.5853;-0.8700;
608.4000;0.5836;-0.8700;
608.7000;0.5812;-0.8725;
609.0000;0.5796;-0.8725;
609.3000;0.5722;-0.8971;
609.6000;0.5739;-0.8873;
609.9000;0.5722;-0.8947;
610.2000;0.5698;-0.8897;
610.5000;0.5665;-0.9045;
610.8000;0.5657;-0.8947;
611.1000;0.5560;-0.9021;
611.4000;0.5608;-0.8823;
611.7000;0.5592;-0.8823;
612.0000;0.5576;-0.8848;
612.3000;0.5543;-0.8873;
612.6000;0.5543;-0.8897;
612.9000;0.5527;-0.8947;
613.2000;0.5503;-0.9021;
613.5000;0.5446;-0.9070;
613.8000;0.5446;-0.9168;
614.1000;0.5438;-0.9193;
614.4000;0.5438;-0.9168;
614.7000;0.5470;-0.8996;
615.0000;0.5332;-0.9292;
615.3000;0.5381;-0.9144;
615.6000;0.5389;-0.9095;
615.9000;0.5348;-0.9119;
616.2000;0.5332;-0.9095;
616.5000;0.5340;-0.8922;
616.8000;0.5332;-0.8947;
617.1000;0.5332;-0.8971;
617.4000;0.5364;-0.8848;
617.7000;0.5315;-0.8971;
618.0000;0.5299;-0.9021;
618.3000;0.5275;-0.9045;
618.6000;0.5250;-0.8971;
618.9000;0.5258;-0.8873;
619.2000;0.5258;-0.8823;
619.5000;0.5258;-0.8922;
619.8000;0.5226;-0.8947;
620.1000;0.5218;-0.9070;
620.4000;0.5210;-0.9095;
620.7000;0.5185;-0.9070;
621.0000;0.5185;-0.9021;
621.3000;0.5193;-0.8996;
621.6000;0.5193;-0.8897;
621.9000;0.5201;-0.8897;
622.2000;0.5169;-0.9045;
622.5000;0.5169;-0.8996;
622.8000;0.5169;-0.8897;
623.1000;0.5144;-0.8996;
623.4000;0.5144;-0.9144;
623.7000;0.5144;-0.9095;
624.0000;0.5104;-0.9168;
624.3000;0.5136;-0.9119;
624.6000;0.5128;-0.9193;
624.9000;0.5104;-0.9316;
625.2000;0.5047;-0.9366;
625.5000;0.5104;-0.9168;
625.8000;0.5088;-0.9119;
626.1000;0.5079;-0.9095;
626.4000;0.5104;-0.9021;
626.7000;0.5079;-0.9070;
627.0000;0.5088;-0.8996;
627.3000;0.5071;-0.9070;
627.6000;0.5071;-0.9070;
627.9000;0.5071;-0.9070;
628.2000;0.5055;-0.9045;
628.5000;0.5047;-0.9070;
628.8000;0.5031;-0.9070;
629.1000;0.5031;-0.9070;
629.4000;0.5014;-0.9070;
629.7000;0.5006;-0.9070;
630.0000;0.4990;-0.9144;
630.3000;0.5014;-0.9119;
630.6000;0.5022;-0.9045;
630.9000;0.5006;-0.9021;
631.2000;0.5031;-0.8848;
631.5000;0.4998;-0.8996;
631.8000;0.5006;-0.8922;
632.1000;0.4998;-0.8897;
632.4000;0.4982;-0.8922;
632.7000;0.4965;-0.8996;
633.0000;0.5071;-0.8774;
633.3000;0.4900;-0.9218;
633.6000;0.4974;-0.8947;
633.9000;0.4941;-0.8947;
634.2000;0.4957;-0.8897;
634.5000;0.4949;-0.8971;
634.8000;0.4860;-0.9267;
635.1000;0.4949;-0.9045;
635.4000;0.4941;-0.9021;
635.7000;0.4949;-0.9021;
636.0000;0.4941;-0.9021;
636.3000;0.4949;-0.9045;
636.6000;0.4917;-0.9168;
636.9000;0.4933;-0.9119;
637.2000;0.4933;-0.9070;
637.5000;0.4965;-0.8971;
637.8000;0.4908;-0.9095;
638.1000;0.4933;-0.8897;
638.4000;0.4908;-0.8897;
638.7000;0.4900;-0.8897;
639.0000;0.4900;-0.8971;
639.3000;0.4884;-0.8873;
639.6000;0.4860;-0.8897;
639.9000;0.4884;-0.8873;
640.2000;0.4868;-0.8922;
640.5000;0.4819;-0.9070;
640.8000;0.4868;-0.8947;
641.1000;0.4860;-0.8971;
641.4000;0.4803;-0.9045;
641.7000;0.4860;-0.8947;
642.0000;0.4851;-0.8996;
642.3000;0.4851;-0.8996;
642.6000;0.4794;-0.9095;
642.9000;0.4827;-0.9119;
643.2000;0.4835;-0.9070;
643.5000;0.4835;-0.9021;
643.8000;0.4794;-0.9045;
644.1000;0.4827;-0.8947;
644.4000;0.4819;-0.8971;
644.7000;0.4778;-0.9070;
645.0000;0.4819;-0.8922;
645.3000;0.4803;-0.8996;
645.6000;0.4778;-0.9144;
645.9000;0.4811;-0.9021;
646.2000;0.4819;-0.8971;
646.5000;0.4778;-0.9045;
646.8000;0.4786;-0.9144;
647.1000;0.4786;-0.9168;
647.4000;0.4794;-0.9144;
647.7000;0.4811;-0.9095;
648.0000;0.4786;-0.9095;
648.3000;0.4737;-0.9144;
648.6000;0.4770;-0.9021;
648.9000;0.4746;-0.8996;
649.2000;0.4819;-0.8848;
649.5000;0.4762;-0.9045;
649.8000;0.4827;-0.8897;
650.1000;0.4737;-0.9144;
650.4000;0.4762;-0.9095;
650.7000;0.4754;-0.9070;
651.0000;0.4754;-0.9045;
651.3000;0.4762;-0.9021;
651.6000;0.4672;-0.9242;
651.9000;0.4729;-0.9119;
652.2000;0.4689;-0.9168;
652.5000;0.4729;-0.9168;
652.8000;0.4713;-0.9168;
653.1000;0.4746;-0.9021;
653.4000;0.4713;-0.9021;
653.7000;0.4729;-0.9021;
654.0000;0.4689;-0.9119;
654.3000;0.4689;-0.9218;
654.6000;0.4705;-0.9070;
654.9000;0.4697;-0.9070;
655.2000;0.4697;-0.9095;
655.5000;0.4681;-0.9095;
655.8000;0.4697;-0.9045;
656.1000;0.4721;-0.9021;
656.4000;0.4697;-0.9045;
656.7000;0.4681;-0.8996;
657.0000;0.4681;-0.9070;
657.3000;0.4664;-0.9218;
657.6000;0.4681;-0.9168;
657.9000;0.4681;-0.9144;
658.2000;0.4672;-0.9242;
658.5000;0.4664;-0.9292;
658.8000;0.4689;-0.9242;
659.1000;0.4689;-0.9242;
659.4000;0.4681;-0.9292;
659.7000;0.4697;-0.9242;
660.0000;0.4681;-0.9267;
660.3000;0.4689;-0.9292;
660.6000;0.4681;-0.9316;
660.9000;0.4664;-0.9415;
661.2000;0.4672;-0.9316;
661.5000;0.4664;-0.9292;
661.8000;0.4664;-0.9242;
662.1000;0.4664;-0.9316;
662.4000;0.4648;-0.9267;
662.7000;0.4648;-0.9242;
663.0000;0.4648;-0.9168;
663.3000;0.4648;-0.9218;
663.6000;0.4640;-0.9292;
663.9000;0.4648;-0.9292;
664.2000;0.4746;-0.9095;
664.5000;0.4583;-0.9514;
664.8000;0.4648;-0.9267;
665.1000;0.4624;-0.9267;
665.4000;0.4624;-0.9267;
665.7000;0.4615;-0.9390;
666.0000;0.4607;-0.9415;
666.3000;0.4640;-0.9366;
666.6000;0.4607;-0.9415;
666.9000;0.4607;-0.9415;
667.2000;0.4615;-0.9366;
667.5000;0.4615;-0.9390;
667.8000;0.4615;-0.9390;
668.1000;0.4624;-0.9366;
668.4000;0.4607;-0.9341;
668.7000;0.4607;-0.9390;
669.0000;0.4632;-0.9341;
669.3000;0.4624;-0.9316;
669.6000;0.4591;-0.9366;
669.9000;0.4624;-0.9242;
670.2000;0.4632;-0.9144;
670.5000;0.4624;-0.9218;
670.8000;0.4591;-0.9267;
671.1000;0.4583;-0.9242;
671.4000;0.4567;-0.9168;
671.7000;0.4599;-0.9242;
672.0000;0.4583;-0.9267;
672.3000;0.4599;-0.9193;
672.6000;0.4583;-0.9267;
672.9000;0.4575;-0.9390;
673.2000;0.4599;-0.9390;
673.5000;0.4550;-0.9514;
673.8000;0.4591;-0.9415;
674.1000;0.4599;-0.9415;
674.4000;0.4575;-0.9514;
674.7000;0.4632;-0.9415;
675.0000;0.4583;-0.9538;
675.3000;0.4599;-0.9489;
675.6000;0.4567;-0.9514;
675.9000;0.4567;-0.9587;
676.2000;0.4615;-0.9563;
676.5000;0.4575;-0.9661;
676.8000;0.4558;-0.9637;
677.1000;0.4526;-0.9735;
677.4000;0.4558;-0.9514;
677.7000;0.4558;-0.9366;
678.0000;0.4656;-0.9144;
678.3000;0.4534;-0.9415;
678.6000;0.4526;-0.9390;
678.9000;0.4542;-0.9242;
679.2000;0.4550;-0.9242;
679.5000;0.4534;-0.9218;
679.8000;0.4534;-0.9193;
680.1000;0.4518;-0.9218;
680.4000;0.4575;-0.9144;
680.7000;0.4542;-0.9415;
681.0000;0.4542;-0.9390;
681.3000;0.4518;-0.9390;
681.6000;0.4542;-0.9341;
681.9000;0.4510;-0.9292;
682.2000;0.4526;-0.9193;
682.5000;0.4510;-0.9267;
682.8000;0.4526;-0.9218;
683.1000;0.4510;-0.9267;
683.4000;0.4534;-0.9415;
683.7000;0.4518;-0.9415;
684.0000;0.4542;-0.9316;
684.3000;0.4510;-0.9366;
684.6000;0.4534;-0.9341;
684.9000;0.4510;-0.9390;
685.2000;0.4501;-0.9316;
685.5000;0.4526;-0.9144;
685.8000;0.4518;-0.9119;
686.1000;0.4526;-0.9070;
686.4000;0.4501;-0.9095;
686.7000;0.4493;-0.9095;
687.0000;0.4493;-0.9045;
687.3000;0.4501;-0.9095;
687.6000;0.4526;-0.9095;
687.9000;0.4493;-0.9119;
688.2000;0.4510;-0.9144;
688.5000;0.4477;-0.9366;
688.8000;0.4501;-0.9316;
689.1000;0.4493;-0.9267;
689.4000;0.4469;-0.9267;
689.7000;0.4461;-0.9218;
690.0000;0.4469;-0.9144;
690.3000;0.4477;-0.9095;
690.6000;0.4485;-0.9045;
690.9000;0.4485;-0.9119;
691.2000;0.4485;-0.9168;
691.5000;0.4363;-0.9316;
691.8000;0.4485;-0.9045;
692.1000;0.4485;-0.9021;
692.4000;0.4453;-0.9070;
692.7000;0.4469;-0.9119;
693.0000;0.4461;-0.9168;
693.3000;0.4469;-0.9168;
693.6000;0.4444;-0.9292;
693.9000;0.4453;-0.9242;
694.2000;0.4510;-0.9070;
694.5000;0.4477;-0.9095;
694.8000;0.4461;-0.9144;
695.1000;0.4444;-0.9070;
695.4000;0.4469;-0.9021;
695.7000;0.4469;-0.8971;
696.0000;0.4501;-0.8971;
696.3000;0.4534;-0.8897;
696.6000;0.4469;-0.9070;
696.9000;0.4469;-0.9119;
697.2000;0.4420;-0.9316;
697.5000;0.4493;-0.9193;
697.8000;0.4436;-0.9218;
698.1000;0.4436;-0.9193;
698.4000;0.4444;-0.9168;
698.7000;0.4444;-0.9218;
699.0000;0.4461;-0.9168;
699.3000;0.4428;-0.9366;
699.6000;0.4444;-0.9267;
699.9000;0.4412;-0.9341;
700.2000;0.4453;-0.9267;
700.5000;0.4436;-0.9267;
700.8000;0.4436;-0.9218;
701.1000;0.4428;-0.9144;
701.4000;0.4428;-0.9144;
701.7000;0.4428;-0.9193;
702.0000;0.4469;-0.9045;
702.3000;0.4428;-0.9168;
702.6000;0.4420;-0.9168;
702.9000;0.4428;-0.9095;
703.2000;0.4420;-0.9070;
703.5000;0.4436;-0.8996;
703.8000;0.4404;-0.9095;
704.1000;0.4306;-0.9292;
704.4000;0.4461;-0.8971;
704.7000;0.4428;-0.9095;
705.0000;0.4436;-0.9119;
705.3000;0.4428;-0.9218;
705.6000;0.4420;-0.9168;
705.9000;0.4428;-0.9045;
706.2000;0.4412;-0.9045;
706.5000;0.4420;-0.9168;
706.8000;0.4412;-0.9119;
707.1000;0.4412;-0.9168;
707.4000;0.4404;-0.9218;
707.7000;0.4404;-0.9218;
708.0000;0.4396;-0.9242;
708.3000;0.4404;-0.9242;
708.6000;0.4412;-0.9267;
708.9000;0.4379;-0.9316;
709.2000;0.4396;-0.9193;
709.5000;0.4477;-0.8922;
709.8000;0.4396;-0.9144;
710.1000;0.4387;-0.9193;
710.4000;0.4461;-0.8947;
710.7000;0.4379;-0.9095;
711.0000;0.4396;-0.9095;
711.3000;0.4404;-0.9070;
711.6000;0.4428;-0.8971;
711.9000;0.4396;-0.9045;
712.2000;0.4387;-0.9095;
712.5000;0.4371;-0.9144;
712.8000;0.4371;-0.9144;
713.1000;0.4420;-0.9045;
713.4000;0.4363;-0.9218;
713.7000;0.4298;-0.9489;
714.0000;0.4282;-0.9464;
714.3000;0.4379;-0.9218;
714.6000;0.4379;-0.9144;
714.9000;0.4363;-0.9168;
715.2000;0.4379;-0.9144;
715.5000;0.4363;-0.9193;
715.8000;0.4241;-0.9464;
716.1000;0.4355;-0.9168;
716.4000;0.4363;-0.9119;
716.7000;0.4363;-0.9119;
717.0000;0.4363;-0.8996;
717.3000;0.4355;-0.9045;
717.6000;0.4355;-0.9144;
717.9000;0.4339;-0.9144;
718.2000;0.4363;-0.9119;
718.5000;0.4363;-0.9144;
718.8000;0.4379;-0.9070;
719.1000;0.4363;-0.9095;
719.4000;0.4355;-0.9193;
719.7000;0.4379;-0.9267;
720.0000;0.4306;-0.9415;
720.3000;0.4371;-0.9316;
720.6000;0.4355;-0.9316;
720.9000;0.4347;-0.9316;
721.2000;0.4363;-0.9168;
721.5000;0.4363;-0.9144;
721.8000;0.4355;-0.9144;
722.1000;0.4363;-0.9095;
722.4000;0.4339;-0.9193;
722.7000;0.4347;-0.9119;
723.0000;0.4330;-0.9045;
723.3000;0.4330;-0.8996;
723.6000;0.4339;-0.9045;
723.9000;0.4379;-0.8947;
724.2000;0.4314;-0.9119;
724.5000;0.4306;-0.9168;
724.8000;0.4322;-0.9070;
725.1000;0.4355;-0.8996;
725.4000;0.4322;-0.9045;
725.7000;0.4330;-0.8996;
726.0000;0.4330;-0.9045;
726.3000;0.4339;-0.9045;
726.6000;0.4339;-0.9045;
726.9000;0.4347;-0.9168;
727.2000;0.4355;-0.8996;
727.5000;0.4355;-0.9045;
727.8000;0.4306;-0.9242;
728.1000;0.4322;-0.9168;
728.4000;0.4298;-0.9144;
728.7000;0.4347;-0.9119;
729.0000;0.4371;-0.8971;
729.3000;0.4322;-0.9119;
729.6000;0.4306;-0.9218;
729.9000;0.4330;-0.9119;
730.2000;0.4322;-0.9095;
730.5000;0.4322;-0.9070;
730.8000;0.4306;-0.9095;
731.1000;0.4241;-0.9316;
731.4000;0.4330;-0.9119;
731.7000;0.4322;-0.9193;
732.0000;0.4322;-0.9144;
732.3000;0.4290;-0.9242;
732.6000;0.4257;-0.9316;
732.9000;0.4314;-0.9193;
733.2000;0.4314;-0.9218;
733.5000;0.4314;-0.9168;
733.8000;0.4339;-0.9095;
734.1000;0.4298;-0.9193;
734.4000;0.4330;-0.9144;
734.7000;0.4298;-0.9218;
735.0000;0.4298;-0.9267;
735.3000;0.4330;-0.9218;
735.6000;0.4347;-0.9070;
735.9000;0.4290;-0.9168;
736.2000;0.4306;-0.9193;
736.5000;0.4322;-0.9218;
736.8000;0.4371;-0.9045;
737.1000;0.4298;-0.9193;
737.4000;0.4298;-0.9168;
737.7000;0.4274;-0.9168;
738.0000;0.4306;-0.9045;
738.3000;0.4306;-0.9045;
738.6000;0.4306;-0.9095;
738.9000;0.4298;-0.9168;
739.2000;0.4314;-0.9070;
739.5000;0.4298;-0.9119;
739.8000;0.4298;-0.9193;
740.1000;0.4282;-0.9218;
740.4000;0.4306;-0.9193;
740.7000;0.4282;-0.9267;
741.0000;0.4282;-0.9341;
741.3000;0.4274;-0.9341;
741.6000;0.4298;-0.9193;
741.9000;0.4298;-0.9119;
742.2000;0.4282;-0.9144;
742.5000;0.4290;-0.9095;
742.8000;0.4355;-0.8947;
743.1000;0.4282;-0.9045;
743.4000;0.4290;-0.9070;
743.7000;0.4274;-0.9095;
744.0000;0.4265;-0.9045;
744.3000;0.4282;-0.9021;
744.6000;0.4363;-0.8873;
744.9000;0.4290;-0.9021;
745.2000;0.4298;-0.8971;
745.5000;0.4290;-0.8971;
745.8000;0.4298;-0.8947;
746.1000;0.4347;-0.8799;
746.4000;0.4282;-0.8897;
746.7000;0.4265;-0.8947;
747.0000;0.4290;-0.8823;
747.3000;0.4282;-0.8823;
747.6000;0.4249;-0.8971;
747.9000;0.4274;-0.8971;
748.2000;0.4241;-0.9045;
748.5000;0.4298;-0.8922;
748.8000;0.4265;-0.8971;
749.1000;0.4217;-0.9070;
749.4000;0.4274;-0.8947;
749.7000;0.4282;-0.8947;
750.0000;0.4265;-0.8848;
750.3000;0.4298;-0.8725;
750.6000;0.4274;-0.8749;
750.9000;0.4249;-0.8774;
751.2000;0.4225;-0.8897;
751.5000;0.4265;-0.8799;
751.8000;0.4265;-0.8897;
752.1000;0.4306;-0.8774;
752.4000;0.4306;-0.8873;
752.7000;0.4265;-0.8996;
753.0000;0.4265;-0.8922;
753.3000;0.4265;-0.8897;
753.6000;0.4249;-0.8922;
753.9000;0.4249;-0.8971;
754.2000;0.4249;-0.8996;
754.5000;0.4257;-0.8996;
754.8000;0.4241;-0.9021;
755.1000;0.4257;-0.9045;
755.4000;0.4290;-0.9021;
755.7000;0.4225;-0.9242;
756.0000;0.4241;-0.9218;
756.3000;0.4249;-0.9095;
756.6000;0.4249;-0.8996;
756.9000;0.4249;-0.8897;
757.2000;0.4274;-0.8873;
757.5000;0.4249;-0.8897;
757.8000;0.4257;-0.8947;
758.1000;0.4257;-0.8873;
758.4000;0.4192;-0.9045;
758.7000;0.4241;-0.8922;
759.0000;0.4249;-0.8897;
759.3000;0.4249;-0.8897;
759.6000;0.4233;-0.8922;
759.9000;0.4249;-0.8897;
760.2000;0.4225;-0.8922;
760.5000;0.4249;-0.8799;
760.8000;0.4249;-0.8823;
761.1000;0.4233;-0.8848;
761.4000;0.4249;-0.8897;
761.7000;0.4217;-0.9021;
762.0000;0.4274;-0.8922;
762.3000;0.4274;-0.8996;
762.6000;0.4241;-0.8996;
762.9000;0.4225;-0.9021;
763.2000;0.4265;-0.8897;
763.5000;0.4217;-0.8996;
763.8000;0.4233;-0.8971;
764.1000;0.4208;-0.8947;
764.4000;0.4314;-0.8651;
764.7000;0.4233;-0.8947;
765.0000;0.4225;-0.9021;
765.3000;0.4192;-0.9119;
765.6000;0.4241;-0.8996;
765.9000;0.4241;-0.8947;
766.2000;0.4225;-0.9021;
766.5000;0.4184;-0.9168;
766.8000;0.4233;-0.9045;
767.1000;0.4225;-0.9021;
767.4000;0.4241;-0.9070;
767.7000;0.4208;-0.9095;
768.0000;0.4233;-0.9021;
768.3000;0.4225;-0.9021;
768.6000;0.4225;-0.9021;
768.9000;0.4225;-0.9021;
769.2000;0.4225;-0.8971;
769.5000;0.4208;-0.8897;
769.8000;0.4241;-0.8823;
770.1000;0.4241;-0.8823;
770.4000;0.4192;-0.8873;
770.7000;0.4225;-0.8823;
771.0000;0.4225;-0.8799;
771.3000;0.4233;-0.8799;
771.6000;0.4208;-0.8823;
771.9000;0.4241;-0.8774;
772.2000;0.4184;-0.8848;
772.5000;0.4282;-0.8749;
772.8000;0.4217;-0.8922;
773.1000;0.4257;-0.8799;
773.4000;0.4225;-0.8774;
773.7000;0.4225;-0.8799;
774.0000;0.4225;-0.8823;
774.3000;0.4192;-0.8947;
774.6000;0.4208;-0.8897;
774.9000;0.4225;-0.8873;
775.2000;0.4217;-0.8971;
775.5000;0.4265;-0.8897;
775.8000;0.4143;-0.9218;
776.1000;0.4208;-0.9045;
776.4000;0.4233;-0.9045;
776.7000;0.4208;-0.9070;
777.0000;0.4208;-0.9021;
777.3000;0.4225;-0.8996;
777.6000;0.4200;-0.9095;
777.9000;0.4217;-0.9021;
778.2000;0.4217;-0.8996;
778.5000;0.4217;-0.8996;
778.8000;0.4225;-0.9045;
779.1000;0.4200;-0.8971;
779.4000;0.4225;-0.8922;
779.7000;0.4192;-0.8897;
780.0000;0.4208;-0.8799;
780.3000;0.4217;-0.8799;
780.6000;0.4290;-0.8602;
780.9000;0.4241;-0.8749;
781.2000;0.4217;-0.8848;
781.5000;0.4176;-0.8897;
781.8000;0.4208;-0.8823;
782.1000;0.4225;-0.8897;
782.4000;0.4225;-0.8897;
782.7000;0.4225;-0.8897;
783.0000;0.4192;-0.8897;
783.3000;0.4200;-0.8873;
783.6000;0.4217;-0.8848;
783.9000;0.4200;-0.8947;
784.2000;0.4233;-0.8897;
784.5000;0.4200;-0.8922;
784.8000;0.4200;-0.8897;
785.1000;0.4200;-0.8971;
785.4000;0.4200;-0.8947;
785.7000;0.4184;-0.8996;
786.0000;0.4200;-0.8947;
786.3000;0.4241;-0.8848;
786.6000;0.4208;-0.8947;
786.9000;0.4208;-0.8996;
787.2000;0.4200;-0.8996;
787.5000;0.4217;-0.8922;
787.8000;0.4192;-0.8971;
788.1000;0.4168;-0.8947;
788.4000;0.4192;-0.8922;
788.7000;0.4192;-0.8971;
789.0000;0.4192;-0.8922;
789.3000;0.4151;-0.9070;
789.6000;0.4184;-0.8996;
789.9000;0.4184;-0.9045;
790.2000;0.4143;-0.9119;
790.5000;0.4176;-0.9070;
790.8000;0.4184;-0.9021;
791.1000;0.4192;-0.8971;
791.4000;0.4208;-0.8996;
791.7000;0.4143;-0.9144;
792.0000;0.4192;-0.9095;
792.3000;0.4176;-0.9070;
792.6000;0.4160;-0.9095;
792.9000;0.4143;-0.9070;
793.2000;0.4168;-0.9045;
793.5000;0.4192;-0.8947;
793.8000;0.4184;-0.8947;
794.1000;0.4176;-0.8947;
794.4000;0.4176;-0.8922;
794.7000;0.4184;-0.8848;
795.0000;0.4168;-0.8996;
795.3000;0.4184;-0.9045;
795.6000;0.4208;-0.8947;
795.9000;0.4200;-0.8947;
796.2000;0.4168;-0.8996;
796.5000;0.4127;-0.9095;
796.8000;0.4176;-0.9045;
797.1000;0.4168;-0.8996;
797.4000;0.4184;-0.8873;
797.7000;0.4168;-0.8897;
798.0000;0.4176;-0.8922;
798.3000;0.4192;-0.8947;
798.6000;0.4184;-0.8971;
798.9000;0.4176;-0.8947;
799.2000;0.4168;-0.8947;
799.5000;0.4143;-0.9045;
799.8000;0.4160;-0.8947;
800.1000;0.4151;-0.8922;
800.4000;0.4151;-0.8848;
800.7000;0.4168;-0.8922;
801.0000;0.4168;-0.8873;
801.3000;0.4176;-0.8725;
801.6000;0.4184;-0.8774;
801.9000;0.4160;-0.8848;
802.2000;0.4176;-0.8799;
802.5000;0.4143;-0.8848;
802.8000;0.4160;-0.8799;
803.1000;0.4168;-0.8749;
803.4000;0.4184;-0.8700;
803.7000;0.4168;-0.8725;
804.0000;0.4208;-0.8577;
804.3000;0.4168;-0.8651;
804.6000;0.4127;-0.8848;
804.9000;0.4168;-0.8725;
805.2000;0.4160;-0.8774;
805.5000;0.4062;-0.9070;
805.8000;0.4151;-0.8848;
806.1000;0.4160;-0.8799;
806.4000;0.4078;-0.8873;
806.7000;0.4160;-0.8823;
807.0000;0.4151;-0.8922;
807.3000;0.4151;-0.8947;
807.6000;0.4160;-0.8897;
807.9000;0.4176;-0.8897;
808.2000;0.4168;-0.8922;
808.5000;0.4151;-0.9070;
808.8000;0.4160;-0.9021;
809.1000;0.4143;-0.9021;
809.4000;0.4143;-0.8947;
809.7000;0.4127;-0.8947;
810.0000;0.4135;-0.9021;
810.3000;0.4151;-0.8947;
810.6000;0.4151;-0.8922;
810.9000;0.4168;-0.8873;
811.2000;0.4119;-0.9021;
811.5000;0.4160;-0.8971;
811.8000;0.4168;-0.8947;
812.1000;0.4184;-0.8922;
812.4000;0.4151;-0.9021;
812.7000;0.4168;-0.9021;
813.0000;0.4168;-0.8971;
813.3000;0.4168;-0.8897;
813.6000;0.4168;-0.8897;
813.9000;0.4143;-0.8947;
814.2000;0.4078;-0.9119;
814.5000;0.4168;-0.8922;
814.8000;0.4160;-0.8996;
815.1000;0.4119;-0.9045;
815.4000;0.4168;-0.8922;
815.7000;0.4160;-0.8947;
816.0000;0.4151;-0.8922;
816.3000;0.4119;-0.8873;
816.6000;0.4160;-0.8725;
816.9000;0.4151;-0.8774;
817.2000;0.4184;-0.8823;
817.5000;0.4160;-0.8848;
817.8000;0.4151;-0.8897;
818.1000;0.4135;-0.8873;
818.4000;0.4143;-0.8799;
818.7000;0.4143;-0.8799;
819.0000;0.4208;-0.8676;
819.3000;0.4160;-0.8749;
819.6000;0.4119;-0.8873;
819.9000;0.4143;-0.8873;
820.2000;0.4127;-0.8848;
820.5000;0.4127;-0.8823;
820.8000;0.4127;-0.8823;
821.1000;0.4119;-0.8873;
821.4000;0.4135;-0.8823;
821.7000;0.4127;-0.8848;
822.0000;0.4111;-0.8897;
822.3000;0.4143;-0.8897;
822.6000;0.4111;-0.8971;
822.9000;0.4127;-0.8922;
823.2000;0.4135;-0.8848;
823.5000;0.4192;-0.8774;
823.8000;0.4135;-0.8922;
824.1000;0.4143;-0.9045;
824.4000;0.4135;-0.8996;
824.7000;0.4135;-0.8971;
825.0000;0.4135;-0.9045;
825.3000;0.4135;-0.8971;
825.6000;0.4111;-0.9045;
825.9000;0.4143;-0.8897;
826.2000;0.4127;-0.8848;
826.5000;0.4111;-0.8922;
826.8000;0.4127;-0.8848;
827.1000;0.4127;-0.8873;
827.4000;0.4143;-0.8749;
827.7000;0.4127;-0.8749;
828.0000;0.4184;-0.8676;
828.3000;0.4127;-0.8676;
828.6000;0.4143;-0.8700;
828.9000;0.4192;-0.8503;
829.2000;0.4127;-0.8602;
829.5000;0.4135;-0.8651;
829.8000;0.4103;-0.8749;
830.1000;0.4127;-0.8676;
830.4000;0.4135;-0.8700;
830.7000;0.4119;-0.8725;
831.0000;0.4111;-0.8774;
831.3000;0.4119;-0.8774;
831.6000;0.4062;-0.8922;
831.9000;0.4111;-0.8823;
832.2000;0.4151;-0.8774;
832.5000;0.4127;-0.8774;
832.8000;0.4200;-0.8700;
833.1000;0.4111;-0.8971;
833.4000;0.4127;-0.8947;
833.7000;0.4127;-0.8971;
834.0000;0.4127;-0.8996;
834.3000;0.4127;-0.9045;
834.6000;0.4135;-0.8922;
834.9000;0.4127;-0.8897;
835.2000;0.4111;-0.8947;
835.5000;0.4070;-0.9168;
835.8000;0.4111;-0.9021;
836.1000;0.4111;-0.8996;
836.4000;0.4103;-0.9021;
836.7000;0.4119;-0.8996;
837.0000;0.4103;-0.8922;
837.3000;0.4135;-0.8823;
837.6000;0.4127;-0.8823;
837.9000;0.4103;-0.8873;
838.2000;0.4094;-0.8922;
838.5000;0.4119;-0.8922;
838.8000;0.4127;-0.8971;
839.1000;0.4103;-0.8947;
839.4000;0.4111;-0.9070;
839.7000;0.4127;-0.9119;
840.0000;0.4135;-0.9070;
840.3000;0.4111;-0.9045;
840.6000;0.4151;-0.8996;
840.9000;0.4160;-0.8971;
841.2000;0.4168;-0.8996;
841.5000;0.4094;-0.9193;
841.8000;0.4119;-0.9193;
842.1000;0.4160;-0.9070;
842.4000;0.4127;-0.9119;
842.7000;0.4127;-0.9070;
843.0000;0.4200;-0.8823;
843.3000;0.4127;-0.8922;
843.6000;0.4111;-0.9021;
843.9000;0.4127;-0.9070;
844.2000;0.4054;-0.9218;
844.5000;0.4103;-0.9095;
844.8000;0.4119;-0.9070;
845.1000;0.4103;-0.9021;
845.4000;0.4103;-0.8971;
845.7000;0.4103;-0.9021;
846.0000;0.4111;-0.9021;
846.3000;0.4078;-0.9070;
846.6000;0.4127;-0.8971;
846.9000;0.4062;-0.9144;
847.2000;0.4062;-0.9095;
847.5000;0.4119;-0.8897;
847.8000;0.4111;-0.8897;
848.1000;0.4168;-0.8799;
848.4000;0.4151;-0.8848;
848.7000;0.4111;-0.8971;
849.0000;0.4119;-0.8947;
849.3000;0.4127;-0.8897;
849.6000;0.4135;-0.8873;
849.9000;0.4094;-0.8996;
850.2000;0.4119;-0.8971;
850.5000;0.4103;-0.9095;
850.8000;0.4103;-0.9193;
851.1000;0.4135;-0.9095;
851.4000;0.4086;-0.9168;
851.7000;0.4103;-0.9095;
852.0000;0.4094;-0.9070;
852.3000;0.4119;-0.9021;
852.6000;0.4046;-0.9242;
852.9000;0.4103;-0.9119;
853.2000;0.4037;-0.9292;
853.5000;0.4094;-0.9218;
853.8000;0.4111;-0.9242;
854.1000;0.4135;-0.9242;
854.4000;0.4094;-0.9366;
854.7000;0.4094;-0.9390;
855.0000;0.4103;-0.9316;
855.3000;0.4127;-0.9242;
855.6000;0.4119;-0.9193;
855.9000;0.4086;-0.9144;
856.2000;0.4086;-0.9070;
856.5000;0.4111;-0.8947;
856.8000;0.4103;-0.8996;
857.1000;0.4086;-0.8996;
857.4000;0.4086;-0.8971;
857.7000;0.4086;-0.8947;
858.0000;0.4103;-0.8971;
858.3000;0.4070;-0.9045;
858.6000;0.4160;-0.8823;
858.9000;0.4103;-0.8947;
859.2000;0.4143;-0.8873;
859.5000;0.4135;-0.8725;
859.8000;0.4086;-0.8799;
860.1000;0.4119;-0.8676;
860.4000;0.4094;-0.8799;
860.7000;0.4111;-0.8774;
861.0000;0.4070;-0.8749;
861.3000;0.4078;-0.8848;
861.6000;0.4086;-0.8848;
861.9000;0.4103;-0.8823;
862.2000;0.4094;-0.8848;
862.5000;0.4094;-0.8922;
862.8000;0.4103;-0.8897;
863.1000;0.4119;-0.8799;
863.4000;0.4094;-0.8774;
863.7000;0.4103;-0.8700;
864.0000;0.4094;-0.8774;
864.3000;0.4111;-0.8700;
864.6000;0.4111;-0.8700;
864.9000;0.4103;-0.8749;
865.2000;0.4119;-0.8749;
865.5000;0.4111;-0.8823;
865.8000;0.4086;-0.8848;
866.1000;0.4127;-0.8799;
866.4000;0.4086;-0.8897;
866.7000;0.4094;-0.8873;
867.0000;0.4086;-0.8922;
867.3000;0.4078;-0.8897;
867.6000;0.4078;-0.8971;
867.9000;0.4086;-0.8848;
868.2000;0.4086;-0.8799;
868.5000;0.4086;-0.8774;
868.8000;0.4103;-0.8823;
869.1000;0.4127;-0.8848;
869.4000;0.4103;-0.8848;
869.7000;0.4094;-0.8848;
870.0000;0.4094;-0.8823;
870.3000;0.4086;-0.8823;
870.6000;0.4103;-0.8749;
870.9000;0.4086;-0.8823;
871.2000;0.4103;-0.8823;
871.5000;0.4094;-0.8799;
871.8000;0.4103;-0.8799;
872.1000;0.4111;-0.8676;
872.4000;0.4086;-0.8651;
872.7000;0.4094;-0.8676;
873.0000;0.4111;-0.8602;
873.3000;0.4111;-0.8577;
873.6000;0.4086;-0.8577;
873.9000;0.4094;-0.8651;
874.2000;0.4111;-0.8676;
874.5000;0.4111;-0.8749;
874.8000;0.4103;-0.8626;
875.1000;0.4103;-0.8700;
875.4000;0.4111;-0.8725;
875.7000;0.4086;-0.8676;
876.0000;0.4070;-0.8676;
876.3000;0.4078;-0.8725;
876.6000;0.4086;-0.8749;
876.9000;0.4094;-0.8799;
877.2000;0.4119;-0.8700;
877.5000;0.4070;-0.8823;
877.8000;0.4086;-0.8749;
878.1000;0.4078;-0.8725;
878.4000;0.4086;-0.8725;
878.7000;0.4094;-0.8823;
879.0000;0.4070;-0.8947;
879.3000;0.4086;-0.8823;
879.6000;0.4094;-0.8774;
879.9000;0.4037;-0.8922;
880.2000;0.4111;-0.8749;
880.5000;0.4086;-0.8873;
880.8000;0.4086;-0.8947;
881.1000;0.4062;-0.8947;
881.4000;0.4062;-0.8897;
881.7000;0.4021;-0.8947;
882.0000;0.4054;-0.8873;
882.3000;0.4103;-0.8725;
882.6000;0.4111;-0.8676;
882.9000;0.4070;-0.8774;
883.2000;0.4151;-0.8503;
883.5000;0.4086;-0.8749;
883.8000;0.4078;-0.8848;
884.1000;0.4070;-0.8873;
884.4000;0.4086;-0.8897;
884.7000;0.4103;-0.8823;
885.0000;0.4086;-0.8700;
885.3000;0.4086;-0.8626;
885.6000;0.4070;-0.8725;
885.9000;0.4086;-0.8725;
886.2000;0.4070;-0.8700;
886.5000;0.4070;-0.8651;
886.8000;0.4054;-0.8651;
887.1000;0.4111;-0.8626;
887.4000;0.4046;-0.8676;
887.7000;0.4078;-0.8749;
888.0000;0.4054;-0.8848;
888.3000;0.4086;-0.8848;
888.6000;0.4086;-0.8823;
888.9000;0.4070;-0.8774;
889.2000;0.4078;-0.8823;
889.5000;0.4086;-0.8823;
889.8000;0.4078;-0.8823;
890.1000;0.4078;-0.8873;
890.4000;0.4078;-0.8922;
890.7000;0.4070;-0.8922;
891.0000;0.4103;-0.8873;
891.3000;0.4054;-0.9070;
891.6000;0.4062;-0.9095;
891.9000;0.4062;-0.9095;
892.2000;0.4086;-0.8996;
892.5000;0.4054;-0.8971;
892.8000;0.4046;-0.9021;
893.1000;0.4062;-0.8971;
893.4000;0.4086;-0.8897;
893.7000;0.4086;-0.8922;
894.0000;0.4078;-0.8823;
894.3000;0.4062;-0.8848;
894.6000;0.4078;-0.8749;
894.9000;0.4094;-0.8749;
895.2000;0.4078;-0.8774;
895.5000;0.4086;-0.8799;
895.8000;0.4078;-0.8897;
896.1000;0.4078;-0.8971;
896.4000;0.4119;-0.8971;
896.7000;0.4070;-0.9045;
897.0000;0.4070;-0.9095;
897.3000;0.4086;-0.8922;
897.6000;0.4054;-0.8897;
897.9000;0.4046;-0.8971;
898.2000;0.4054;-0.8922;
898.5000;0.4078;-0.8873;
898.8000;0.4062;-0.8947;
899.1000;0.4078;-0.8848;
899.4000;0.4103;-0.8873;
899.7000;0.4078;-0.9045;
900.0000;0.4046;-0.9095;
900.3000;0.4070;-0.9021;
900.6000;0.4070;-0.8971;
900.9000;0.4078;-0.8922;
901.2000;0.4094;-0.8897;
901.5000;0.4086;-0.8947;
901.8000;0.4078;-0.8848;
902.1000;0.4070;-0.8873;
902.4000;0.4046;-0.8947;
902.7000;0.4046;-0.8873;
903.0000;0.4037;-0.8971;
903.3000;0.4070;-0.8823;
903.6000;0.4078;-0.8799;
903.9000;0.4029;-0.8873;
904.2000;0.4086;-0.8700;
904.5000;0.4111;-0.8651;
904.8000;0.4062;-0.8823;
905.1000;0.4135;-0.8626;
905.4000;0.4062;-0.8749;
905.7000;0.4078;-0.8848;
906.0000;0.4078;-0.8873;
906.3000;0.4070;-0.8873;
906.6000;0.3997;-0.9095;
906.9000;0.4037;-0.8996;
907.2000;0.4070;-0.8823;
907.5000;0.4070;-0.8725;
907.8000;0.4062;-0.8651;
908.1000;0.4062;-0.8676;
908.4000;0.4062;-0.8725;
908.7000;0.4062;-0.8676;
909.0000;0.4062;-0.8676;
909.3000;0.4086;-0.8626;
909.6000;0.4078;-0.8700;
909.9000;0.4078;-0.8725;
910.2000;0.4070;-0.8700;
910.5000;0.4070;-0.8774;
910.8000;0.4070;-0.8774;
911.1000;0.4070;-0.8676;
911.4000;0.4062;-0.8676;
911.7000;0.4078;-0.8651;
912.0000;0.4054;-0.8725;
912.3000;0.4054;-0.8725;
912.6000;0.4062;-0.8774;
912.9000;0.4054;-0.8848;
913.2000;0.4062;-0.8873;
913.5000;0.4046;-0.8897;
913.8000;0.4054;-0.8873;
914.1000;0.4062;-0.8848;
914.4000;0.4078;-0.8799;
914.7000;0.4062;-0.8799;
915.0000;0.4078;-0.8725;
915.3000;0.4111;-0.8528;
915.6000;0.4046;-0.8626;
915.9000;0.4070;-0.8651;
916.2000;0.4046;-0.8651;
916.5000;0.4086;-0.8552;
916.8000;0.4054;-0.8651;
917.1000;0.4062;-0.8651;
917.4000;0.4062;-0.8725;
917.7000;0.4054;-0.8725;
918.0000;0.4062;-0.8823;
918.3000;0.4078;-0.8848;
918.6000;0.4054;-0.8897;
918.9000;0.4054;-0.8873;
919.2000;0.4078;-0.8873;
919.5000;0.4062;-0.8897;
919.8000;0.4070;-0.8971;
920.1000;0.4078;-0.8922;
920.4000;0.4119;-0.8749;
920.7000;0.4062;-0.8848;
921.0000;0.4054;-0.8823;
921.3000;0.4086;-0.8799;
921.6000;0.4062;-0.8823;
921.9000;0.4078;-0.8676;
922.2000;0.4054;-0.8749;
922.5000;0.4029;-0.8848;
922.8000;0.4046;-0.8774;
923.1000;0.4054;-0.8848;
923.4000;0.3997;-0.9119;
923.7000;0.4046;-0.8971;
924.0000;0.4070;-0.8823;
924.3000;0.4086;-0.8774;
924.6000;0.4046;-0.8774;
924.9000;0.4054;-0.8676;
925.2000;0.4029;-0.8774;
925.5000;0.4062;-0.8676;
925.8000;0.4070;-0.8700;
926.1000;0.4037;-0.8823;
926.4000;0.4046;-0.8774;
926.7000;0.4062;-0.8848;
927.0000;0.4046;-0.8799;
927.3000;0.4046;-0.8700;
927.6000;0.4046;-0.8700;
927.9000;0.4037;-0.8725;
928.2000;0.4054;-0.8626;
928.5000;0.4062;-0.8676;
928.8000;0.4054;-0.8774;
929.1000;0.4037;-0.8774;
929.4000;0.4062;-0.8848;
929.7000;0.4021;-0.8873;
930.0000;0.4062;-0.8823;
930.3000;0.4046;-0.8873;
930.6000;0.4078;-0.8725;
930.9000;0.4046;-0.8799;
931.2000;0.4062;-0.8774;
931.5000;0.4103;-0.8676;
931.8000;0.4046;-0.8799;
932.1000;0.4046;-0.8676;
932.4000;0.4054;-0.8676;
932.7000;0.4046;-0.8725;
933.0000;0.4046;-0.8848;
933.3000;0.4054;-0.8947;
933.6000;0.4078;-0.8873;
933.9000;0.4062;-0.8947;
934.2000;0.4046;-0.8971;
934.5000;0.4021;-0.8996;
934.8000;0.4046;-0.8922;
935.1000;0.4054;-0.8823;
935.4000;0.4086;-0.8774;
935.7000;0.4070;-0.8848;
936.0000;0.4054;-0.8897;
936.3000;0.4054;-0.8897;
936.6000;0.4046;-0.8848;
936.9000;0.4046;-0.8799;
937.2000;0.4054;-0.8823;
937.5000;0.4062;-0.8823;
937.8000;0.4029;-0.8996;
938.1000;0.4086;-0.8823;
938.4000;0.4046;-0.8897;
938.7000;0.4070;-0.8897;
939.0000;0.4046;-0.8897;
939.3000;0.4037;-0.8848;
939.6000;0.4037;-0.8873;
939.9000;0.4062;-0.8873;
940.2000;0.4054;-0.8848;
940.5000;0.4037;-0.8947;
940.8000;0.4054;-0.8848;
941.1000;0.4062;-0.8700;
941.4000;0.4021;-0.8799;
941.7000;0.4029;-0.8823;
942.0000;0.4054;-0.8823;
942.3000;0.4054;-0.8848;
942.6000;0.4054;-0.8897;
942.9000;0.4037;-0.8922;
943.2000;0.4062;-0.8848;
943.5000;0.4054;-0.8873;
943.8000;0.4046;-0.8873;
944.1000;0.4078;-0.8848;
944.4000;0.4054;-0.8799;
944.7000;0.4062;-0.8799;
945.0000;0.3948;-0.9095;
945.3000;0.4046;-0.8873;
945.6000;0.4054;-0.8774;
945.9000;0.4046;-0.8725;
946.2000;0.4062;-0.8774;
946.5000;0.4094;-0.8725;
946.8000;0.4054;-0.8848;
947.1000;0.4070;-0.8823;
947.4000;0.4021;-0.8922;
947.7000;0.4037;-0.8897;
948.0000;0.4037;-0.8947;
948.3000;0.4021;-0.8996;
948.6000;0.4046;-0.8947;
948.9000;0.3980;-0.9119;
949.2000;0.4029;-0.8947;
949.5000;0.4021;-0.8799;
949.8000;0.4029;-0.8700;
950.1000;0.4029;-0.8602;
950.4000;0.4021;-0.8626;
950.7000;0.3980;-0.8799;
951.0000;0.4054;-0.8602;
951.3000;0.4046;-0.8552;
951.6000;0.4005;-0.8602;
951.9000;0.4046;-0.8626;
952.2000;0.4046;-0.8651;
952.5000;0.4021;-0.8823;
952.8000;0.4062;-0.8799;
953.1000;0.4029;-0.8873;
953.4000;0.4062;-0.8774;
953.7000;0.4054;-0.8725;
954.0000;0.4005;-0.8848;
954.3000;0.4021;-0.8799;
954.6000;0.4070;-0.8725;
954.9000;0.4046;-0.8873;
955.2000;0.4062;-0.8725;
955.5000;0.4062;-0.8799;
955.8000;0.4046;-0.8873;
956.1000;0.4070;-0.8799;
956.4000;0.4029;-0.8848;
956.7000;0.4029;-0.8749;
957.0000;0.3989;-0.8823;
957.3000;0.4037;-0.8700;
957.6000;0.4029;-0.8774;
957.9000;0.4013;-0.8922;
958.2000;0.4037;-0.8897;
958.5000;0.4054;-0.8848;
958.8000;0.4046;-0.8922;
959.1000;0.4037;-0.9021;
959.4000;0.4037;-0.8947;
959.7000;0.4029;-0.8799;
960.0000;0.4062;-0.8774;
960.3000;0.4029;-0.8897;
960.6000;0.4021;-0.8897;
960.9000;0.3997;-0.8922;
961.2000;0.4046;-0.8799;
961.5000;0.4029;-0.8848;
961.8000;0.4086;-0.8602;
962.1000;0.4029;-0.8823;
962.4000;0.4029;-0.8897;
962.7000;0.4037;-0.8947;
963.0000;0.4037;-0.8848;
963.3000;0.3956;-0.9119;
963.6000;0.4037;-0.8873;
963.9000;0.4021;-0.8947;
964.2000;0.4037;-0.8873;
964.5000;0.4013;-0.8947;
964.8000;0.4037;-0.8971;
965.1000;0.3956;-0.9242;
965.4000;0.4037;-0.8947;
965.7000;0.4037;-0.8947;
966.0000;0.4078;-0.8749;
966.3000;0.4046;-0.8873;
966.6000;0.4054;-0.8823;
966.9000;0.4013;-0.8947;
967.2000;0.4029;-0.8897;
967.5000;0.4037;-0.8823;
967.8000;0.4054;-0.8799;
968.1000;0.4062;-0.8725;
968.4000;0.4046;-0.8676;
968.7000;0.4029;-0.8651;
969.0000;0.4037;-0.8626;
969.3000;0.4037;-0.8626;
969.6000;0.4029;-0.8676;
969.9000;0.4046;-0.8626;
970.2000;0.4037;-0.8700;
970.5000;0.4054;-0.8626;
970.8000;0.4029;-0.8676;
971.1000;0.4013;-0.8749;
971.4000;0.4005;-0.8676;
971.7000;0.4037;-0.8626;
972.0000;0.4046;-0.8651;
972.3000;0.3997;-0.8774;
972.6000;0.4021;-0.8799;
972.9000;0.4021;-0.8799;
973.2000;0.4021;-0.8873;
973.5000;0.4029;-0.8749;
973.8000;0.4029;-0.8725;
974.1000;0.3956;-0.9045;
974.4000;0.4046;-0.8725;
974.7000;0.4013;-0.8774;
975.0000;0.3997;-0.8823;
975.3000;0.3997;-0.8799;
975.6000;0.4054;-0.8823;
975.9000;0.4046;-0.8897;
976.2000;0.4046;-0.8922;
976.5000;0.4013;-0.8971;
976.8000;0.4029;-0.8996;
977.1000;0.4013;-0.8947;
977.4000;0.4046;-0.8848;
977.7000;0.4021;-0.8823;
978.0000;0.4037;-0.8848;
978.3000;0.4021;-0.8799;
978.6000;0.4013;-0.8774;
978.9000;0.4029;-0.8823;
979.2000;0.4037;-0.8749;
979.5000;0.4021;-0.8725;
979.8000;0.4013;-0.8799;
980.1000;0.4013;-0.8873;
980.4000;0.4021;-0.8823;
980.7000;0.4013;-0.8873;
981.0000;0.4029;-0.8799;
981.3000;0.4029;-0.8848;
981.6000;0.4029;-0.8823;
981.9000;0.4046;-0.8774;
982.2000;0.4037;-0.8848;
982.5000;0.4013;-0.8922;
982.8000;0.4029;-0.8996;
983.1000;0.4029;-0.8897;
983.4000;0.4046;-0.8799;
983.7000;0.4021;-0.8848;
984.0000;0.4013;-0.8922;
984.3000;0.4094;-0.8700;
984.6000;0.4021;-0.8922;
984.9000;0.4021;-0.8897;
985.2000;0.4021;-0.8897;
985.5000;0.4029;-0.8774;
985.8000;0.4037;-0.8799;
986.1000;0.4013;-0.8799;
986.4000;0.4029;-0.8823;
986.7000;0.4005;-0.8922;
987.0000;0.4021;-0.8922;
987.3000;0.4062;-0.8873;
987.6000;0.4021;-0.8922;
987.9000;0.4021;-0.8922;
988.2000;0.4046;-0.8823;
988.5000;0.4037;-0.8799;
988.8000;0.3997;-0.8873;
989.1000;0.4021;-0.8799;
989.4000;0.4037;-0.8774;
989.7000;0.4037;-0.8700;
990.0000;0.3997;-0.8749;
990.3000;0.3997;-0.8774;
990.6000;0.4029;-0.8676;
990.9000;0.4013;-0.8725;
991.2000;0.4046;-0.8700;
991.5000;0.4021;-0.8799;
991.8000;0.3956;-0.8897;
992.1000;0.3980;-0.8873;
992.4000;0.4037;-0.8749;
992.7000;0.4005;-0.8873;
993.0000;0.4029;-0.8873;
993.3000;0.4029;-0.8897;
993.6000;0.4021;-0.8947;
993.9000;0.4029;-0.8873;
994.2000;0.4029;-0.8823;
994.5000;0.4029;-0.8700;
994.8000;0.4037;-0.8725;
995.1000;0.4054;-0.8676;
995.4000;0.3980;-0.8922;
995.7000;0.4013;-0.8799;
996.0000;0.4013;-0.8799;
996.3000;0.4029;-0.8676;
996.6000;0.4005;-0.8774;
996.9000;0.4029;-0.8651;
997.2000;0.4046;-0.8626;
997.5000;0.4135;-0.8454;
997.8000;0.4037;-0.8725;
998.1000;0.4054;-0.8700;
998.4000;0.4078;-0.8651;
998.7000;0.4029;-0.8749;
999.0000;0.4037;-0.8700;
999.3000;0.3997;-0.8848;
999.6000;0.4046;-0.8651;
999.9000;0.4037;-0.8700;
1000.2000;0.3989;-0.8700;
1000.5000;0.4046;-0.8626;
1000.8000;0.4005;-0.8700;
1001.1000;0.4037;-0.8651;
1001.4000;0.4029;-0.8651;
1001.7000;0.3989;-0.8700;
1002.0000;0.4029;-0.8626;
1002.3000;0.4029;-0.8602;
1002.6000;0.4013;-0.8651;
1002.9000;0.4013;-0.8626;
1003.2000;0.4021;-0.8602;
1003.5000;0.3980;-0.8626;
1003.8000;0.4037;-0.8454;
1004.1000;0.4005;-0.8528;
1004.4000;0.3980;-0.8602;
1004.7000;0.4021;-0.8552;
1005.0000;0.4005;-0.8626;
1005.3000;0.4005;-0.8626;
1005.6000;0.4013;-0.8626;
1005.9000;0.4046;-0.8552;
1006.2000;0.4021;-0.8626;
1006.5000;0.3956;-0.8774;
1006.8000;0.4013;-0.8626;
1007.1000;0.4021;-0.8577;
1007.4000;0.4062;-0.8454;
1007.7000;0.4013;-0.8552;
1008.0000;0.4013;-0.8577;
1008.3000;0.4021;-0.8651;
1008.6000;0.4037;-0.8651;
1008.9000;0.4021;-0.8848;
1009.2000;0.4013;-0.8848;
1009.5000;0.4013;-0.8873;
1009.8000;0.4021;-0.8749;
1010.1000;0.4005;-0.8676;
1010.4000;0.4005;-0.8749;
1010.7000;0.4021;-0.8749;
1011.0000;0.4037;-0.8700;
1011.3000;0.4013;-0.8774;
1011.6000;0.4021;-0.8749;
1011.9000;0.3989;-0.8749;
1012.2000;0.4013;-0.8749;
1012.5000;0.4021;-0.8725;
1012.8000;0.3997;-0.8799;
1013.1000;0.4037;-0.8774;
1013.4000;0.4021;-0.8774;
1013.7000;0.4037;-0.8823;
1014.0000;0.4021;-0.8947;
1014.3000;0.4005;-0.8922;
1014.6000;0.3964;-0.8922;
1014.9000;0.4029;-0.8873;
1015.2000;0.4005;-0.8897;
1015.5000;0.4021;-0.8848;
1015.8000;0.4021;-0.8799;
1016.1000;0.4037;-0.8749;
1016.4000;0.4005;-0.8848;
1016.7000;0.4005;-0.8823;
1017.0000;0.4021;-0.8749;
1017.3000;0.4021;-0.8749;
1017.6000;0.4046;-0.8651;
1017.9000;0.4037;-0.8700;
1018.2000;0.4078;-0.8602;
1018.5000;0.4037;-0.8651;
1018.8000;0.4013;-0.8700;
1019.1000;0.4029;-0.8676;
1019.4000;0.4029;-0.8700;
1019.7000;0.4013;-0.8823;
1020.0000;0.4005;-0.8823;
1020.3000;0.4013;-0.8823;
1020.6000;0.3989;-0.8848;
1020.9000;0.4005;-0.8848;
1021.2000;0.4013;-0.8873;
1021.5000;0.4029;-0.8823;
1021.8000;0.3997;-0.8823;
1022.1000;0.4021;-0.8823;
1022.4000;0.4029;-0.8799;
1022.7000;0.4013;-0.8897;
1023.0000;0.4021;-0.8799;
1023.3000;0.4029;-0.8823;
1023.6000;0.4029;-0.8799;
1023.9000;0.4013;-0.8848;
1024.2000;0.4021;-0.8848;
1024.5000;0.4029;-0.8897;
1024.8000;0.4005;-0.8922;
1025.1000;0.4021;-0.8922;
1025.4000;0.3997;-0.8996;
1025.7000;0.3980;-0.9045;
1026.0000;0.4005;-0.9021;
1026.3000;0.4021;-0.8971;
1026.6000;0.4021;-0.8996;
1026.9000;0.4021;-0.8873;
1027.2000;0.4062;-0.8774;
1027.5000;0.4013;-0.8897;
1027.8000;0.4013;-0.8897;
1028.1000;0.4005;-0.8947;
1028.4000;0.4054;-0.8749;
1028.7000;0.4013;-0.8823;
1029.0000;0.4029;-0.8799;
1029.3000;0.4021;-0.8749;
1029.6000;0.3997;-0.8774;
1029.9000;0.4029;-0.8700;
1030.2000;0.3997;-0.8774;
1030.5000;0.3989;-0.8848;
1030.8000;0.4005;-0.8848;
1031.1000;0.4013;-0.8848;
1031.4000;0.4078;-0.8676;
1031.7000;0.4005;-0.8873;
1032.0000;0.4005;-0.8897;
1032.3000;0.4013;-0.8848;
1032.6000;0.4021;-0.8848;
1032.9000;0.4013;-0.8823;
1033.2000;0.4021;-0.8848;
1033.5000;0.4005;-0.8848;
1033.8000;0.4005;-0.8897;
1034.1000;0.4062;-0.8799;
1034.4000;0.3997;-0.8947;
1034.7000;0.4005;-0.9045;
1035.0000;0.4013;-0.8996;
1035.3000;0.4021;-0.8971;
1035.6000;0.4005;-0.9021;
1035.9000;0.4021;-0.8922;
1036.2000;0.4013;-0.8947;
1036.5000;0.3989;-0.8947;
1036.8000;0.4013;-0.8848;
1037.1000;0.3989;-0.8947;
1037.4000;0.4054;-0.8749;
1037.7000;0.4029;-0.8799;
1038.0000;0.4103;-0.8651;
1038.3000;0.3997;-0.8749;
1038.6000;0.4005;-0.8676;
1038.9000;0.4021;-0.8651;
1039.2000;0.4037;-0.8626;
1039.5000;0.3980;-0.8749;
1039.8000;0.4021;-0.8749;
1040.1000;0.4013;-0.8749;
1040.4000;0.4029;-0.8651;
1040.7000;0.4013;-0.8848;
1041.0000;0.4013;-0.8897;
1041.3000;0.4005;-0.8873;
1041.6000;0.4029;-0.8823;
1041.9000;0.4021;-0.8799;
1042.2000;0.3997;-0.8897;
1042.5000;0.4021;-0.8823;
1042.8000;0.4005;-0.8873;
1043.1000;0.4029;-0.8922;
1043.4000;0.4005;-0.8922;
1043.7000;0.4013;-0.8749;
1044.0000;0.4029;-0.8774;
1044.3000;0.4029;-0.8823;
1044.6000;0.4021;-0.8848;
1044.9000;0.3997;-0.8922;
1045.2000;0.4005;-0.8873;
1045.5000;0.4013;-0.8971;
1045.8000;0.3948;-0.9168;
1046.1000;0.3997;-0.9021;
1046.4000;0.3997;-0.9045;
1046.7000;0.4021;-0.9021;
1047.0000;0.4005;-0.8996;
1047.3000;0.3997;-0.8971;
1047.6000;0.4054;-0.8823;
1047.9000;0.4021;-0.8947;
1048.2000;0.4029;-0.8897;
1048.5000;0.4021;-0.8947;
1048.8000;0.4021;-0.8947;
1049.1000;0.4021;-0.8799;
1049.4000;0.4029;-0.8749;
1049.7000;0.3997;-0.8774;
1050.0000;0.4029;-0.8749;
1050.3000;0.4005;-0.8749;
1050.6000;0.4013;-0.8700;
1050.9000;0.4005;-0.8774;
1051.2000;0.4013;-0.8749;
1051.5000;0.4046;-0.8651;
1051.8000;0.4013;-0.8700;
1052.1000;0.4021;-0.8676;
1052.4000;0.4005;-0.8725;
1052.7000;0.3997;-0.8725;
1053.0000;0.4013;-0.8700;
1053.3000;0.4021;-0.8700;
1053.6000;0.4013;-0.8626;
1053.9000;0.4037;-0.8602;
1054.2000;0.4013;-0.8700;
1054.5000;0.4021;-0.8676;
1054.8000;0.4013;-0.8651;
1055.1000;0.4005;-0.8774;
1055.4000;0.4005;-0.8651;
1055.7000;0.4037;-0.8602;
1056.0000;0.3989;-0.8700;
1056.3000;0.3997;-0.8676;
1056.6000;0.3997;-0.8602;
1056.9000;0.4021;-0.8602;
1057.2000;0.4005;-0.8725;
1057.5000;0.4021;-0.8676;
1057.8000;0.4005;-0.8651;
1058.1000;0.4021;-0.8651;
1058.4000;0.4029;-0.8676;
1058.7000;0.4005;-0.8651;
1059.0000;0.3989;-0.8577;
1059.3000;0.3997;-0.8528;
1059.6000;0.4029;-0.8528;
1059.9000;0.4021;-0.8602;
1060.2000;0.4013;-0.8552;
1060.5000;0.3980;-0.8700;
1060.8000;0.4021;-0.8626;
1061.1000;0.4013;-0.8602;
1061.4000;0.3997;-0.8602;
1061.7000;0.4013;-0.8676;
1062.0000;0.3997;-0.8676;
1062.3000;0.4021;-0.8651;
1062.6000;0.4005;-0.8602;
1062.9000;0.3972;-0.8651;
1063.2000;0.4037;-0.8552;
1063.5000;0.3997;-0.8577;
1063.8000;0.3989;-0.8651;
1064.1000;0.4013;-0.8528;
1064.4000;0.3997;-0.8552;
1064.7000;0.3989;-0.8602;
1065.0000;0.3964;-0.8676;
1065.3000;0.4021;-0.8651;
1065.6000;0.4005;-0.8725;
1065.9000;0.3989;-0.8749;
1066.2000;0.4005;-0.8651;
1066.5000;0.3997;-0.8651;
1066.8000;0.4021;-0.8626;
1067.1000;0.4029;-0.8651;
1067.4000;0.4005;-0.8626;
1067.7000;0.3997;-0.8676;
1068.0000;0.4078;-0.8454;
1068.3000;0.4021;-0.8626;
1068.6000;0.3907;-0.8848;
1068.9000;0.4005;-0.8651;
1069.2000;0.3972;-0.8725;
1069.5000;0.3989;-0.8700;
1069.8000;0.4013;-0.8626;
1070.1000;0.4013;-0.8626;
1070.4000;0.3932;-0.8873;
1070.7000;0.4013;-0.8651;
1071.0000;0.3980;-0.8725;
1071.3000;0.3997;-0.8676;
1071.6000;0.3915;-0.8996;
1071.9000;0.3997;-0.8774;
1072.2000;0.4013;-0.8823;
1072.5000;0.4005;-0.8799;
1072.8000;0.4005;-0.8676;
1073.1000;0.3989;-0.8725;
1073.4000;0.3997;-0.8725;
1073.7000;0.3997;-0.8749;
1074.0000;0.4021;-0.8626;
1074.3000;0.4005;-0.8602;
1074.6000;0.4005;-0.8602;
1074.9000;0.4005;-0.8602;
1075.2000;0.4021;-0.8602;
1075.5000;0.4013;-0.8651;
1075.8000;0.3989;-0.8774;
1076.1000;0.4013;-0.8676;
1076.4000;0.4013;-0.8602;
1076.7000;0.3997;-0.8676;
1077.0000;0.3989;-0.8676;
1077.3000;0.3972;-0.8626;
1077.6000;0.4005;-0.8528;
1077.9000;0.4005;-0.8478;
1078.2000;0.4005;-0.8503;
1078.5000;0.4013;-0.8404;
1078.8000;0.3997;-0.8577;
1079.1000;0.4013;-0.8626;
1079.4000;0.3997;-0.8676;
1079.7000;0.4037;-0.8676;
1080.0000;0.4013;-0.8651;
1080.3000;0.4021;-0.8602;
1080.6000;0.4013;-0.8651;
1080.9000;0.3997;-0.8799;
1081.2000;0.4021;-0.8626;
1081.5000;0.4005;-0.8626;
1081.8000;0.3989;-0.8626;
1082.1000;0.3980;-0.8700;
1082.4000;0.3989;-0.8651;
1082.7000;0.4013;-0.8676;
1083.0000;0.3980;-0.8700;
1083.3000;0.4005;-0.8774;
1083.6000;0.4005;-0.8897;
1083.9000;0.4021;-0.8873;
1084.2000;0.4013;-0.8848;
1084.5000;0.3989;-0.8873;
1084.8000;0.3997;-0.8848;
1085.1000;0.4013;-0.8848;
1085.4000;0.4021;-0.8873;
1085.7000;0.4029;-0.8897;
1086.0000;0.4013;-0.8897;
1086.3000;0.4005;-0.8873;
1086.6000;0.4005;-0.8947;
1086.9000;0.3989;-0.9021;
1087.2000;0.4062;-0.8749;
1087.5000;0.3948;-0.8971;
1087.8000;0.3989;-0.8848;
1088.1000;0.4013;-0.8725;
1088.4000;0.4013;-0.8774;
1088.7000;0.4037;-0.8700;
1089.0000;0.3989;-0.8676;
1089.3000;0.4021;-0.8749;
1089.6000;0.3989;-0.8799;
1089.9000;0.4021;-0.8774;
1090.2000;0.3980;-0.8897;
1090.5000;0.4054;-0.8676;
1090.8000;0.4005;-0.8700;
1091.1000;0.3997;-0.8725;
1091.4000;0.4021;-0.8725;
1091.7000;0.4070;-0.8700;
1092.0000;0.3956;-0.8922;
1092.3000;0.4029;-0.8700;
1092.6000;0.3907;-0.8996;
1092.9000;0.4013;-0.8676;
1093.2000;0.3956;-0.8873;
1093.5000;0.4094;-0.8528;
1093.8000;0.4037;-0.8725;
1094.1000;0.4029;-0.8676;
1094.4000;0.4029;-0.8774;
1094.7000;0.3989;-0.8823;
1095.0000;0.3972;-0.8799;
1095.3000;0.4021;-0.8626;
1095.6000;0.4013;-0.8676;
1095.9000;0.4005;-0.8749;
1096.2000;0.3980;-0.8725;
1096.5000;0.3989;-0.8799;
1096.8000;0.4062;-0.8700;
1097.1000;0.4005;-0.8823;
1097.4000;0.3980;-0.8922;
1097.7000;0.3980;-0.8897;
1098.0000;0.4021;-0.8774;
1098.3000;0.3997;-0.8823;
1098.6000;0.4013;-0.8848;
1098.9000;0.3997;-0.8774;
1099.2000;0.4013;-0.8749;
1099.5000;0.4029;-0.8799;
1099.8000;0.4013;-0.8897;
1100.1000;0.4013;-0.8749;
1100.4000;0.3989;-0.8848;
1100.7000;0.4021;-0.8873;
1101.0000;0.3997;-0.8897;
1101.3000;0.4005;-0.8922;
1101.6000;0.3997;-0.8971;
1101.9000;0.3989;-0.8947;
1102.2000;0.3997;-0.8947;
1102.5000;0.3956;-0.9045;
1102.8000;0.4005;-0.8922;
1103.1000;0.3980;-0.8947;
1103.4000;0.3948;-0.9168;
1103.7000;0.3997;-0.8947;
1104.0000;0.3989;-0.9021;
1104.3000;0.3989;-0.8947;
1104.6000;0.3989;-0.8897;
1104.9000;0.4013;-0.8922;
1105.2000;0.4029;-0.8823;
1105.5000;0.3972;-0.8897;
1105.8000;0.3997;-0.8823;
1106.1000;0.4021;-0.8749;
1106.4000;0.3980;-0.8848;
1106.7000;0.4005;-0.8823;
1107.0000;0.4005;-0.8897;
1107.3000;0.3972;-0.8922;
1107.6000;0.3997;-0.8897;
1107.9000;0.4037;-0.8897;
1108.2000;0.4021;-0.8774;
1108.5000;0.3980;-0.8848;
1108.8000;0.3980;-0.8774;
1109.1000;0.4029;-0.8725;
1109.4000;0.3989;-0.8823;
1109.7000;0.4013;-0.8873;
1110.0000;0.3972;-0.9045;
1110.3000;0.3980;-0.8996;
1110.6000;0.4029;-0.8848;
1110.9000;0.3989;-0.8823;
1111.2000;0.3980;-0.8922;
1111.5000;0.3997;-0.8922;
1111.8000;0.4005;-0.8996;
1112.1000;0.3989;-0.9070;
1112.4000;0.3972;-0.9119;
1112.7000;0.3972;-0.9021;
1113.0000;0.3932;-0.9193;
1113.3000;0.3997;-0.9045;
1113.6000;0.3997;-0.9070;
1113.9000;0.3989;-0.9045;
1114.2000;0.3980;-0.8922;
1114.5000;0.4037;-0.8799;
1114.8000;0.4013;-0.8823;
1115.1000;0.3997;-0.8799;
1115.4000;0.4021;-0.8873;
1115.7000;0.3997;-0.8947;
1116.0000;0.3932;-0.9119;
1116.3000;0.3980;-0.9021;
1116.6000;0.3964;-0.8971;
1116.9000;0.4005;-0.8848;
1117.2000;0.3989;-0.8947;
1117.5000;0.4013;-0.8922;
1117.8000;0.3980;-0.9021;
1118.1000;0.4005;-0.8971;
1118.4000;0.3980;-0.8947;
1118.7000;0.3980;-0.8971;
1119.0000;0.4005;-0.8897;
1119.3000;0.3997;-0.8922;
1119.6000;0.4013;-0.8823;
1119.9000;0.3980;-0.8897;
1120.2000;0.4005;-0.8823;
1120.5000;0.3980;-0.8897;
1120.8000;0.3997;-0.8947;
1121.1000;0.4021;-0.9021;
1121.4000;0.4005;-0.8971;
1121.7000;0.3989;-0.8996;
1122.0000;0.4005;-0.8971;
1122.3000;0.4013;-0.8922;
1122.6000;0.3989;-0.8996;
1122.9000;0.3989;-0.9021;
1123.2000;0.4005;-0.9070;
1123.5000;0.4005;-0.9144;
1123.8000;0.4029;-0.9070;
1124.1000;0.4005;-0.9021;
1124.4000;0.3997;-0.8947;
1124.7000;0.4013;-0.8947;
1125.0000;0.4029;-0.8922;
1125.3000;0.3989;-0.8996;
1125.6000;0.4013;-0.8873;
1125.9000;0.3980;-0.8996;
1126.2000;0.3989;-0.8922;
1126.5000;0.3972;-0.8947;
1126.8000;0.3997;-0.8947;
1127.1000;0.3989;-0.8947;
1127.4000;0.3997;-0.9045;
1127.7000;0.4037;-0.8897;
1128.0000;0.3980;-0.9045;
1128.3000;0.4021;-0.8947;
1128.6000;0.4046;-0.8947;
1128.9000;0.3989;-0.8947;
1129.2000;0.3989;-0.8922;
1129.5000;0.4021;-0.8823;
1129.8000;0.4005;-0.8922;
1130.1000;0.3997;-0.8947;
1130.4000;0.4021;-0.8848;
1130.7000;0.3997;-0.8947;
1131.0000;0.4021;-0.8897;
1131.3000;0.4005;-0.8996;
1131.6000;0.4005;-0.9021;
1131.9000;0.3989;-0.8996;
1132.2000;0.3980;-0.9021;
1132.5000;0.3956;-0.9070;
1132.8000;0.4005;-0.8996;
1133.1000;0.3940;-0.9095;
1133.4000;0.4013;-0.9021;
1133.7000;0.3989;-0.9045;
1134.0000;0.3980;-0.9021;
1134.3000;0.3997;-0.8922;
1134.6000;0.3989;-0.8947;
1134.9000;0.4013;-0.8897;
1135.2000;0.4005;-0.8947;
1135.5000;0.3997;-0.8947;
1135.8000;0.4013;-0.9045;
1136.1000;0.4013;-0.9045;
1136.4000;0.4029;-0.8996;
1136.7000;0.4005;-0.9021;
1137.0000;0.4029;-0.8897;
1137.3000;0.4070;-0.8749;
1137.6000;0.3989;-0.8922;
1137.9000;0.3989;-0.8922;
1138.2000;0.3989;-0.8996;
1138.5000;0.4005;-0.8996;
1138.8000;0.3997;-0.9021;
1139.1000;0.3989;-0.9095;
1139.4000;0.3997;-0.9070;
1139.7000;0.3980;-0.9144;
1140.0000;0.4021;-0.9119;
1140.3000;0.4013;-0.9119;
1140.6000;0.4013;-0.9095;
1140.9000;0.3997;-0.9168;
1141.2000;0.3989;-0.9119;
1141.5000;0.4021;-0.9095;
1141.8000;0.3997;-0.9119;
1142.1000;0.3980;-0.9193;
1142.4000;0.4013;-0.9242;
1142.7000;0.3989;-0.9316;
1143.0000;0.4013;-0.9218;
1143.3000;0.3989;-0.9242;
1143.6000;0.3997;-0.9218;
1143.9000;0.3997;-0.9193;
1144.2000;0.3980;-0.9193;
1144.5000;0.3989;-0.9267;
1144.8000;0.3972;-0.9267;
1145.1000;0.4005;-0.9070;
1145.4000;0.4021;-0.9070;
1145.7000;0.4005;-0.9119;
1146.0000;0.3989;-0.9045;
1146.3000;0.4021;-0.8947;
1146.6000;0.4005;-0.8873;
1146.9000;0.3997;-0.8947;
1147.2000;0.3997;-0.8947;
1147.5000;0.4013;-0.8922;
1147.8000;0.4005;-0.8799;
1148.1000;0.3980;-0.8922;
1148.4000;0.3997;-0.8922;
1148.7000;0.4005;-0.8897;
1149.0000;0.3997;-0.8873;
1149.3000;0.4013;-0.8897;
1149.6000;0.3980;-0.8971;
1149.9000;0.4005;-0.8922;
1150.2000;0.4005;-0.8897;
1150.5000;0.4013;-0.8848;
1150.8000;0.3980;-0.8848;
1151.1000;0.3989;-0.8922;
1151.4000;0.4013;-0.8971;
1151.7000;0.3997;-0.8971;
1152.0000;0.3997;-0.8922;
1152.3000;0.3980;-0.8971;
1152.6000;0.4005;-0.8897;
1152.9000;0.4013;-0.8897;
1153.2000;0.4021;-0.8897;
1153.5000;0.4046;-0.8873;
1153.8000;0.4005;-0.9021;
1154.1000;0.4005;-0.8971;
1154.4000;0.3964;-0.9070;
1154.7000;0.4013;-0.9021;
1155.0000;0.4005;-0.9095;
1155.3000;0.4005;-0.9045;
1155.6000;0.4029;-0.8922;
1155.9000;0.4021;-0.9021;
1156.2000;0.4013;-0.9045;
1156.5000;0.4013;-0.9021;
1156.8000;0.4013;-0.9144;
1157.1000;0.3997;-0.9242;
1157.4000;0.4021;-0.9119;
1157.7000;0.4021;-0.9144;
1158.0000;0.3997;-0.9218;
1158.3000;0.3997;-0.9218;
1158.6000;0.3989;-0.9218;
1158.9000;0.4005;-0.9095;
1159.2000;0.3923;-0.9218;
1159.5000;0.3997;-0.9070;
1159.8000;0.4005;-0.9070;
1160.1000;0.3980;-0.9168;
1160.4000;0.3997;-0.9168;
1160.7000;0.4013;-0.9119;
1161.0000;0.4005;-0.9242;
1161.3000;0.3940;-0.9366;
1161.6000;0.4005;-0.9095;
1161.9000;0.3972;-0.9168;
1162.2000;0.3997;-0.9267;
1162.5000;0.3989;-0.9292;
1162.8000;0.4005;-0.9168;
1163.1000;0.4021;-0.9095;
1163.4000;0.3997;-0.9021;
1163.7000;0.3915;-0.9144;
1164.0000;0.3989;-0.8971;
1164.3000;0.4005;-0.8848;
1164.6000;0.3997;-0.8971;
1164.9000;0.4013;-0.9021;
1165.2000;0.3997;-0.9119;
1165.5000;0.4021;-0.9021;
1165.8000;0.4005;-0.8996;
1166.1000;0.3997;-0.8971;
1166.4000;0.4029;-0.8799;
1166.7000;0.3989;-0.8873;
1167.0000;0.3989;-0.8873;
1167.3000;0.3989;-0.9045;
1167.6000;0.3989;-0.9119;
1167.9000;0.3997;-0.9070;
1168.2000;0.4005;-0.9021;
1168.5000;0.3997;-0.9095;
1168.8000;0.3989;-0.9045;
1169.1000;0.3997;-0.8971;
1169.4000;0.4046;-0.8873;
1169.7000;0.3997;-0.8971;
1170.0000;0.4037;-0.8897;
1170.3000;0.4062;-0.8749;
1170.6000;0.4005;-0.8897;
1170.9000;0.3980;-0.9021;
1171.2000;0.3980;-0.9070;
1171.5000;0.3989;-0.9045;
1171.8000;0.4029;-0.8947;
1172.1000;0.3997;-0.9045;
1172.4000;0.4005;-0.9021;
1172.7000;0.3972;-0.9095;
1173.0000;0.3989;-0.9095;
1173.3000;0.3989;-0.9144;
1173.6000;0.3989;-0.9193;
1173.9000;0.3989;-0.9218;
1174.2000;0.3989;-0.9193;
1174.5000;0.4005;-0.8971;
1174.8000;0.3980;-0.8897;
1175.1000;0.3980;-0.8897;
1175.4000;0.3989;-0.8996;
1175.7000;0.3997;-0.9095;
1176.0000;0.3980;-0.9045;
1176.3000;0.4021;-0.9045;
1176.6000;0.3989;-0.9095;
1176.9000;0.3964;-0.9119;
1177.2000;0.4037;-0.8947;
1177.5000;0.4021;-0.9021;
1177.8000;0.3997;-0.9095;
1178.1000;0.3997;-0.9045;
1178.4000;0.4021;-0.8996;
1178.7000;0.3997;-0.9095;
1179.0000;0.3997;-0.9095;
1179.3000;0.3980;-0.9045;
1179.6000;0.3997;-0.9021;
1179.9000;0.3972;-0.9070;
1180.2000;0.3997;-0.9095;
1180.5000;0.3989;-0.9193;
1180.8000;0.3997;-0.9218;
1181.1000;0.3997;-0.9144;
1181.4000;0.3989;-0.9070;
1181.7000;0.4005;-0.9045;
1182.0000;0.3989;-0.9045;
1182.3000;0.4005;-0.8996;
1182.6000;0.4013;-0.9045;
1182.9000;0.3989;-0.9070;
1183.2000;0.3964;-0.9168;
1183.5000;0.4005;-0.8996;
1183.8000;0.4013;-0.8971;
1184.1000;0.4078;-0.8774;
1184.4000;0.3980;-0.8971;
1184.7000;0.3940;-0.9095;
1185.0000;0.4005;-0.8873;
1185.3000;0.3940;-0.8971;
1185.6000;0.3891;-0.9021;
1185.9000;0.3997;-0.8774;
1186.2000;0.4062;-0.8602;
1186.5000;0.3907;-0.8996;
1186.8000;0.3980;-0.8774;
1187.1000;0.4046;-0.8626;
1187.4000;0.3997;-0.8799;
1187.7000;0.3899;-0.9095;
1188.0000;0.3989;-0.8897;
1188.3000;0.3980;-0.8947;
1188.6000;0.4013;-0.8823;
1188.9000;0.4005;-0.8799;
1189.2000;0.4005;-0.8799;
1189.5000;0.3989;-0.8725;
1189.8000;0.3997;-0.8676;
1190.1000;0.3980;-0.8774;
1190.4000;0.3980;-0.8799;
1190.7000;0.3997;-0.8848;
1191.0000;0.4013;-0.8873;
1191.3000;0.4070;-0.8749;
1191.6000;0.3997;-0.8922;
1191.9000;0.3989;-0.8873;
1192.2000;0.3997;-0.8848;
1192.5000;0.4021;-0.8873;
1192.8000;0.4005;-0.8922;
1193.1000;0.3997;-0.8848;
1193.4000;0.4037;-0.8676;
1193.7000;0.4013;-0.8725;
1194.0000;0.4005;-0.8799;
1194.3000;0.3980;-0.8873;
1194.6000;0.3997;-0.8799;
1194.9000;0.4013;-0.8676;
1195.2000;0.4013;-0.8676;
1195.5000;0.3964;-0.8725;
1195.8000;0.3956;-0.8725;
1196.1000;0.3989;-0.8676;
1196.4000;0.3989;-0.8799;
1196.7000;0.3972;-0.8823;
1197.0000;0.3989;-0.8823;
1197.3000;0.3980;-0.8799;
1197.6000;0.4013;-0.8700;
1197.9000;0.4005;-0.8749;
1198.2000;0.4013;-0.8799;
1198.5000;0.4005;-0.8774;
1198.8000;0.4005;-0.8823;
1199.1000;0.4029;-0.8848;
1199.4000;0.3964;-0.8996;
1199.7000;0.3989;-0.8947;
1200.0000;0.3989;-0.8947;
1200.3000;0.3997;-0.8873;
1200.6000;0.4021;-0.8823;
1200.9000;0.4005;-0.8799;
1201.2000;0.3915;-0.9021;
1201.5000;0.4021;-0.8823;
1201.8000;0.4005;-0.8947;
1202.1000;0.3997;-0.8947;
1202.4000;0.4029;-0.8799;
1202.7000;0.4013;-0.8823;
1203.0000;0.4054;-0.8749;
1203.3000;0.4005;-0.8799;
1203.6000;0.3997;-0.8848;
1203.9000;0.3989;-0.8848;
1204.2000;0.4037;-0.8799;
1204.5000;0.4021;-0.8823;
1204.8000;0.4013;-0.8774;
1205.1000;0.4029;-0.8626;
1205.4000;0.3980;-0.8749;
1205.7000;0.3972;-0.8799;
1206.0000;0.3891;-0.9045;
1206.3000;0.3989;-0.8799;
1206.6000;0.3948;-0.8971;
1206.9000;0.3980;-0.8873;
1207.2000;0.4029;-0.8799;
1207.5000;0.3997;-0.8873;
1207.8000;0.3997;-0.8848;
1208.1000;0.4029;-0.8700;
1208.4000;0.3989;-0.8848;
1208.7000;0.3964;-0.8873;
1209.0000;0.3956;-0.8873;
1209.3000;0.4054;-0.8552;
1209.6000;0.3923;-0.8823;
1209.9000;0.4021;-0.8676;
1210.2000;0.4005;-0.8651;
1210.5000;0.3980;-0.8823;
1210.8000;0.3997;-0.8799;
1211.1000;0.3997;-0.8823;
1211.4000;0.3989;-0.8774;
1211.7000;0.3997;-0.8749;
1212.0000;0.3980;-0.8873;
1212.3000;0.4005;-0.8823;
1212.6000;0.4021;-0.8799;
1212.9000;0.4013;-0.8823;
1213.2000;0.4013;-0.8799;
1213.5000;0.3989;-0.8897;
1213.8000;0.4021;-0.8922;
1214.1000;0.3997;-0.8996;
1214.4000;0.4013;-0.9095;
1214.7000;0.3997;-0.9193;
1215.0000;0.3997;-0.9144;
1215.3000;0.3989;-0.9095;
1215.6000;0.4005;-0.8996;
1215.9000;0.3989;-0.8947;
1216.2000;0.3989;-0.8897;
1216.5000;0.3997;-0.8873;
1216.8000;0.4005;-0.8897;
1217.1000;0.3989;-0.8873;
1217.4000;0.4054;-0.8626;
1217.7000;0.3972;-0.8799;
1218.0000;0.4013;-0.8799;
1218.3000;0.4005;-0.8823;
1218.6000;0.3997;-0.8774;
1218.9000;0.3964;-0.8823;
1219.2000;0.4005;-0.8676;
1219.5000;0.3923;-0.8922;
1219.8000;0.3980;-0.8848;
1220.1000;0.3989;-0.8823;
1220.4000;0.3997;-0.8749;
1220.7000;0.3997;-0.8799;
1221.0000;0.3964;-0.8922;
1221.3000;0.3964;-0.8947;
1221.6000;0.3980;-0.8848;
1221.9000;0.3989;-0.8848;
1222.2000;0.3997;-0.8897;
1222.5000;0.3989;-0.8897;
1222.8000;0.4021;-0.8774;
1223.1000;0.3997;-0.8848;
1223.4000;0.3989;-0.8971;
1223.7000;0.3980;-0.8947;
1224.0000;0.3989;-0.8947;
1224.3000;0.4005;-0.8971;
1224.6000;0.3989;-0.8996;
1224.9000;0.4013;-0.8947;
1225.2000;0.3972;-0.8947;
1225.5000;0.3997;-0.8823;
1225.8000;0.3997;-0.8799;
1226.1000;0.4005;-0.8676;
1226.4000;0.3972;-0.8774;
1226.7000;0.4013;-0.8799;
1227.0000;0.3972;-0.8823;
1227.3000;0.3940;-0.8848;
1227.6000;0.3980;-0.8749;
1227.9000;0.4013;-0.8626;
1228.2000;0.3964;-0.8725;
1228.5000;0.3997;-0.8676;
1228.8000;0.4005;-0.8799;
1229.1000;0.3907;-0.9045;
1229.4000;0.3989;-0.8848;
1229.7000;0.3997;-0.8799;
1230.0000;0.3923;-0.8873;
1230.3000;0.3980;-0.8725;
1230.6000;0.3980;-0.8725;
1230.9000;0.3989;-0.8774;
1231.2000;0.3980;-0.8799;
1231.5000;0.3980;-0.8774;
1231.8000;0.4005;-0.8774;
1232.1000;0.3997;-0.8848;
1232.4000;0.3980;-0.8823;
1232.7000;0.3980;-0.8848;
1233.0000;0.3997;-0.8823;
1233.3000;0.4005;-0.8799;
1233.6000;0.3989;-0.8774;
1233.9000;0.3989;-0.8749;
1234.2000;0.3989;-0.8799;
1234.5000;0.3989;-0.8725;
1234.8000;0.4005;-0.8774;
1235.1000;0.3989;-0.8774;
1235.4000;0.4062;-0.8700;
1235.7000;0.4013;-0.8873;
1236.0000;0.3980;-0.8848;
1236.3000;0.4005;-0.8823;
1236.6000;0.4021;-0.8774;
1236.9000;0.3989;-0.8848;
1237.2000;0.4013;-0.8799;
1237.5000;0.3997;-0.8799;
1237.8000;0.3997;-0.8799;
1238.1000;0.4013;-0.8626;
1238.4000;0.4013;-0.8552;
1238.7000;0.4005;-0.8577;
1239.0000;0.4021;-0.8552;
1239.3000;0.3989;-0.8651;
1239.6000;0.3997;-0.8577;
1239.9000;0.3997;-0.8602;
1240.2000;0.4029;-0.8552;
1240.5000;0.3980;-0.8552;
1240.8000;0.3989;-0.8577;
1241.1000;0.3972;-0.8577;
1241.4000;0.4005;-0.8552;
1241.7000;0.4021;-0.8503;
1242.0000;0.3989;-0.8552;
1242.3000;0.4005;-0.8503;
1242.6000;0.3956;-0.8577;
1242.9000;0.3989;-0.8577;
1243.2000;0.3989;-0.8602;
1243.5000;0.3989;-0.8528;
1243.8000;0.4005;-0.8528;
1244.1000;0.4005;-0.8577;
1244.4000;0.3989;-0.8626;
1244.7000;0.4005;-0.8577;
1245.0000;0.3989;-0.8651;
1245.3000;0.3932;-0.8848;
1245.6000;0.3964;-0.8725;
1245.9000;0.3997;-0.8626;
1246.2000;0.3956;-0.8700;
1246.5000;0.3997;-0.8626;
1246.8000;0.3989;-0.8651;
1247.1000;0.3980;-0.8651;
1247.4000;0.3997;-0.8626;
1247.7000;0.3989;-0.8676;
1248.0000;0.4021;-0.8602;
1248.3000;0.3997;-0.8749;
1248.6000;0.3948;-0.8799;
1248.9000;0.3997;-0.8676;
1249.2000;0.3989;-0.8651;
1249.5000;0.4021;-0.8577;
1249.8000;0.4021;-0.8626;
1250.1000;0.4013;-0.8676;
1250.4000;0.3989;-0.8676;
1250.7000;0.3989;-0.8774;
1251.0000;0.3989;-0.8725;
1251.3000;0.3956;-0.8873;
1251.6000;0.3997;-0.8749;
1251.9000;0.3997;-0.8749;
1252.2000;0.3980;-0.8774;
1252.5000;0.3989;-0.8799;
1252.8000;0.3980;-0.8799;
1253.1000;0.3980;-0.8823;
1253.4000;0.3956;-0.8799;
1253.7000;0.3980;-0.8823;
1254.0000;0.3972;-0.8922;
1254.3000;0.3980;-0.8897;
1254.6000;0.3972;-0.8873;
1254.9000;0.3972;-0.8799;
1255.2000;0.4029;-0.8626;
1255.5000;0.4021;-0.8602;
1255.8000;0.3964;-0.8725;
1256.1000;0.4005;-0.8799;
1256.4000;0.4013;-0.8823;
1256.7000;0.3989;-0.8848;
1257.0000;0.3964;-0.8799;
1257.3000;0.3997;-0.8749;
1257.6000;0.3989;-0.8799;
1257.9000;0.3997;-0.8873;
1258.2000;0.3989;-0.8922;
1258.5000;0.3972;-0.8873;
1258.8000;0.4029;-0.8774;
1259.1000;0.3997;-0.8922;
1259.4000;0.4013;-0.8996;
1259.7000;0.4005;-0.8971;
1260.0000;0.4021;-0.8848;
1260.3000;0.4021;-0.8873;
1260.6000;0.4013;-0.8996;
1260.9000;0.4005;-0.8848;
1261.2000;0.4013;-0.8749;
1261.5000;0.4037;-0.8676;
1261.8000;0.3997;-0.8774;
1262.1000;0.4005;-0.8700;
1262.4000;0.4037;-0.8577;
1262.7000;0.4005;-0.8577;
1263.0000;0.3989;-0.8700;
1263.3000;0.3980;-0.8774;
1263.6000;0.3997;-0.8774;
1263.9000;0.3997;-0.8823;
1264.2000;0.4013;-0.8749;
1264.5000;0.3997;-0.8725;
1264.8000;0.4005;-0.8626;
1265.1000;0.3997;-0.8651;
1265.4000;0.4013;-0.8651;
1265.7000;0.4005;-0.8700;
1266.0000;0.4013;-0.8676;
1266.3000;0.4005;-0.8774;
1266.6000;0.3980;-0.8823;
1266.9000;0.3980;-0.8823;
1267.2000;0.3980;-0.8897;
1267.5000;0.3989;-0.8873;
1267.8000;0.4062;-0.8774;
1268.1000;0.3997;-0.8799;
1268.4000;0.3989;-0.8799;
1268.7000;0.3972;-0.8799;
1269.0000;0.4021;-0.8626;
1269.3000;0.3989;-0.8700;
1269.6000;0.3997;-0.8749;
1269.9000;0.3989;-0.8774;
1270.2000;0.3972;-0.8848;
1270.5000;0.3989;-0.8823;
1270.8000;0.3997;-0.8774;
1271.1000;0.3980;-0.8774;
1271.4000;0.3980;-0.8725;
1271.7000;0.4013;-0.8725;
1272.0000;0.4005;-0.8725;
1272.3000;0.4046;-0.8725;
1272.6000;0.4005;-0.8700;
1272.9000;0.4005;-0.8651;
1273.2000;0.3997;-0.8651;
1273.5000;0.3980;-0.8676;
1273.8000;0.3980;-0.8799;
1274.1000;0.3972;-0.8749;
1274.4000;0.3980;-0.8700;
1274.7000;0.3997;-0.8602;
1275.0000;0.3956;-0.8700;
1275.3000;0.4021;-0.8626;
1275.6000;0.4005;-0.8676;
1275.9000;0.3980;-0.8700;
1276.2000;0.3989;-0.8725;
1276.5000;0.3972;-0.8774;
1276.8000;0.3891;-0.8897;
1277.1000;0.3989;-0.8651;
1277.4000;0.3989;-0.8676;
1277.7000;0.3980;-0.8774;
1278.0000;0.3997;-0.8700;
1278.3000;0.3980;-0.8676;
1278.6000;0.3980;-0.8651;
1278.9000;0.3989;-0.8676;
1279.2000;0.4005;-0.8725;
1279.5000;0.3997;-0.8848;
1279.8000;0.4005;-0.8873;
1280.1000;0.3989;-0.8922;
1280.4000;0.3980;-0.8897;
1280.7000;0.3989;-0.8922;
1281.0000;0.3923;-0.9119;
1281.3000;0.3989;-0.8897;
1281.6000;0.4005;-0.8922;
1281.9000;0.3997;-0.8897;
1282.2000;0.3989;-0.8947;
1282.5000;0.3989;-0.8922;
1282.8000;0.3989;-0.8897;
1283.1000;0.4013;-0.8873;
1283.4000;0.4046;-0.8823;
1283.7000;0.3989;-0.8897;
1284.0000;0.4005;-0.8873;
1284.3000;0.4013;-0.8799;
1284.6000;0.3997;-0.8823;
1284.9000;0.3997;-0.8799;
1285.2000;0.4005;-0.8848;
1285.5000;0.4046;-0.8700;
1285.8000;0.4021;-0.8799;
1286.1000;0.4013;-0.8823;
1286.4000;0.3997;-0.8823;
1286.7000;0.4029;-0.8774;
1287.0000;0.3980;-0.8873;
1287.3000;0.3989;-0.8799;
1287.6000;0.3997;-0.8799;
1287.9000;0.3989;-0.8922;
1288.2000;0.4005;-0.8996;
1288.5000;0.4021;-0.8922;
1288.8000;0.3972;-0.9045;
1289.1000;0.3989;-0.8996;
1289.4000;0.4021;-0.8947;
1289.7000;0.4013;-0.9021;
1290.0000;0.4005;-0.9021;
1290.3000;0.3964;-0.8947;
1290.6000;0.3997;-0.8971;
1290.9000;0.4005;-0.8922;
1291.2000;0.4021;-0.8922;
1291.5000;0.3997;-0.8947;
1291.8000;0.3997;-0.8971;
1292.1000;0.4005;-0.9021;
1292.4000;0.3997;-0.9045;
1292.7000;0.3989;-0.9021;
1293.0000;0.3972;-0.9119;
1293.3000;0.4029;-0.8971;
1293.6000;0.3989;-0.9021;
1293.9000;0.4013;-0.8971;
1294.2000;0.3972;-0.9070;
1294.5000;0.4005;-0.8996;
1294.8000;0.3989;-0.9045;
1295.1000;0.4021;-0.8971;
1295.4000;0.4005;-0.8922;
1295.7000;0.4013;-0.8848;
1296.0000;0.4037;-0.8774;
1296.3000;0.4005;-0.8873;
1296.6000;0.3997;-0.8725;
1296.9000;0.4013;-0.8676;
1297.2000;0.3997;-0.8725;
1297.5000;0.3989;-0.8799;
1297.8000;0.3989;-0.8848;
1298.1000;0.3932;-0.8996;
1298.4000;0.4005;-0.8922;
1298.7000;0.3980;-0.8947;
1299.0000;0.3964;-0.8848;
1299.3000;0.3997;-0.8799;
1299.6000;0.4005;-0.8897;
1299.9000;0.4021;-0.8897;
1300.2000;0.4005;-0.8897;
1300.5000;0.3989;-0.8873;
1300.8000;0.4013;-0.8873;
1301.1000;0.3997;-0.8922;
1301.4000;0.4037;-0.8897;
1301.7000;0.3989;-0.8996;
1302.0000;0.3956;-0.9021;
1302.3000;0.3956;-0.9021;
1302.6000;0.4013;-0.8922;
1302.9000;0.3972;-0.8996;
1303.2000;0.3997;-0.8897;
1303.5000;0.3956;-0.8996;
1303.8000;0.3964;-0.8897;
1304.1000;0.3972;-0.8922;
1304.4000;0.3972;-0.8996;
1304.7000;0.4021;-0.8971;
1305.0000;0.4013;-0.8947;
1305.3000;0.3989;-0.8947;
1305.6000;0.3980;-0.8947;
1305.9000;0.4013;-0.8848;
1306.2000;0.4005;-0.8897;
1306.5000;0.3997;-0.8947;
1306.8000;0.4005;-0.8922;
1307.1000;0.3972;-0.9070;
1307.4000;0.3997;-0.8971;
1307.7000;0.3997;-0.8922;
1308.0000;0.3972;-0.8971;
1308.3000;0.3989;-0.8971;
1308.6000;0.3964;-0.8971;
1308.9000;0.3989;-0.8873;
1309.2000;0.4013;-0.8873;
1309.5000;0.3932;-0.8996;
1309.8000;0.3980;-0.8848;
1310.1000;0.3964;-0.8897;
1310.4000;0.3980;-0.8897;
1310.7000;0.3948;-0.8996;
1311.0000;0.4037;-0.8823;
1311.3000;0.4005;-0.8971;
1311.6000;0.4013;-0.9021;
1311.9000;0.3989;-0.8996;
1312.2000;0.4046;-0.8922;
1312.5000;0.4013;-0.8922;
1312.8000;0.4029;-0.8922;
1313.1000;0.3997;-0.9021;
1313.4000;0.3980;-0.9021;
1313.7000;0.3989;-0.8897;
1314.0000;0.4013;-0.8799;
1314.3000;0.3997;-0.8823;
1314.6000;0.3997;-0.8897;
1314.9000;0.4005;-0.8823;
1315.2000;0.3989;-0.8799;
1315.5000;0.3989;-0.8799;
1315.8000;0.3980;-0.8799;
1316.1000;0.4037;-0.8725;
1316.4000;0.4005;-0.8823;
1316.7000;0.3989;-0.8799;
1317.0000;0.4013;-0.8676;
1317.3000;0.4005;-0.8823;
1317.6000;0.4054;-0.8725;
1317.9000;0.3989;-0.8922;
1318.2000;0.3980;-0.8922;
1318.5000;0.4054;-0.8725;
1318.8000;0.3997;-0.8873;
1319.1000;0.3997;-0.8848;
1319.4000;0.3989;-0.8873;
1319.7000;0.3972;-0.8848;
1320.0000;0.3997;-0.8823;
1320.3000;0.4005;-0.8799;
1320.6000;0.4013;-0.8873;
1320.9000;0.3997;-0.8897;
1321.2000;0.4005;-0.8873;
1321.5000;0.4021;-0.8922;
1321.8000;0.3997;-0.8996;
1322.1000;0.3989;-0.8922;
1322.4000;0.3964;-0.8897;
1322.7000;0.3980;-0.8848;
1323.0000;0.3989;-0.8873;
1323.3000;0.3989;-0.8971;
1323.6000;0.3989;-0.8848;
1323.9000;0.3980;-0.8897;
1324.2000;0.3997;-0.8799;
1324.5000;0.3980;-0.8947;
1324.8000;0.4005;-0.8799;
1325.1000;0.3980;-0.8848;
1325.4000;0.3948;-0.8922;
1325.7000;0.3989;-0.8897;
1326.0000;0.3980;-0.8873;
1326.3000;0.3899;-0.9095;
1326.6000;0.3989;-0.8947;
1326.9000;0.3997;-0.8922;
1327.2000;0.3989;-0.8947;
1327.5000;0.4037;-0.8749;
1327.8000;0.3891;-0.8996;
1328.1000;0.3980;-0.8749;
1328.4000;0.4005;-0.8799;
1328.7000;0.3989;-0.8774;
1329.0000;0.4005;-0.8848;
1329.3000;0.4005;-0.8873;
1329.6000;0.3997;-0.8897;
1329.9000;0.4005;-0.8873;
1330.2000;0.3989;-0.8897;
1330.5000;0.4005;-0.8922;
1330.8000;0.3989;-0.8922;
1331.1000;0.3972;-0.8971;
1331.4000;0.3980;-0.9045;
1331.7000;0.3989;-0.9095;
1332.0000;0.4005;-0.9021;
1332.3000;0.3989;-0.9045;
1332.6000;0.3997;-0.9021;
1332.9000;0.3980;-0.9021;
1333.2000;0.4005;-0.8971;
1333.5000;0.3989;-0.8922;
1333.8000;0.3989;-0.8897;
1334.1000;0.3956;-0.8922;
1334.4000;0.3980;-0.8873;
1334.7000;0.4021;-0.8749;
1335.0000;0.3989;-0.8749;
1335.3000;0.3997;-0.8676;
1335.6000;0.4005;-0.8725;
1335.9000;0.4013;-0.8774;
1336.2000;0.4086;-0.8626;
1336.5000;0.3997;-0.8799;
1336.8000;0.3997;-0.8823;
1337.1000;0.4005;-0.8848;
1337.4000;0.3956;-0.8897;
1337.7000;0.3989;-0.8799;
1338.0000;0.4094;-0.8528;
1338.3000;0.4013;-0.8700;
1338.6000;0.3972;-0.8823;
1338.9000;0.3989;-0.8799;
1339.2000;0.3997;-0.8823;
1339.5000;0.4005;-0.8700;
1339.8000;0.3980;-0.8725;
1340.1000;0.4046;-0.8651;
1340.4000;0.3972;-0.8873;
1340.7000;0.4013;-0.8823;
1341.0000;0.3997;-0.8848;
1341.3000;0.3923;-0.9021;
1341.6000;0.4005;-0.8897;
1341.9000;0.4005;-0.8873;
1342.2000;0.3997;-0.8971;
1342.5000;0.4021;-0.8922;
1342.8000;0.4013;-0.8897;
1343.1000;0.3989;-0.8947;
1343.4000;0.4029;-0.8897;
1343.7000;0.3989;-0.8873;
1344.0000;0.3980;-0.8922;
1344.3000;0.4005;-0.8848;
1344.6000;0.4005;-0.8897;
1344.9000;0.3972;-0.8947;
1345.2000;0.3980;-0.8947;
1345.5000;0.4013;-0.8848;
1345.8000;0.3989;-0.8799;
1346.1000;0.3980;-0.8774;
1346.4000;0.3964;-0.8774;
1346.7000;0.3989;-0.8774;
1347.0000;0.4005;-0.8774;
1347.3000;0.4029;-0.8651;
1347.6000;0.3997;-0.8848;
1347.9000;0.3989;-0.8873;
1348.2000;0.3997;-0.8823;
1348.5000;0.3980;-0.8873;
1348.8000;0.3997;-0.8774;
1349.1000;0.4021;-0.8700;
1349.4000;0.4005;-0.8651;
1349.7000;0.4029;-0.8626;
1350.0000;0.3989;-0.8774;
1350.3000;0.3989;-0.8700;
1350.6000;0.3989;-0.8700;
1350.9000;0.4013;-0.8676;
1351.2000;0.3923;-0.8873;
1351.5000;0.3989;-0.8823;
1351.8000;0.3997;-0.8848;
1352.1000;0.4013;-0.8922;
1352.4000;0.4005;-0.8947;
1352.7000;0.4103;-0.8676;
1353.0000;0.4013;-0.8922;
1353.3000;0.4013;-0.8971;
1353.6000;0.4005;-0.9045;
1353.9000;0.3980;-0.9095;
1354.2000;0.3989;-0.9045;
1354.5000;0.3907;-0.9218;
1354.8000;0.4005;-0.8947;
1355.1000;0.4046;-0.8873;
1355.4000;0.4021;-0.8922;
1355.7000;0.3997;-0.8971;
1356.0000;0.3997;-0.8897;
1356.3000;0.4005;-0.8897;
1356.6000;0.3997;-0.8897;
1356.9000;0.4013;-0.8873;
1357.2000;0.4029;-0.8823;
1357.5000;0.4005;-0.8848;
1357.8000;0.4013;-0.8823;
1358.1000;0.3980;-0.8897;
1358.4000;0.4005;-0.8848;
1358.7000;0.4021;-0.8848;
1359.0000;0.3997;-0.8873;
1359.3000;0.4005;-0.8749;
1359.6000;0.3891;-0.9021;
1359.9000;0.3980;-0.8823;
1360.2000;0.3948;-0.8947;
1360.5000;0.4005;-0.8799;
1360.8000;0.3989;-0.8848;
1361.1000;0.3867;-0.9095;
1361.4000;0.3940;-0.8873;
1361.7000;0.4005;-0.8700;
1362.0000;0.3997;-0.8749;
1362.3000;0.4013;-0.8774;
1362.6000;0.4054;-0.8799;
1362.9000;0.4013;-0.8947;
1363.2000;0.4005;-0.8971;
1363.5000;0.4005;-0.8897;
1363.8000;0.4005;-0.8873;
1364.1000;0.4005;-0.8922;
1364.4000;0.4013;-0.8799;
1364.7000;0.4029;-0.8749;
1365.0000;0.4005;-0.8799;
1365.3000;0.3997;-0.8749;
1365.6000;0.3980;-0.8799;
1365.9000;0.4005;-0.8799;
1366.2000;0.3997;-0.8774;
1366.5000;0.3997;-0.8799;
1366.8000;0.3964;-0.8749;
1367.1000;0.3997;-0.8676;
1367.4000;0.4013;-0.8626;
1367.7000;0.3989;-0.8626;
1368.0000;0.4005;-0.8626;
1368.3000;0.3989;-0.8700;
1368.6000;0.3980;-0.8749;
1368.9000;0.3989;-0.8700;
1369.2000;0.4005;-0.8602;
1369.5000;0.3980;-0.8626;
1369.8000;0.3989;-0.8626;
1370.1000;0.3989;-0.8651;
1370.4000;0.4054;-0.8552;
1370.7000;0.4013;-0.8725;
1371.0000;0.3989;-0.8725;
1371.3000;0.4029;-0.8725;
1371.6000;0.3964;-0.8897;
1371.9000;0.3989;-0.8823;
1372.2000;0.3997;-0.8848;
1372.5000;0.3989;-0.8922;
1372.8000;0.3980;-0.8848;
1373.1000;0.3980;-0.8897;
1373.4000;0.3980;-0.8971;
1373.7000;0.3972;-0.8922;
1374.0000;0.3997;-0.8947;
1374.3000;0.4046;-0.8799;
1374.6000;0.3997;-0.8922;
1374.9000;0.3997;-0.8996;
1375.2000;0.3997;-0.8996;
1375.5000;0.3989;-0.8947;
1375.8000;0.3989;-0.8922;
1376.1000;0.4005;-0.8922;
1376.4000;0.3997;-0.8971;
1376.7000;0.3980;-0.8947;
1377.0000;0.3997;-0.9021;
1377.3000;0.3997;-0.8922;
1377.6000;0.4005;-0.8897;
1377.9000;0.3964;-0.8922;
1378.2000;0.3964;-0.8897;
1378.5000;0.3972;-0.8897;
1378.8000;0.3997;-0.8848;
1379.1000;0.4005;-0.8897;
1379.4000;0.4005;-0.8848;
1379.7000;0.3980;-0.8799;
1380.0000;0.3989;-0.8774;
1380.3000;0.4013;-0.8749;
1380.6000;0.4005;-0.8848;
1380.9000;0.3989;-0.8996;
1381.2000;0.3956;-0.9070;
1381.5000;0.3997;-0.9021;
1381.8000;0.4021;-0.8971;
1382.1000;0.4013;-0.8922;
1382.4000;0.3972;-0.8971;
1382.7000;0.3956;-0.8996;
1383.0000;0.3989;-0.8996;
1383.3000;0.3972;-0.8922;
1383.6000;0.4013;-0.8823;
1383.9000;0.4013;-0.8922;
1384.2000;0.4013;-0.8799;
1384.5000;0.3980;-0.8897;
1384.8000;0.3997;-0.8922;
1385.1000;0.4005;-0.8873;
1385.4000;0.4005;-0.8873;
1385.7000;0.3989;-0.8823;
1386.0000;0.4046;-0.8700;
1386.3000;0.3964;-0.8897;
1386.6000;0.3972;-0.8922;
1386.9000;0.4021;-0.8897;
1387.2000;0.3972;-0.9070;
1387.5000;0.3989;-0.8922;
1387.8000;0.4005;-0.8897;
1388.1000;0.3997;-0.8947;
1388.4000;0.3964;-0.8971;
1388.7000;0.4013;-0.8897;
1389.0000;0.3956;-0.8971;
1389.3000;0.3980;-0.8897;
1389.6000;0.3980;-0.8897;
1389.9000;0.3980;-0.8897;
1390.2000;0.3997;-0.8848;
1390.5000;0.3997;-0.8823;
1390.8000;0.3964;-0.8897;
1391.1000;0.4021;-0.8749;
1391.4000;0.3989;-0.8823;
1391.7000;0.4005;-0.8799;
1392.0000;0.3997;-0.8749;
1392.3000;0.3932;-0.8947;
1392.6000;0.3956;-0.8848;
1392.9000;0.3997;-0.8799;
1393.2000;0.4037;-0.8700;
1393.5000;0.4078;-0.8478;
1393.8000;0.3989;-0.8749;
1394.1000;0.4037;-0.8651;
1394.4000;0.3989;-0.8725;
1394.7000;0.3989;-0.8799;
1395.0000;0.3997;-0.8873;
1395.3000;0.3997;-0.8873;
1395.6000;0.3956;-0.8947;
1395.9000;0.3997;-0.8848;
1396.2000;0.3948;-0.8947;
1396.5000;0.4005;-0.8848;
1396.8000;0.3980;-0.8897;
1397.1000;0.3940;-0.8947;
1397.4000;0.3964;-0.8873;
1397.7000;0.3997;-0.8799;
1398.0000;0.4013;-0.8848;
1398.3000;0.4021;-0.8799;
1398.6000;0.3997;-0.8947;
1398.9000;0.3997;-0.8922;
1399.2000;0.4005;-0.8922;
1399.5000;0.4013;-0.8848;
1399.8000;0.4005;-0.8848;
