time/ms;Fluo/V;P700 deltaI/I x10³;
-199.8000;0.4127;0.0272;
-199.5000;0.4127;0.0223;
-199.2000;0.4184;0.0322;
-198.9000;0.4151;0.0322;
-198.6000;0.4119;0.0297;
-198.3000;0.4119;0.0248;
-198.0000;0.4135;0.0297;
-197.7000;0.4143;0.0272;
-197.4000;0.4135;0.0198;
-197.1000;0.4143;0.0248;
-196.8000;0.4127;0.0272;
-196.5000;0.4143;0.0223;
-196.2000;0.4151;0.0272;
-195.9000;0.4127;0.0149;
-195.6000;0.4127;0.0149;
-195.3000;0.4160;0.0223;
-195.0000;0.4135;0.0173;
-194.7000;0.4151;0.0149;
-194.4000;0.4143;0.0025;
-194.1000;0.4135;-0.0074;
-193.8000;0.4135;-0.0074;
-193.5000;0.4151;-0.0050;
-193.2000;0.4127;-0.0050;
-192.9000;0.4143;0.0025;
-192.6000;0.4151;-0.0050;
-192.3000;0.4168;0.0050;
-192.0000;0.4127;0.0000;
-191.7000;0.4135;0.0000;
-191.4000;0.4135;-0.0025;
-191.1000;0.4143;-0.0025;
-190.8000;0.4135;0.0050;
-190.5000;0.4135;0.0099;
-190.2000;0.4135;0.0149;
-189.9000;0.4143;0.0099;
-189.6000;0.4135;0.0173;
-189.3000;0.4119;0.0173;
-189.0000;0.4127;0.0173;
-188.7000;0.4135;0.0198;
-188.4000;0.4127;0.0198;
-188.1000;0.4119;0.0198;
-187.8000;0.4127;0.0198;
-187.5000;0.4135;0.0223;
-187.2000;0.4127;0.0223;
-186.9000;0.4160;0.0173;
-186.6000;0.4143;0.0198;
-186.3000;0.4135;0.0248;
-186.0000;0.4217;0.0495;
-185.7000;0.4135;0.0272;
-185.4000;0.4135;0.0347;
-185.1000;0.4127;0.0297;
-184.8000;0.4135;0.0297;
-184.5000;0.4151;0.0322;
-184.2000;0.4119;0.0421;
-183.9000;0.4143;0.0396;
-183.6000;0.4135;0.0347;
-183.3000;0.4160;0.0495;
-183.0000;0.4127;0.0446;
-182.7000;0.4135;0.0396;
-182.4000;0.4135;0.0396;
-182.1000;0.4127;0.0421;
-181.8000;0.4160;0.0470;
-181.5000;0.4119;0.0396;
-181.2000;0.4135;0.0446;
-180.9000;0.4054;0.0198;
-180.6000;0.4135;0.0470;
-180.3000;0.4127;0.0520;
-180.0000;0.4143;0.0545;
-179.7000;0.4143;0.0495;
-179.4000;0.4127;0.0396;
-179.1000;0.4143;0.0347;
-178.8000;0.4151;0.0396;
-178.5000;0.4127;0.0371;
-178.2000;0.4119;0.0371;
-177.9000;0.4127;0.0322;
-177.6000;0.4135;0.0347;
-177.3000;0.4135;0.0322;
-177.0000;0.4127;0.0347;
-176.7000;0.4151;0.0421;
-176.4000;0.4127;0.0347;
-176.1000;0.4127;0.0347;
-175.8000;0.4135;0.0421;
-175.5000;0.4119;0.0396;
-175.2000;0.4135;0.0396;
-174.9000;0.4127;0.0347;
-174.6000;0.4135;0.0371;
-174.3000;0.4143;0.0446;
-174.0000;0.4119;0.0495;
-173.7000;0.4119;0.0446;
-173.4000;0.4127;0.0446;
-173.1000;0.4135;0.0570;
-172.8000;0.4200;0.0718;
-172.5000;0.4103;0.0495;
-172.2000;0.4111;0.0495;
-171.9000;0.4135;0.0495;
-171.6000;0.4160;0.0545;
-171.3000;0.4143;0.0446;
-171.0000;0.4168;0.0446;
-170.7000;0.4135;0.0396;
-170.4000;0.4119;0.0347;
-170.1000;0.4160;0.0371;
-169.8000;0.4257;0.0669;
-169.5000;0.4143;0.0322;
-169.2000;0.4151;0.0272;
-168.9000;0.4160;0.0347;
-168.6000;0.4160;0.0347;
-168.3000;0.4127;0.0347;
-168.0000;0.4111;0.0322;
-167.7000;0.4119;0.0223;
-167.4000;0.4135;0.0297;
-167.1000;0.4119;0.0347;
-166.8000;0.4119;0.0322;
-166.5000;0.4176;0.0371;
-166.2000;0.4135;0.0297;
-165.9000;0.4135;0.0371;
-165.6000;0.4168;0.0495;
-165.3000;0.4119;0.0371;
-165.0000;0.4135;0.0446;
-164.7000;0.4151;0.0421;
-164.4000;0.4135;0.0322;
-164.1000;0.4143;0.0371;
-163.8000;0.4160;0.0347;
-163.5000;0.4135;0.0347;
-163.2000;0.4127;0.0347;
-162.9000;0.4135;0.0396;
-162.6000;0.4143;0.0371;
-162.3000;0.4135;0.0470;
-162.0000;0.4127;0.0446;
-161.7000;0.4135;0.0545;
-161.4000;0.4127;0.0545;
-161.1000;0.4127;0.0421;
-160.8000;0.4151;0.0470;
-160.5000;0.4119;0.0396;
-160.2000;0.4184;0.0545;
-159.9000;0.4151;0.0396;
-159.6000;0.4111;0.0347;
-159.3000;0.4151;0.0495;
-159.0000;0.4094;0.0396;
-158.7000;0.4127;0.0495;
-158.4000;0.4119;0.0446;
-158.1000;0.4143;0.0446;
-157.8000;0.4135;0.0371;
-157.5000;0.4143;0.0297;
-157.2000;0.4135;0.0297;
-156.9000;0.4054;0.0124;
-156.6000;0.4135;0.0248;
-156.3000;0.4143;0.0272;
-156.0000;0.4143;0.0198;
-155.7000;0.4127;0.0223;
-155.4000;0.4127;0.0149;
-155.1000;0.4135;0.0248;
-154.8000;0.4119;0.0198;
-154.5000;0.4119;0.0223;
-154.2000;0.4135;0.0248;
-153.9000;0.4151;0.0223;
-153.6000;0.4160;0.0149;
-153.3000;0.4135;0.0124;
-153.0000;0.4151;0.0099;
-152.7000;0.4151;0.0074;
-152.4000;0.4160;0.0050;
-152.1000;0.4151;0.0149;
-151.8000;0.4111;0.0149;
-151.5000;0.4127;0.0347;
-151.2000;0.4127;0.0396;
-150.9000;0.4135;0.0371;
-150.6000;0.4135;0.0421;
-150.3000;0.4135;0.0347;
-150.0000;0.4176;0.0421;
-149.7000;0.4111;0.0248;
-149.4000;0.4127;0.0297;
-149.1000;0.4127;0.0347;
-148.8000;0.4143;0.0446;
-148.5000;0.4119;0.0495;
-148.2000;0.4143;0.0495;
-147.9000;0.4119;0.0470;
-147.6000;0.4160;0.0495;
-147.3000;0.4135;0.0396;
-147.0000;0.4160;0.0446;
-146.7000;0.4127;0.0421;
-146.4000;0.4127;0.0347;
-146.1000;0.4127;0.0248;
-145.8000;0.4151;0.0322;
-145.5000;0.4127;0.0347;
-145.2000;0.4127;0.0347;
-144.9000;0.4135;0.0371;
-144.6000;0.4160;0.0371;
-144.3000;0.4127;0.0248;
-144.0000;0.4160;0.0322;
-143.7000;0.4160;0.0272;
-143.4000;0.4127;0.0223;
-143.1000;0.4119;0.0297;
-142.8000;0.4143;0.0347;
-142.5000;0.4119;0.0322;
-142.2000;0.4151;0.0322;
-141.9000;0.4143;0.0272;
-141.6000;0.4127;0.0198;
-141.3000;0.4135;0.0248;
-141.0000;0.4119;0.0223;
-140.7000;0.4143;0.0198;
-140.4000;0.4135;0.0149;
-140.1000;0.4062;-0.0050;
-139.8000;0.4127;0.0173;
-139.5000;0.4143;0.0272;
-139.2000;0.4151;0.0223;
-138.9000;0.4151;0.0149;
-138.6000;0.4143;0.0173;
-138.3000;0.4135;0.0173;
-138.0000;0.4176;0.0272;
-137.7000;0.4151;0.0297;
-137.4000;0.4151;0.0297;
-137.1000;0.4143;0.0248;
-136.8000;0.4135;0.0272;
-136.5000;0.4135;0.0149;
-136.2000;0.4184;0.0198;
-135.9000;0.4127;0.0099;
-135.6000;0.4143;0.0124;
-135.3000;0.4086;-0.0099;
-135.0000;0.4119;0.0000;
-134.7000;0.4119;-0.0025;
-134.4000;0.4151;0.0149;
-134.1000;0.4103;0.0149;
-133.8000;0.4143;0.0173;
-133.5000;0.4127;0.0099;
-133.2000;0.4086;0.0050;
-132.9000;0.4135;0.0223;
-132.6000;0.4127;0.0223;
-132.3000;0.4094;0.0124;
-132.0000;0.4135;0.0198;
-131.7000;0.4135;0.0198;
-131.4000;0.4127;0.0124;
-131.1000;0.4127;0.0124;
-130.8000;0.4094;0.0025;
-130.5000;0.4143;0.0124;
-130.2000;0.4127;0.0025;
-129.9000;0.4103;-0.0050;
-129.6000;0.4119;0.0124;
-129.3000;0.4143;0.0198;
-129.0000;0.4160;0.0223;
-128.7000;0.4135;0.0149;
-128.4000;0.4135;0.0050;
-128.1000;0.4111;0.0099;
-127.8000;0.4168;0.0297;
-127.5000;0.4151;0.0272;
-127.2000;0.4135;0.0198;
-126.9000;0.4135;0.0124;
-126.6000;0.4160;0.0173;
-126.3000;0.4160;0.0198;
-126.0000;0.4160;0.0173;
-125.7000;0.4143;0.0223;
-125.4000;0.4143;0.0198;
-125.1000;0.4151;0.0297;
-124.8000;0.4135;0.0347;
-124.5000;0.4103;0.0173;
-124.2000;0.4119;0.0248;
-123.9000;0.4143;0.0297;
-123.6000;0.4086;0.0149;
-123.3000;0.4111;0.0198;
-123.0000;0.4119;0.0149;
-122.7000;0.4135;0.0099;
-122.4000;0.4151;0.0099;
-122.1000;0.4135;0.0074;
-121.8000;0.4119;0.0025;
-121.5000;0.4200;0.0297;
-121.2000;0.4135;0.0173;
-120.9000;0.4135;0.0149;
-120.6000;0.4135;0.0149;
-120.3000;0.4127;0.0149;
-120.0000;0.4151;0.0198;
-119.7000;0.4151;0.0198;
-119.4000;0.4135;0.0124;
-119.1000;0.4143;0.0050;
-118.8000;0.4127;0.0124;
-118.5000;0.4135;0.0050;
-118.2000;0.4127;-0.0074;
-117.9000;0.4143;-0.0124;
-117.6000;0.4135;-0.0124;
-117.3000;0.4135;-0.0124;
-117.0000;0.4078;-0.0297;
-116.7000;0.4127;-0.0223;
-116.4000;0.4127;-0.0173;
-116.1000;0.4192;0.0000;
-115.8000;0.4119;-0.0099;
-115.5000;0.4127;-0.0124;
-115.2000;0.4135;-0.0099;
-114.9000;0.4119;-0.0223;
-114.6000;0.4217;0.0000;
-114.3000;0.4143;-0.0248;
-114.0000;0.4184;-0.0173;
-113.7000;0.4143;-0.0248;
-113.4000;0.4151;-0.0272;
-113.1000;0.4151;-0.0074;
-112.8000;0.4111;-0.0074;
-112.5000;0.4135;-0.0050;
-112.2000;0.4127;-0.0025;
-111.9000;0.4103;-0.0099;
-111.6000;0.4143;-0.0074;
-111.3000;0.4127;-0.0099;
-111.0000;0.4103;-0.0173;
-110.7000;0.4127;-0.0074;
-110.4000;0.4143;-0.0099;
-110.1000;0.4111;-0.0149;
-109.8000;0.4135;-0.0050;
-109.5000;0.4143;0.0050;
-109.2000;0.4094;-0.0099;
-108.9000;0.4127;0.0074;
-108.6000;0.4135;0.0124;
-108.3000;0.4151;0.0248;
-108.0000;0.4160;0.0198;
-107.7000;0.4135;0.0124;
-107.4000;0.4135;0.0099;
-107.1000;0.4135;0.0025;
-106.8000;0.4119;0.0025;
-106.5000;0.4127;0.0050;
-106.2000;0.4119;0.0025;
-105.9000;0.4119;0.0000;
-105.6000;0.4127;0.0025;
-105.3000;0.4143;0.0050;
-105.0000;0.4135;0.0099;
-104.7000;0.4160;0.0173;
-104.4000;0.4151;0.0149;
-104.1000;0.4135;0.0099;
-103.8000;0.4151;0.0025;
-103.5000;0.4143;-0.0025;
-103.2000;0.4151;0.0025;
-102.9000;0.4143;0.0050;
-102.6000;0.4168;0.0124;
-102.3000;0.4135;-0.0025;
-102.0000;0.4143;-0.0050;
-101.7000;0.4143;0.0000;
-101.4000;0.4151;0.0074;
-101.1000;0.4151;0.0099;
-100.8000;0.4151;0.0050;
-100.5000;0.4111;-0.0025;
-100.2000;0.4135;0.0050;
-99.9000;0.4143;0.0099;
-99.6000;0.4111;0.0074;
-99.3000;0.4143;0.0074;
-99.0000;0.4135;0.0074;
-98.7000;0.4135;0.0149;
-98.4000;0.4127;0.0099;
-98.1000;0.4135;0.0173;
-97.8000;0.4143;0.0198;
-97.5000;0.4135;0.0173;
-97.2000;0.4168;0.0297;
-96.9000;0.4127;0.0173;
-96.6000;0.4078;0.0074;
-96.3000;0.4127;0.0198;
-96.0000;0.4127;0.0198;
-95.7000;0.4127;0.0198;
-95.4000;0.4135;0.0198;
-95.1000;0.4103;0.0099;
-94.8000;0.4119;0.0074;
-94.5000;0.4127;0.0050;
-94.2000;0.4143;0.0074;
-93.9000;0.4119;0.0000;
-93.6000;0.4046;-0.0248;
-93.3000;0.4135;-0.0025;
-93.0000;0.4127;-0.0025;
-92.7000;0.4143;0.0025;
-92.4000;0.4151;0.0025;
-92.1000;0.4127;0.0000;
-91.8000;0.4127;0.0025;
-91.5000;0.4111;0.0050;
-91.2000;0.4143;0.0050;
-90.9000;0.4143;0.0050;
-90.6000;0.4127;0.0074;
-90.3000;0.4119;0.0025;
-90.0000;0.4143;0.0074;
-89.7000;0.4151;0.0074;
-89.4000;0.4127;0.0000;
-89.1000;0.4135;0.0074;
-88.8000;0.4151;0.0124;
-88.5000;0.4143;-0.0025;
-88.2000;0.4103;-0.0099;
-87.9000;0.4160;0.0050;
-87.6000;0.4143;0.0025;
-87.3000;0.4176;0.0074;
-87.0000;0.4151;0.0050;
-86.7000;0.4127;-0.0025;
-86.4000;0.4160;0.0099;
-86.1000;0.4135;0.0025;
-85.8000;0.4127;0.0000;
-85.5000;0.4135;0.0000;
-85.2000;0.4078;-0.0198;
-84.9000;0.4217;0.0124;
-84.6000;0.4119;-0.0099;
-84.3000;0.4094;-0.0198;
-84.0000;0.4127;-0.0124;
-83.7000;0.4127;-0.0124;
-83.4000;0.4135;-0.0149;
-83.1000;0.4143;-0.0124;
-82.8000;0.4135;-0.0248;
-82.5000;0.4127;-0.0173;
-82.2000;0.4127;-0.0173;
-81.9000;0.4127;-0.0124;
-81.6000;0.4119;-0.0050;
-81.3000;0.4127;-0.0025;
-81.0000;0.4135;-0.0074;
-80.7000;0.4127;0.0000;
-80.4000;0.4127;0.0025;
-80.1000;0.4143;0.0025;
-79.8000;0.4119;-0.0074;
-79.5000;0.4127;-0.0025;
-79.2000;0.4135;-0.0099;
-78.9000;0.4143;-0.0074;
-78.6000;0.4143;-0.0124;
-78.3000;0.4160;-0.0124;
-78.0000;0.4143;-0.0124;
-77.7000;0.4135;-0.0124;
-77.4000;0.4151;-0.0050;
-77.1000;0.4127;-0.0050;
-76.8000;0.4143;0.0025;
-76.5000;0.4143;0.0050;
-76.2000;0.4127;-0.0025;
-75.9000;0.4143;0.0000;
-75.6000;0.4143;-0.0025;
-75.3000;0.4119;-0.0050;
-75.0000;0.4135;0.0000;
-74.7000;0.4160;0.0099;
-74.4000;0.4135;0.0074;
-74.1000;0.4127;0.0149;
-73.8000;0.4184;0.0272;
-73.5000;0.4127;0.0124;
-73.2000;0.4135;0.0149;
-72.9000;0.4192;0.0272;
-72.6000;0.4070;-0.0074;
-72.3000;0.4135;0.0099;
-72.0000;0.4127;0.0149;
-71.7000;0.4119;0.0074;
-71.4000;0.4127;-0.0025;
-71.1000;0.4119;-0.0074;
-70.8000;0.4160;-0.0025;
-70.5000;0.4217;0.0099;
-70.2000;0.4143;-0.0173;
-69.9000;0.4143;-0.0099;
-69.6000;0.4135;-0.0173;
-69.3000;0.4151;-0.0124;
-69.0000;0.4160;-0.0149;
-68.7000;0.4127;-0.0173;
-68.4000;0.4143;-0.0223;
-68.1000;0.4225;0.0000;
-67.8000;0.4160;-0.0050;
-67.5000;0.4160;-0.0025;
-67.2000;0.4151;0.0074;
-66.9000;0.4119;0.0025;
-66.6000;0.4143;0.0124;
-66.3000;0.4168;0.0149;
-66.0000;0.4143;0.0099;
-65.7000;0.4143;0.0050;
-65.4000;0.4143;0.0025;
-65.1000;0.4127;-0.0149;
-64.8000;0.4143;-0.0173;
-64.5000;0.4151;-0.0124;
-64.2000;0.4143;-0.0248;
-63.9000;0.4062;-0.0520;
-63.6000;0.4119;-0.0446;
-63.3000;0.4111;-0.0371;
-63.0000;0.4127;-0.0272;
-62.7000;0.4143;-0.0173;
-62.4000;0.4176;-0.0124;
-62.1000;0.4135;-0.0248;
-61.8000;0.4127;-0.0347;
-61.5000;0.4135;-0.0322;
-61.2000;0.4127;-0.0248;
-60.9000;0.4127;-0.0272;
-60.6000;0.4119;-0.0322;
-60.3000;0.4151;-0.0198;
-60.0000;0.4135;-0.0223;
-59.7000;0.4151;-0.0272;
-59.4000;0.4127;-0.0322;
-59.1000;0.4135;-0.0223;
-58.8000;0.4127;-0.0223;
-58.5000;0.4111;-0.0223;
-58.2000;0.4135;-0.0149;
-57.9000;0.4143;-0.0149;
-57.6000;0.4127;-0.0149;
-57.3000;0.4111;-0.0223;
-57.0000;0.4135;-0.0173;
-56.7000;0.4127;-0.0149;
-56.4000;0.4135;-0.0099;
-56.1000;0.4135;0.0099;
-55.8000;0.4135;0.0074;
-55.5000;0.4151;0.0074;
-55.2000;0.4135;0.0099;
-54.9000;0.4143;0.0050;
-54.6000;0.4143;0.0124;
-54.3000;0.4143;0.0149;
-54.0000;0.4151;0.0149;
-53.7000;0.4143;0.0124;
-53.4000;0.4135;0.0025;
-53.1000;0.4135;0.0000;
-52.8000;0.4143;0.0099;
-52.5000;0.4119;0.0124;
-52.2000;0.4094;0.0050;
-51.9000;0.4135;0.0173;
-51.6000;0.4111;0.0050;
-51.3000;0.4135;0.0025;
-51.0000;0.4127;0.0050;
-50.7000;0.4135;0.0000;
-50.4000;0.4143;-0.0025;
-50.1000;0.4143;-0.0074;
-49.8000;0.4143;0.0025;
-49.5000;0.4127;0.0124;
-49.2000;0.4176;0.0322;
-48.9000;0.4119;0.0074;
-48.6000;0.4119;0.0124;
-48.3000;0.4225;0.0322;
-48.0000;0.4127;0.0124;
-47.7000;0.4111;0.0124;
-47.4000;0.4127;0.0173;
-47.1000;0.4135;0.0272;
-46.8000;0.4143;0.0322;
-46.5000;0.4127;0.0297;
-46.2000;0.4119;0.0371;
-45.9000;0.4135;0.0347;
-45.6000;0.4127;0.0322;
-45.3000;0.4127;0.0297;
-45.0000;0.4143;0.0421;
-44.7000;0.4143;0.0371;
-44.4000;0.4135;0.0322;
-44.1000;0.4135;0.0347;
-43.8000;0.4143;0.0347;
-43.5000;0.4151;0.0272;
-43.2000;0.4225;0.0495;
-42.9000;0.4127;0.0099;
-42.6000;0.4135;0.0124;
-42.3000;0.4135;0.0124;
-42.0000;0.4143;0.0099;
-41.7000;0.4103;-0.0025;
-41.4000;0.4119;0.0099;
-41.1000;0.4135;0.0124;
-40.8000;0.4119;0.0173;
-40.5000;0.4127;0.0149;
-40.2000;0.4135;0.0124;
-39.9000;0.4151;0.0124;
-39.6000;0.4127;0.0124;
-39.3000;0.4151;0.0149;
-39.0000;0.4135;0.0099;
-38.7000;0.4151;0.0272;
-38.4000;0.4135;0.0149;
-38.1000;0.4143;0.0198;
-37.8000;0.4127;0.0223;
-37.5000;0.4127;0.0149;
-37.2000;0.4168;0.0173;
-36.9000;0.4135;0.0149;
-36.6000;0.4127;0.0198;
-36.3000;0.4119;0.0149;
-36.0000;0.4143;0.0074;
-35.7000;0.4143;0.0149;
-35.4000;0.4127;0.0173;
-35.1000;0.4119;0.0149;
-34.8000;0.4151;0.0248;
-34.5000;0.4135;0.0198;
-34.2000;0.4119;0.0198;
-33.9000;0.4127;0.0223;
-33.6000;0.4151;0.0248;
-33.3000;0.4143;0.0173;
-33.0000;0.4119;0.0124;
-32.7000;0.4143;0.0173;
-32.4000;0.4151;0.0198;
-32.1000;0.4151;0.0074;
-31.8000;0.4135;0.0000;
-31.5000;0.4176;0.0149;
-31.2000;0.4135;0.0149;
-30.9000;0.4160;0.0173;
-30.6000;0.4143;0.0124;
-30.3000;0.4119;0.0099;
-30.0000;0.4135;0.0025;
-29.7000;0.4143;0.0000;
-29.4000;0.4094;-0.0149;
-29.1000;0.4143;0.0173;
-28.8000;0.4135;0.0149;
-28.5000;0.4046;-0.0050;
-28.2000;0.4160;0.0223;
-27.9000;0.4143;0.0149;
-27.6000;0.4143;0.0223;
-27.3000;0.4135;0.0248;
-27.0000;0.4127;0.0124;
-26.7000;0.4151;0.0198;
-26.4000;0.4127;0.0124;
-26.1000;0.4119;0.0074;
-25.8000;0.4119;0.0050;
-25.5000;0.4151;0.0124;
-25.2000;0.4127;0.0000;
-24.9000;0.4143;-0.0050;
-24.6000;0.4143;-0.0124;
-24.3000;0.4135;-0.0074;
-24.0000;0.4078;-0.0198;
-23.7000;0.4135;-0.0025;
-23.4000;0.4151;0.0025;
-23.1000;0.4176;0.0099;
-22.8000;0.4135;0.0025;
-22.5000;0.4135;0.0025;
-22.2000;0.4135;0.0050;
-21.9000;0.4160;0.0099;
-21.6000;0.4151;0.0149;
-21.3000;0.4135;0.0173;
-21.0000;0.4135;0.0198;
-20.7000;0.4135;0.0124;
-20.4000;0.4143;0.0124;
-20.1000;0.4151;0.0099;
-19.8000;0.4127;0.0025;
-19.5000;0.4103;-0.0050;
-19.2000;0.4103;-0.0074;
-18.9000;0.4086;-0.0050;
-18.6000;0.4135;0.0074;
-18.3000;0.4135;0.0025;
-18.0000;0.4168;0.0050;
-17.7000;0.4135;-0.0025;
-17.4000;0.4151;0.0074;
-17.1000;0.4103;-0.0025;
-16.8000;0.4143;0.0074;
-16.5000;0.4127;-0.0050;
-16.2000;0.4168;-0.0050;
-15.9000;0.4143;0.0000;
-15.6000;0.4151;0.0025;
-15.3000;0.4176;-0.0025;
-15.0000;0.4168;-0.0050;
-14.7000;0.4127;-0.0149;
-14.4000;0.4111;-0.0173;
-14.1000;0.4135;-0.0099;
-13.8000;0.4151;0.0000;
-13.5000;0.4135;-0.0099;
-13.2000;0.4062;-0.0248;
-12.9000;0.4111;-0.0149;
-12.6000;0.4143;-0.0124;
-12.3000;0.4127;-0.0124;
-12.0000;0.4143;-0.0050;
-11.7000;0.4135;-0.0074;
-11.4000;0.4135;-0.0025;
-11.1000;0.4119;-0.0099;
-10.8000;0.4135;-0.0050;
-10.5000;0.4135;0.0000;
-10.2000;0.4151;0.0025;
-9.9000;0.4143;0.0025;
-9.6000;0.4135;0.0124;
-9.3000;0.4127;0.0025;
-9.0000;0.4127;-0.0074;
-8.7000;0.4143;0.0000;
-8.4000;0.4111;-0.0074;
-8.1000;0.4086;-0.0025;
-7.8000;0.4135;0.0124;
-7.5000;0.4160;0.0223;
-7.2000;0.4151;0.0124;
-6.9000;0.4151;0.0074;
-6.6000;0.4143;0.0074;
-6.3000;0.4151;0.0099;
-6.0000;0.4143;0.0025;
-5.7000;0.4135;0.0074;
-5.4000;0.4111;-0.0025;
-5.1000;0.4119;0.0025;
-4.8000;0.4127;0.0050;
-4.5000;0.4127;0.0124;
-4.2000;0.4127;0.0025;
-3.9000;0.4135;0.0074;
-3.6000;0.4151;0.0074;
-3.3000;0.4143;0.0099;
-3.0000;0.4200;0.0198;
-2.7000;0.4143;0.0099;
-2.4000;0.4135;0.0124;
-2.1000;0.4143;0.0149;
-1.8000;0.4127;0.0124;
-1.5000;0.4135;0.0248;
-1.2000;0.4127;0.0223;
-0.9000;0.4143;0.0223;
-0.6000;0.4127;0.0173;
-0.3000;0.4103;0.0149;
0.0000;0.4103;0.0149;
0.3000;0.4184;0.0149;
0.6000;0.4282;0.0371;
0.9000;0.4355;0.0570;
1.2000;0.4404;0.0644;
1.5000;0.4453;0.0693;
1.8000;0.4469;0.0743;
2.1000;0.4518;0.0867;
2.4000;0.4510;0.0817;
2.7000;0.4550;0.1040;
3.0000;0.4575;0.1139;
3.3000;0.4575;0.1189;
3.6000;0.4567;0.1288;
3.9000;0.4567;0.1238;
4.2000;0.4615;0.1411;
4.5000;0.4599;0.1312;
4.8000;0.4599;0.1337;
5.1000;0.4624;0.1238;
5.4000;0.4640;0.1387;
5.7000;0.4615;0.1362;
6.0000;0.4624;0.1362;
6.3000;0.4624;0.1387;
6.6000;0.4632;0.1387;
6.9000;0.4640;0.1362;
7.2000;0.4599;0.1164;
7.5000;0.4632;0.1238;
7.8000;0.4664;0.1337;
8.1000;0.4624;0.1213;
8.4000;0.4672;0.1263;
8.7000;0.4632;0.1164;
9.0000;0.4656;0.1164;
9.3000;0.4681;0.1139;
9.6000;0.4681;0.1189;
9.9000;0.4729;0.1312;
10.2000;0.4689;0.1263;
10.5000;0.4697;0.1337;
10.8000;0.4713;0.1436;
11.1000;0.4689;0.1511;
11.4000;0.4697;0.1511;
11.7000;0.4705;0.1535;
12.0000;0.4705;0.1610;
12.3000;0.4697;0.1560;
12.6000;0.4721;0.1610;
12.9000;0.4681;0.1486;
13.2000;0.4737;0.1585;
13.5000;0.4746;0.1634;
13.8000;0.4729;0.1535;
14.1000;0.4737;0.1461;
14.4000;0.4762;0.1362;
14.7000;0.4762;0.1411;
15.0000;0.4721;0.1312;
15.3000;0.4778;0.1411;
15.6000;0.4770;0.1411;
15.9000;0.4770;0.1511;
16.2000;0.4770;0.1486;
16.5000;0.4778;0.1486;
16.8000;0.4778;0.1362;
17.1000;0.4786;0.1486;
17.4000;0.4778;0.1461;
17.7000;0.4770;0.1461;
18.0000;0.4778;0.1461;
18.3000;0.4803;0.1461;
18.6000;0.4786;0.1461;
18.9000;0.4786;0.1461;
19.2000;0.4794;0.1486;
19.5000;0.4786;0.1486;
19.8000;0.4811;0.1585;
20.1000;0.4811;0.1560;
20.4000;0.4794;0.1511;
20.7000;0.4803;0.1486;
21.0000;0.4811;0.1461;
21.3000;0.4827;0.1560;
21.6000;0.4811;0.1486;
21.9000;0.4819;0.1511;
22.2000;0.4811;0.1486;
22.5000;0.4876;0.1585;
22.8000;0.4835;0.1511;
23.1000;0.4811;0.1436;
23.4000;0.4819;0.1411;
23.7000;0.4835;0.1511;
24.0000;0.4900;0.1585;
24.3000;0.4843;0.1461;
24.6000;0.4851;0.1411;
24.9000;0.4843;0.1362;
25.2000;0.4851;0.1337;
25.5000;0.4835;0.1362;
25.8000;0.4835;0.1387;
26.1000;0.4860;0.1461;
26.4000;0.4851;0.1362;
26.7000;0.4851;0.1362;
27.0000;0.4851;0.1436;
27.3000;0.4843;0.1461;
27.6000;0.4860;0.1535;
27.9000;0.4868;0.1511;
28.2000;0.4860;0.1535;
28.5000;0.4843;0.1585;
28.8000;0.4860;0.1659;
29.1000;0.4860;0.1610;
29.4000;0.4860;0.1585;
29.7000;0.4892;0.1610;
30.0000;0.4860;0.1511;
30.3000;0.4884;0.1560;
30.6000;0.4868;0.1461;
30.9000;0.4860;0.1461;
31.2000;0.4851;0.1535;
31.5000;0.4851;0.1535;
31.8000;0.4868;0.1610;
32.1000;0.4860;0.1560;
32.4000;0.4860;0.1486;
32.7000;0.4892;0.1535;
33.0000;0.4876;0.1511;
33.3000;0.4892;0.1461;
33.6000;0.4892;0.1486;
33.9000;0.4908;0.1560;
34.2000;0.4892;0.1535;
34.5000;0.4892;0.1411;
34.8000;0.4892;0.1436;
35.1000;0.4900;0.1461;
35.4000;0.4900;0.1387;
35.7000;0.4900;0.1411;
36.0000;0.4900;0.1387;
36.3000;0.4892;0.1436;
36.6000;0.4917;0.1535;
36.9000;0.4908;0.1511;
37.2000;0.4860;0.1362;
37.5000;0.4917;0.1560;
37.8000;0.4908;0.1486;
38.1000;0.4933;0.1535;
38.4000;0.4949;0.1585;
38.7000;0.4908;0.1535;
39.0000;0.4917;0.1560;
39.3000;0.4851;0.1387;
39.6000;0.4908;0.1560;
39.9000;0.4917;0.1560;
40.2000;0.4917;0.1585;
40.5000;0.4917;0.1560;
40.8000;0.4908;0.1560;
41.1000;0.4917;0.1585;
41.4000;0.4917;0.1560;
41.7000;0.4917;0.1560;
42.0000;0.4908;0.1634;
42.3000;0.4892;0.1634;
42.6000;0.4900;0.1684;
42.9000;0.4908;0.1610;
43.2000;0.4876;0.1511;
43.5000;0.4917;0.1560;
43.8000;0.4908;0.1535;
44.1000;0.4933;0.1585;
44.4000;0.4917;0.1511;
44.7000;0.4917;0.1560;
45.0000;0.4908;0.1585;
45.3000;0.4851;0.1312;
45.6000;0.4925;0.1486;
45.9000;0.4941;0.1486;
46.2000;0.4917;0.1560;
46.5000;0.4917;0.1684;
46.8000;0.4908;0.1634;
47.1000;0.4908;0.1733;
47.4000;0.4892;0.1659;
47.7000;0.4917;0.1758;
48.0000;0.4917;0.1758;
48.3000;0.4949;0.1733;
48.6000;0.4933;0.1610;
48.9000;0.4933;0.1634;
49.2000;0.4933;0.1733;
49.5000;0.4933;0.1733;
49.8000;0.4941;0.1783;
50.1000;0.4941;0.1758;
50.4000;0.4941;0.1758;
50.7000;0.4941;0.1758;
51.0000;0.4925;0.1758;
51.3000;0.4917;0.1709;
51.6000;0.4925;0.1709;
51.9000;0.4933;0.1684;
52.2000;0.4925;0.1684;
52.5000;0.4933;0.1610;
52.8000;0.4957;0.1634;
53.1000;0.5014;0.1733;
53.4000;0.4949;0.1585;
53.7000;0.4949;0.1610;
54.0000;0.4941;0.1535;
54.3000;0.4949;0.1560;
54.6000;0.4957;0.1585;
54.9000;0.4925;0.1610;
55.2000;0.4965;0.1808;
55.5000;0.4957;0.1709;
55.8000;0.4949;0.1709;
56.1000;0.4949;0.1634;
56.4000;0.4949;0.1610;
56.7000;0.4876;0.1511;
57.0000;0.4941;0.1659;
57.3000;0.4941;0.1610;
57.6000;0.4949;0.1634;
57.9000;0.4957;0.1634;
58.2000;0.4957;0.1634;
58.5000;0.4974;0.1659;
58.8000;0.4965;0.1659;
59.1000;0.4965;0.1560;
59.4000;0.5014;0.1634;
59.7000;0.4974;0.1511;
60.0000;0.4974;0.1535;
60.3000;0.5006;0.1585;
60.6000;0.4957;0.1560;
60.9000;0.4965;0.1634;
61.2000;0.4933;0.1511;
61.5000;0.4957;0.1560;
61.8000;0.4990;0.1684;
62.1000;0.4957;0.1659;
62.4000;0.4965;0.1659;
62.7000;0.4965;0.1709;
63.0000;0.4957;0.1709;
63.3000;0.4949;0.1659;
63.6000;0.4965;0.1659;
63.9000;0.4965;0.1709;
64.2000;0.4974;0.1684;
64.5000;0.4965;0.1634;
64.8000;0.4974;0.1634;
65.1000;0.4965;0.1659;
65.4000;0.4965;0.1684;
65.7000;0.4974;0.1733;
66.0000;0.4957;0.1709;
66.3000;0.4965;0.1783;
66.6000;0.4957;0.1882;
66.9000;0.4965;0.1882;
67.2000;0.4974;0.1882;
67.5000;0.4965;0.1783;
67.8000;0.4965;0.1808;
68.1000;0.4957;0.1659;
68.4000;0.4974;0.1783;
68.7000;0.4957;0.1857;
69.0000;0.4965;0.1907;
69.3000;0.4965;0.1882;
69.6000;0.4957;0.1832;
69.9000;0.4974;0.1808;
70.2000;0.4990;0.1808;
70.5000;0.4965;0.1758;
70.8000;0.4965;0.1783;
71.1000;0.4965;0.1808;
71.4000;0.4965;0.1783;
71.7000;0.4957;0.1709;
72.0000;0.4965;0.1733;
72.3000;0.4957;0.1610;
72.6000;0.4974;0.1610;
72.9000;0.4957;0.1585;
73.2000;0.4965;0.1634;
73.5000;0.4957;0.1610;
73.8000;0.4908;0.1511;
74.1000;0.4974;0.1709;
74.4000;0.4974;0.1733;
74.7000;0.4965;0.1659;
75.0000;0.4982;0.1610;
75.3000;0.4982;0.1634;
75.6000;0.4982;0.1659;
75.9000;0.4965;0.1610;
76.2000;0.4933;0.1535;
76.5000;0.4982;0.1610;
76.8000;0.4982;0.1659;
77.1000;0.4965;0.1634;
77.4000;0.4965;0.1634;
77.7000;0.4982;0.1585;
78.0000;0.4974;0.1560;
78.3000;0.4990;0.1560;
78.6000;0.4974;0.1461;
78.9000;0.4974;0.1486;
79.2000;0.4965;0.1610;
79.5000;0.4982;0.1659;
79.8000;0.4957;0.1634;
80.1000;0.4949;0.1560;
80.4000;0.4957;0.1560;
80.7000;0.4965;0.1585;
81.0000;0.4990;0.1535;
81.3000;0.4957;0.1535;
81.6000;0.4974;0.1535;
81.9000;0.4974;0.1560;
82.2000;0.4974;0.1511;
82.5000;0.4974;0.1535;
82.8000;0.4949;0.1560;
83.1000;0.4965;0.1610;
83.4000;0.4974;0.1709;
83.7000;0.4925;0.1684;
84.0000;0.5022;0.1907;
84.3000;0.5014;0.1857;
84.6000;0.4957;0.1659;
84.9000;0.4982;0.1659;
85.2000;0.4974;0.1585;
85.5000;0.4982;0.1659;
85.8000;0.4974;0.1659;
86.1000;0.4974;0.1610;
86.4000;0.4974;0.1610;
86.7000;0.4982;0.1659;
87.0000;0.4908;0.1362;
87.3000;0.4974;0.1560;
87.6000;0.4982;0.1634;
87.9000;0.4990;0.1659;
88.2000;0.4990;0.1486;
88.5000;0.4982;0.1486;
88.8000;0.5031;0.1585;
89.1000;0.4974;0.1511;
89.4000;0.4982;0.1560;
89.7000;0.4998;0.1709;
90.0000;0.4974;0.1684;
90.3000;0.4974;0.1733;
90.6000;0.4982;0.1857;
90.9000;0.4941;0.1659;
91.2000;0.4949;0.1684;
91.5000;0.4974;0.1733;
91.8000;0.4974;0.1709;
92.1000;0.4998;0.1709;
92.4000;0.5079;0.1981;
92.7000;0.4957;0.1758;
93.0000;0.4941;0.1733;
93.3000;0.4982;0.1832;
93.6000;0.4982;0.1758;
93.9000;0.4990;0.1857;
94.2000;0.4974;0.1808;
94.5000;0.4982;0.1758;
94.8000;0.4990;0.1684;
95.1000;0.4949;0.1585;
95.4000;0.4957;0.1511;
95.7000;0.4965;0.1511;
96.0000;0.4982;0.1585;
96.3000;0.4990;0.1610;
96.6000;0.4957;0.1511;
96.9000;0.4965;0.1436;
97.2000;0.4965;0.1461;
97.5000;0.4974;0.1436;
97.8000;0.4974;0.1461;
98.1000;0.4941;0.1461;
98.4000;0.4990;0.1560;
98.7000;0.4965;0.1585;
99.0000;0.4974;0.1634;
99.3000;0.4974;0.1585;
99.6000;0.4974;0.1610;
99.9000;0.4941;0.1560;
100.2000;0.4965;0.1758;
100.5000;0.4965;0.1709;
100.8000;0.5022;0.1857;
101.1000;0.4941;0.1610;
101.4000;0.4982;0.1783;
101.7000;0.4974;0.1733;
102.0000;0.4982;0.1783;
102.3000;0.5055;0.1956;
102.6000;0.5014;0.1758;
102.9000;0.5039;0.1709;
103.2000;0.4982;0.1461;
103.5000;0.4982;0.1511;
103.8000;0.4965;0.1560;
104.1000;0.4990;0.1610;
104.4000;0.4982;0.1610;
104.7000;0.4982;0.1610;
105.0000;0.5047;0.1808;
105.3000;0.4974;0.1659;
105.6000;0.4974;0.1709;
105.9000;0.4957;0.1758;
106.2000;0.4974;0.1783;
106.5000;0.4974;0.1709;
106.8000;0.4982;0.1808;
107.1000;0.4974;0.1733;
107.4000;0.4974;0.1709;
107.7000;0.4933;0.1634;
108.0000;0.4974;0.1659;
108.3000;0.4974;0.1610;
108.6000;0.4949;0.1585;
108.9000;0.4974;0.1733;
109.2000;0.4998;0.1857;
109.5000;0.5071;0.2031;
109.8000;0.4965;0.1684;
110.1000;0.4990;0.1709;
110.4000;0.5022;0.1808;
110.7000;0.4974;0.1709;
111.0000;0.4990;0.1758;
111.3000;0.4982;0.1733;
111.6000;0.4982;0.1684;
111.9000;0.4949;0.1634;
112.2000;0.4990;0.1783;
112.5000;0.4982;0.1733;
112.8000;0.4900;0.1585;
113.1000;0.4990;0.1857;
113.4000;0.4998;0.1783;
113.7000;0.4974;0.1733;
114.0000;0.4998;0.1857;
114.3000;0.4982;0.1684;
114.6000;0.4990;0.1709;
114.9000;0.4982;0.1758;
115.2000;0.4925;0.1511;
115.5000;0.4982;0.1634;
115.8000;0.4974;0.1585;
116.1000;0.4990;0.1659;
116.4000;0.4982;0.1684;
116.7000;0.4965;0.1659;
117.0000;0.4965;0.1659;
117.3000;0.4974;0.1634;
117.6000;0.4965;0.1634;
117.9000;0.4982;0.1684;
118.2000;0.4982;0.1684;
118.5000;0.4900;0.1535;
118.8000;0.4982;0.1709;
119.1000;0.4925;0.1535;
119.4000;0.5047;0.1832;
119.7000;0.4982;0.1634;
120.0000;0.4990;0.1659;
120.3000;0.4974;0.1585;
120.6000;0.4990;0.1659;
120.9000;0.4998;0.1634;
121.2000;0.4957;0.1610;
121.5000;0.4974;0.1709;
121.8000;0.4974;0.1659;
122.1000;0.4965;0.1610;
122.4000;0.4974;0.1535;
122.7000;0.4949;0.1486;
123.0000;0.4933;0.1411;
123.3000;0.4982;0.1461;
123.6000;0.4990;0.1461;
123.9000;0.4990;0.1511;
124.2000;0.4974;0.1535;
124.5000;0.4998;0.1684;
124.8000;0.4965;0.1684;
125.1000;0.4974;0.1733;
125.4000;0.4974;0.1733;
125.7000;0.4990;0.1733;
126.0000;0.4982;0.1733;
126.3000;0.4965;0.1709;
126.6000;0.4957;0.1783;
126.9000;0.4974;0.1808;
127.2000;0.4974;0.1733;
127.5000;0.4990;0.1808;
127.8000;0.4974;0.1857;
128.1000;0.4990;0.1808;
128.4000;0.4982;0.1758;
128.7000;0.4965;0.1733;
129.0000;0.4982;0.1783;
129.3000;0.4982;0.1832;
129.6000;0.4925;0.1733;
129.9000;0.4917;0.1733;
130.2000;0.4990;0.1733;
130.5000;0.4941;0.1634;
130.8000;0.4982;0.1758;
131.1000;0.4974;0.1783;
131.4000;0.4990;0.1808;
131.7000;0.4917;0.1634;
132.0000;0.4974;0.1758;
132.3000;0.4990;0.1832;
132.6000;0.4965;0.1758;
132.9000;0.4982;0.1783;
133.2000;0.4974;0.1758;
133.5000;0.4974;0.1733;
133.8000;0.4990;0.1808;
134.1000;0.4974;0.1783;
134.4000;0.4974;0.1907;
134.7000;0.4965;0.1758;
135.0000;0.4998;0.1709;
135.3000;0.4949;0.1659;
135.6000;0.4982;0.1783;
135.9000;0.4965;0.1758;
136.2000;0.4974;0.1832;
136.5000;0.4998;0.1956;
136.8000;0.4990;0.1832;
137.1000;0.4982;0.1882;
137.4000;0.4990;0.1931;
137.7000;0.4990;0.1981;
138.0000;0.4965;0.1882;
138.3000;0.4949;0.1981;
138.6000;0.4982;0.1981;
138.9000;0.5014;0.2055;
139.2000;0.5006;0.2031;
139.5000;0.4990;0.1931;
139.8000;0.4974;0.1857;
140.1000;0.4974;0.1832;
140.4000;0.4974;0.1857;
140.7000;0.4965;0.1808;
141.0000;0.4982;0.1758;
141.3000;0.4990;0.1832;
141.6000;0.4982;0.1857;
141.9000;0.4974;0.1783;
142.2000;0.4974;0.1684;
142.5000;0.4933;0.1659;
142.8000;0.4974;0.1808;
143.1000;0.4982;0.1808;
143.4000;0.4974;0.1832;
143.7000;0.4982;0.1808;
144.0000;0.4974;0.1758;
144.3000;0.4957;0.1659;
144.6000;0.4974;0.1709;
144.9000;0.4974;0.1709;
145.2000;0.4974;0.1684;
145.5000;0.4990;0.1684;
145.8000;0.4949;0.1610;
146.1000;0.4974;0.1684;
146.4000;0.4990;0.1709;
146.7000;0.4982;0.1758;
147.0000;0.4917;0.1585;
147.3000;0.4982;0.1733;
147.6000;0.4998;0.1709;
147.9000;0.4990;0.1684;
148.2000;0.4974;0.1634;
148.5000;0.4990;0.1709;
148.8000;0.5006;0.1808;
149.1000;0.4982;0.1684;
149.4000;0.4990;0.1783;
149.7000;0.4982;0.1758;
150.0000;0.4974;0.1808;
150.3000;0.5039;0.2006;
150.6000;0.4990;0.1882;
150.9000;0.5006;0.2006;
151.2000;0.4974;0.1981;
151.5000;0.4974;0.1907;
151.8000;0.4957;0.1857;
152.1000;0.4974;0.1882;
152.4000;0.4982;0.1857;
152.7000;0.4990;0.1783;
153.0000;0.4974;0.1733;
153.3000;0.4957;0.1709;
153.6000;0.4949;0.1709;
153.9000;0.4949;0.1758;
154.2000;0.4998;0.1931;
154.5000;0.4974;0.1882;
154.8000;0.4982;0.1907;
155.1000;0.4982;0.1981;
155.4000;0.4957;0.1931;
155.7000;0.4982;0.1931;
156.0000;0.4957;0.1931;
156.3000;0.4965;0.1907;
156.6000;0.4982;0.1907;
156.9000;0.4965;0.1907;
157.2000;0.4982;0.1931;
157.5000;0.4974;0.1882;
157.8000;0.4982;0.1882;
158.1000;0.4965;0.1931;
158.4000;0.5128;0.2352;
158.7000;0.4974;0.1931;
159.0000;0.4990;0.1907;
159.3000;0.4982;0.1931;
159.6000;0.4990;0.1981;
159.9000;0.4982;0.1931;
160.2000;0.4957;0.1808;
160.5000;0.4949;0.1684;
160.8000;0.4990;0.1758;
161.1000;0.4974;0.1758;
161.4000;0.4965;0.1709;
161.7000;0.4965;0.1709;
162.0000;0.5031;0.1931;
162.3000;0.4974;0.1758;
162.6000;0.4965;0.1684;
162.9000;0.4949;0.1560;
163.2000;0.4990;0.1709;
163.5000;0.4974;0.1709;
163.8000;0.4965;0.1684;
164.1000;0.4965;0.1684;
164.4000;0.4982;0.1709;
164.7000;0.5006;0.1783;
165.0000;0.4982;0.1808;
165.3000;0.4982;0.1783;
165.6000;0.4982;0.1832;
165.9000;0.4990;0.1857;
166.2000;0.4982;0.1758;
166.5000;0.4982;0.1783;
166.8000;0.4965;0.1758;
167.1000;0.5006;0.1882;
167.4000;0.4965;0.1857;
167.7000;0.4957;0.1808;
168.0000;0.4957;0.1857;
168.3000;0.4974;0.1832;
168.6000;0.4965;0.1733;
168.9000;0.4974;0.1709;
169.2000;0.4965;0.1758;
169.5000;0.4974;0.1709;
169.8000;0.4990;0.1733;
170.1000;0.5006;0.1758;
170.4000;0.4965;0.1733;
170.7000;0.4990;0.1857;
171.0000;0.4974;0.1783;
171.3000;0.4982;0.1709;
171.6000;0.4974;0.1659;
171.9000;0.5031;0.1758;
172.2000;0.4998;0.1684;
172.5000;0.4974;0.1585;
172.8000;0.4965;0.1560;
173.1000;0.4974;0.1585;
173.4000;0.4941;0.1535;
173.7000;0.4974;0.1610;
174.0000;0.4990;0.1560;
174.3000;0.4974;0.1659;
174.6000;0.4965;0.1634;
174.9000;0.4957;0.1535;
175.2000;0.4982;0.1684;
175.5000;0.4974;0.1684;
175.8000;0.4990;0.1733;
176.1000;0.4998;0.1832;
176.4000;0.4965;0.1783;
176.7000;0.4965;0.1709;
177.0000;0.4982;0.1808;
177.3000;0.4957;0.1758;
177.6000;0.5006;0.1931;
177.9000;0.4982;0.1832;
178.2000;0.4982;0.1832;
178.5000;0.4982;0.1907;
178.8000;0.4974;0.2006;
179.1000;0.4982;0.1931;
179.4000;0.4957;0.1832;
179.7000;0.4974;0.1783;
180.0000;0.4982;0.1882;
180.3000;0.4974;0.1808;
180.6000;0.4982;0.1783;
180.9000;0.4974;0.1808;
181.2000;0.4990;0.1733;
181.5000;0.4998;0.1808;
181.8000;0.4982;0.1733;
182.1000;0.4998;0.1659;
182.4000;0.4990;0.1634;
182.7000;0.4982;0.1634;
183.0000;0.4974;0.1684;
183.3000;0.4982;0.1659;
183.6000;0.4965;0.1634;
183.9000;0.4917;0.1634;
184.2000;0.4974;0.1733;
184.5000;0.4974;0.1832;
184.8000;0.4982;0.1857;
185.1000;0.4990;0.1981;
185.4000;0.4990;0.2055;
185.7000;0.4982;0.2105;
186.0000;0.4965;0.2105;
186.3000;0.5022;0.2253;
186.6000;0.4982;0.2130;
186.9000;0.4982;0.2105;
187.2000;0.4998;0.2105;
187.5000;0.4957;0.2031;
187.8000;0.4965;0.2006;
188.1000;0.4957;0.1981;
188.4000;0.4965;0.2031;
188.7000;0.4982;0.2006;
189.0000;0.4974;0.1956;
189.3000;0.4982;0.1931;
189.6000;0.4974;0.1907;
189.9000;0.4974;0.1832;
190.2000;0.4965;0.1857;
190.5000;0.4982;0.1857;
190.8000;0.4982;0.1882;
191.1000;0.4982;0.1907;
191.4000;0.4982;0.1907;
191.7000;0.4982;0.1882;
192.0000;0.4965;0.1907;
192.3000;0.4965;0.1882;
192.6000;0.4974;0.1931;
192.9000;0.4990;0.1981;
193.2000;0.4965;0.1931;
193.5000;0.4982;0.1907;
193.8000;0.4957;0.1857;
194.1000;0.4974;0.1783;
194.4000;0.4990;0.1758;
194.7000;0.4974;0.1733;
195.0000;0.4965;0.1733;
195.3000;0.4949;0.1733;
195.6000;0.4990;0.1832;
195.9000;0.4957;0.1783;
196.2000;0.4949;0.1758;
196.5000;0.4974;0.1758;
196.8000;0.4957;0.1783;
197.1000;0.4974;0.1882;
197.4000;0.4974;0.1857;
197.7000;0.4974;0.1857;
198.0000;0.4974;0.1931;
198.3000;0.4990;0.1981;
198.6000;0.4949;0.1832;
198.9000;0.4957;0.1857;
199.2000;0.4957;0.1931;
199.5000;0.4982;0.1907;
199.8000;0.4957;0.1832;
200.1000;0.4998;0.1907;
200.4000;0.4998;0.1808;
200.7000;0.4974;0.1783;
201.0000;0.4990;0.1832;
201.3000;0.4965;0.1832;
201.6000;0.4965;0.1709;
201.9000;0.4974;0.1709;
202.2000;0.4990;0.1758;
202.5000;0.4982;0.1758;
202.8000;0.4990;0.1733;
203.1000;0.4974;0.1783;
203.4000;0.4957;0.1610;
203.7000;0.4982;0.1684;
204.0000;0.4990;0.1832;
204.3000;0.5039;0.2006;
204.6000;0.5031;0.1981;
204.9000;0.5055;0.2031;
205.2000;0.4982;0.1808;
205.5000;0.4965;0.1783;
205.8000;0.4974;0.1733;
206.1000;0.4990;0.1783;
206.4000;0.4974;0.1733;
206.7000;0.4982;0.1659;
207.0000;0.4990;0.1709;
207.3000;0.4965;0.1659;
207.6000;0.4974;0.1659;
207.9000;0.4957;0.1585;
208.2000;0.4957;0.1610;
208.5000;0.4998;0.1659;
208.8000;0.4982;0.1684;
209.1000;0.5022;0.1857;
209.4000;0.4974;0.1783;
209.7000;0.4974;0.1832;
210.0000;0.4949;0.1808;
210.3000;0.4982;0.1882;
210.6000;0.4965;0.1808;
210.9000;0.4974;0.1783;
211.2000;0.4982;0.1882;
211.5000;0.4982;0.1882;
211.8000;0.4957;0.1808;
212.1000;0.4925;0.1684;
212.4000;0.5031;0.1907;
212.7000;0.4965;0.1783;
213.0000;0.4974;0.1733;
213.3000;0.4957;0.1758;
213.6000;0.4990;0.1808;
213.9000;0.4974;0.1733;
214.2000;0.4957;0.1659;
214.5000;0.4941;0.1659;
214.8000;0.4949;0.1684;
215.1000;0.4957;0.1709;
215.4000;0.4957;0.1659;
215.7000;0.4982;0.1585;
216.0000;0.4974;0.1560;
216.3000;0.4949;0.1610;
216.6000;0.4998;0.1659;
216.9000;0.4884;0.1362;
217.2000;0.4965;0.1610;
217.5000;0.4990;0.1684;
217.8000;0.5031;0.1684;
218.1000;0.4982;0.1585;
218.4000;0.4965;0.1709;
218.7000;0.4965;0.1659;
219.0000;0.5014;0.1733;
219.3000;0.4965;0.1610;
219.6000;0.4933;0.1461;
219.9000;0.5006;0.1610;
220.2000;0.4998;0.1585;
220.5000;0.4990;0.1610;
220.8000;0.4990;0.1560;
221.1000;0.4982;0.1511;
221.4000;0.4982;0.1486;
221.7000;0.4965;0.1511;
222.0000;0.4990;0.1560;
222.3000;0.4974;0.1535;
222.6000;0.4982;0.1560;
222.9000;0.5079;0.1832;
223.2000;0.4974;0.1535;
223.5000;0.4990;0.1535;
223.8000;0.4982;0.1560;
224.1000;0.4974;0.1535;
224.4000;0.4941;0.1486;
224.7000;0.4998;0.1684;
225.0000;0.4965;0.1709;
225.3000;0.4990;0.1783;
225.6000;0.4974;0.1783;
225.9000;0.4982;0.1808;
226.2000;0.4982;0.1832;
226.5000;0.4982;0.1733;
226.8000;0.4965;0.1709;
227.1000;0.4990;0.1709;
227.4000;0.5014;0.1808;
227.7000;0.4998;0.1882;
228.0000;0.4941;0.1783;
228.3000;0.4965;0.1808;
228.6000;0.4957;0.1709;
228.9000;0.4965;0.1733;
229.2000;0.4949;0.1684;
229.5000;0.4982;0.1733;
229.8000;0.4965;0.1659;
230.1000;0.4974;0.1684;
230.4000;0.4957;0.1659;
230.7000;0.4982;0.1709;
231.0000;0.4982;0.1709;
231.3000;0.4965;0.1659;
231.6000;0.4957;0.1634;
231.9000;0.4941;0.1634;
232.2000;0.4974;0.1659;
232.5000;0.4941;0.1634;
232.8000;0.4990;0.1808;
233.1000;0.4998;0.1808;
233.4000;0.5014;0.1783;
233.7000;0.4965;0.1634;
234.0000;0.4974;0.1659;
234.3000;0.4998;0.1733;
234.6000;0.4974;0.1610;
234.9000;0.4982;0.1610;
235.2000;0.4957;0.1610;
235.5000;0.4900;0.1461;
235.8000;0.5071;0.1981;
236.1000;0.4990;0.1758;
236.4000;0.4990;0.1709;
236.7000;0.4957;0.1659;
237.0000;0.4982;0.1659;
237.3000;0.4965;0.1684;
237.6000;0.4957;0.1634;
237.9000;0.4957;0.1659;
238.2000;0.4965;0.1585;
238.5000;0.4965;0.1709;
238.8000;0.4957;0.1758;
239.1000;0.4949;0.1832;
239.4000;0.4957;0.1733;
239.7000;0.4965;0.1684;
240.0000;0.4949;0.1634;
240.3000;0.4957;0.1634;
240.6000;0.5022;0.1808;
240.9000;0.4990;0.1684;
241.2000;0.4982;0.1684;
241.5000;0.4974;0.1610;
241.8000;0.4974;0.1709;
242.1000;0.4990;0.1857;
242.4000;0.4982;0.1783;
242.7000;0.4982;0.1808;
243.0000;0.4982;0.1832;
243.3000;0.4949;0.1733;
243.6000;0.4974;0.1832;
243.9000;0.4982;0.1956;
244.2000;0.4957;0.1882;
244.5000;0.4990;0.1882;
244.8000;0.4998;0.1956;
245.1000;0.4998;0.1882;
245.4000;0.4982;0.1808;
245.7000;0.4990;0.1857;
246.0000;0.4990;0.1832;
246.3000;0.4998;0.1857;
246.6000;0.4982;0.1733;
246.9000;0.4990;0.1684;
247.2000;0.4990;0.1733;
247.5000;0.4933;0.1511;
247.8000;0.4982;0.1684;
248.1000;0.4949;0.1560;
248.4000;0.4900;0.1511;
248.7000;0.4965;0.1659;
249.0000;0.4965;0.1709;
249.3000;0.4965;0.1709;
249.6000;0.4990;0.1857;
249.9000;0.4982;0.1882;
250.2000;0.4965;0.1832;
250.5000;0.4941;0.1808;
250.8000;0.4982;0.1882;
251.1000;0.4974;0.1882;
251.4000;0.4949;0.1733;
251.7000;0.4990;0.1882;
252.0000;0.4990;0.1931;
252.3000;0.4998;0.1931;
252.6000;0.4990;0.1931;
252.9000;0.4982;0.1882;
253.2000;0.4982;0.1857;
253.5000;0.5006;0.1882;
253.8000;0.4998;0.1808;
254.1000;0.4974;0.1758;
254.4000;0.4974;0.1709;
254.7000;0.4957;0.1634;
255.0000;0.4990;0.1684;
255.3000;0.4965;0.1634;
255.6000;0.4990;0.1659;
255.9000;0.4941;0.1634;
256.2000;0.4941;0.1709;
256.5000;0.4974;0.1758;
256.8000;0.5006;0.1783;
257.1000;0.4982;0.1758;
257.4000;0.4990;0.1783;
257.7000;0.4965;0.1808;
258.0000;0.4990;0.1882;
258.3000;0.4965;0.1758;
258.6000;0.4957;0.1832;
258.9000;0.4917;0.1634;
259.2000;0.4965;0.1733;
259.5000;0.4957;0.1783;
259.8000;0.4949;0.1783;
260.1000;0.4965;0.1832;
260.4000;0.4965;0.1808;
260.7000;0.4957;0.1783;
261.0000;0.4982;0.1832;
261.3000;0.4974;0.1733;
261.6000;0.4974;0.1733;
261.9000;0.4974;0.1684;
262.2000;0.4974;0.1709;
262.5000;0.4974;0.1634;
262.8000;0.4974;0.1610;
263.1000;0.4974;0.1659;
263.4000;0.4957;0.1610;
263.7000;0.4965;0.1659;
264.0000;0.4982;0.1634;
264.3000;0.4982;0.1659;
264.6000;0.4982;0.1733;
264.9000;0.4974;0.1709;
265.2000;0.4925;0.1585;
265.5000;0.4982;0.1709;
265.8000;0.4974;0.1733;
266.1000;0.4974;0.1634;
266.4000;0.4982;0.1610;
266.7000;0.4982;0.1684;
267.0000;0.4974;0.1610;
267.3000;0.4974;0.1634;
267.6000;0.4974;0.1659;
267.9000;0.4965;0.1560;
268.2000;0.4974;0.1585;
268.5000;0.4965;0.1610;
268.8000;0.4957;0.1535;
269.1000;0.4982;0.1610;
269.4000;0.4965;0.1610;
269.7000;0.4974;0.1634;
270.0000;0.4974;0.1560;
270.3000;0.4949;0.1486;
270.6000;0.4982;0.1585;
270.9000;0.4949;0.1585;
271.2000;0.4925;0.1486;
271.5000;0.5006;0.1659;
271.8000;0.4974;0.1634;
272.1000;0.5014;0.1709;
272.4000;0.5039;0.1783;
272.7000;0.4965;0.1634;
273.0000;0.4965;0.1585;
273.3000;0.4949;0.1610;
273.6000;0.4965;0.1610;
273.9000;0.4949;0.1585;
274.2000;0.4965;0.1511;
274.5000;0.5055;0.1783;
274.8000;0.4990;0.1585;
275.1000;0.4974;0.1585;
275.4000;0.4900;0.1387;
275.7000;0.4982;0.1560;
276.0000;0.4965;0.1585;
276.3000;0.4974;0.1610;
276.6000;0.4982;0.1659;
276.9000;0.4982;0.1758;
277.2000;0.4974;0.1709;
277.5000;0.4974;0.1659;
277.8000;0.4965;0.1634;
278.1000;0.4990;0.1610;
278.4000;0.4990;0.1634;
278.7000;0.4990;0.1758;
279.0000;0.4998;0.1684;
279.3000;0.4974;0.1585;
279.6000;0.4990;0.1585;
279.9000;0.4990;0.1560;
280.2000;0.4982;0.1610;
280.5000;0.4974;0.1560;
280.8000;0.4974;0.1684;
281.1000;0.4974;0.1684;
281.4000;0.4974;0.1733;
281.7000;0.4965;0.1709;
282.0000;0.4965;0.1634;
282.3000;0.4957;0.1634;
282.6000;0.4974;0.1659;
282.9000;0.4982;0.1758;
283.2000;0.4974;0.1709;
283.5000;0.4982;0.1733;
283.8000;0.4982;0.1659;
284.1000;0.4965;0.1610;
284.4000;0.4957;0.1659;
284.7000;0.4957;0.1709;
285.0000;0.4982;0.1709;
285.3000;0.4982;0.1684;
285.6000;0.4965;0.1659;
285.9000;0.4974;0.1684;
286.2000;0.4965;0.1634;
286.5000;0.4982;0.1659;
286.8000;0.4965;0.1709;
287.1000;0.4965;0.1733;
287.4000;0.4982;0.1783;
287.7000;0.4974;0.1783;
288.0000;0.4974;0.1733;
288.3000;0.4917;0.1585;
288.6000;0.4965;0.1709;
288.9000;0.4974;0.1733;
289.2000;0.4941;0.1634;
289.5000;0.4965;0.1733;
289.8000;0.4974;0.1733;
290.1000;0.4974;0.1709;
290.4000;0.4982;0.1610;
290.7000;0.4974;0.1585;
291.0000;0.4982;0.1684;
291.3000;0.4974;0.1659;
291.6000;0.4957;0.1684;
291.9000;0.5055;0.1857;
292.2000;0.4974;0.1684;
292.5000;0.4965;0.1758;
292.8000;0.5006;0.1783;
293.1000;0.4965;0.1709;
293.4000;0.4982;0.1808;
293.7000;0.4965;0.1758;
294.0000;0.4982;0.1783;
294.3000;0.5006;0.1956;
294.6000;0.4957;0.1882;
294.9000;0.4974;0.1808;
295.2000;0.4982;0.1857;
295.5000;0.5022;0.1956;
295.8000;0.4982;0.1832;
296.1000;0.4982;0.1808;
296.4000;0.5022;0.1857;
296.7000;0.4990;0.1808;
297.0000;0.4982;0.1808;
297.3000;0.4957;0.1783;
297.6000;0.4974;0.1783;
297.9000;0.5022;0.1956;
298.2000;0.4949;0.1783;
298.5000;0.4982;0.1783;
298.8000;0.4957;0.1684;
299.1000;0.5006;0.1758;
299.4000;0.4982;0.1709;
299.7000;0.4965;0.1659;
300.0000;0.4982;0.1684;
300.3000;0.4982;0.1610;
300.6000;0.4990;0.1585;
300.9000;0.4982;0.1684;
301.2000;0.5006;0.1709;
301.5000;0.4982;0.1758;
301.8000;0.4998;0.1758;
302.1000;0.4982;0.1709;
302.4000;0.4982;0.1684;
302.7000;0.4990;0.1709;
303.0000;0.4990;0.1758;
303.3000;0.4990;0.1634;
303.6000;0.4974;0.1634;
303.9000;0.4974;0.1659;
304.2000;0.4949;0.1610;
304.5000;0.4965;0.1634;
304.8000;0.4965;0.1610;
305.1000;0.4965;0.1634;
305.4000;0.4974;0.1610;
305.7000;0.4982;0.1511;
306.0000;0.4974;0.1560;
306.3000;0.4974;0.1560;
306.6000;0.4982;0.1511;
306.9000;0.4998;0.1560;
307.2000;0.4957;0.1511;
307.5000;0.4957;0.1585;
307.8000;0.4965;0.1659;
308.1000;0.4974;0.1659;
308.4000;0.4982;0.1783;
308.7000;0.4965;0.1783;
309.0000;0.4965;0.1857;
309.3000;0.4982;0.1882;
309.6000;0.4965;0.1733;
309.9000;0.4965;0.1684;
310.2000;0.4933;0.1610;
310.5000;0.5031;0.1783;
310.8000;0.4965;0.1684;
311.1000;0.4965;0.1585;
311.4000;0.4990;0.1659;
311.7000;0.4982;0.1610;
312.0000;0.4982;0.1610;
312.3000;0.4982;0.1634;
312.6000;0.4965;0.1585;
312.9000;0.4982;0.1709;
313.2000;0.4974;0.1709;
313.5000;0.4974;0.1684;
313.8000;0.4974;0.1585;
314.1000;0.4965;0.1560;
314.4000;0.4990;0.1585;
314.7000;0.4982;0.1560;
315.0000;0.4965;0.1486;
315.3000;0.4949;0.1585;
315.6000;0.4965;0.1659;
315.9000;0.4965;0.1659;
316.2000;0.4974;0.1709;
316.5000;0.4949;0.1709;
316.8000;0.4974;0.1882;
317.1000;0.4941;0.1882;
317.4000;0.4933;0.1857;
317.7000;0.4957;0.1758;
318.0000;0.4949;0.1709;
318.3000;0.4965;0.1634;
318.6000;0.4892;0.1461;
318.9000;0.5014;0.1808;
319.2000;0.4957;0.1709;
319.5000;0.4965;0.1585;
319.8000;0.4974;0.1659;
320.1000;0.4949;0.1659;
320.4000;0.4957;0.1709;
320.7000;0.5031;0.1931;
321.0000;0.4949;0.1733;
321.3000;0.4982;0.1758;
321.6000;0.4965;0.1808;
321.9000;0.4965;0.1907;
322.2000;0.4974;0.2031;
322.5000;0.4982;0.2080;
322.8000;0.4974;0.1981;
323.1000;0.4965;0.1857;
323.4000;0.4974;0.1808;
323.7000;0.4982;0.1758;
324.0000;0.4974;0.1783;
324.3000;0.4965;0.1709;
324.6000;0.4965;0.1733;
324.9000;0.4965;0.1832;
325.2000;0.4998;0.1882;
325.5000;0.4982;0.1783;
325.8000;0.4982;0.1832;
326.1000;0.4974;0.1832;
326.4000;0.4982;0.1808;
326.7000;0.4974;0.1783;
327.0000;0.4925;0.1684;
327.3000;0.4998;0.1882;
327.6000;0.4990;0.1931;
327.9000;0.5006;0.1931;
328.2000;0.4917;0.1659;
328.5000;0.5014;0.1956;
328.8000;0.4990;0.1907;
329.1000;0.4982;0.1832;
329.4000;0.4974;0.1783;
329.7000;0.4982;0.1857;
330.0000;0.5014;0.2031;
330.3000;0.4974;0.1808;
330.6000;0.4982;0.1808;
330.9000;0.4957;0.1659;
331.2000;0.5014;0.1733;
331.5000;0.4982;0.1634;
331.8000;0.4965;0.1610;
332.1000;0.4965;0.1684;
332.4000;0.4965;0.1634;
332.7000;0.4990;0.1659;
333.0000;0.4974;0.1610;
333.3000;0.4974;0.1709;
333.6000;0.4990;0.1832;
333.9000;0.5039;0.2006;
334.2000;0.4974;0.1808;
334.5000;0.4982;0.1733;
334.8000;0.4982;0.1758;
335.1000;0.4982;0.1733;
335.4000;0.4974;0.1733;
335.7000;0.4957;0.1733;
336.0000;0.4974;0.1659;
336.3000;0.4965;0.1610;
336.6000;0.4974;0.1733;
336.9000;0.4974;0.1684;
337.2000;0.4917;0.1585;
337.5000;0.4990;0.1758;
337.8000;0.4982;0.1758;
338.1000;0.4982;0.1733;
338.4000;0.4982;0.1783;
338.7000;0.4965;0.1709;
339.0000;0.4965;0.1560;
339.3000;0.4965;0.1511;
339.6000;0.4974;0.1461;
339.9000;0.4974;0.1436;
340.2000;0.4974;0.1337;
340.5000;0.4974;0.1486;
340.8000;0.4990;0.1610;
341.1000;0.4982;0.1585;
341.4000;0.4990;0.1634;
341.7000;0.4982;0.1560;
342.0000;0.4990;0.1659;
342.3000;0.4990;0.1659;
342.6000;0.4933;0.1511;
342.9000;0.4965;0.1610;
343.2000;0.5006;0.1684;
343.5000;0.4998;0.1585;
343.8000;0.4965;0.1486;
344.1000;0.4949;0.1511;
344.4000;0.4957;0.1461;
344.7000;0.4965;0.1585;
345.0000;0.4965;0.1511;
345.3000;0.4990;0.1560;
345.6000;0.4957;0.1511;
345.9000;0.4933;0.1486;
346.2000;0.4908;0.1387;
346.5000;0.4982;0.1585;
346.8000;0.4917;0.1387;
347.1000;0.4965;0.1511;
347.4000;0.4974;0.1585;
347.7000;0.4990;0.1659;
348.0000;0.4998;0.1709;
348.3000;0.5006;0.1733;
348.6000;0.4941;0.1535;
348.9000;0.4974;0.1560;
349.2000;0.4949;0.1585;
349.5000;0.4949;0.1535;
349.8000;0.4990;0.1610;
350.1000;0.4982;0.1535;
350.4000;0.4965;0.1560;
350.7000;0.4998;0.1733;
351.0000;0.5031;0.1808;
351.3000;0.5006;0.1758;
351.6000;0.4965;0.1684;
351.9000;0.4965;0.1684;
352.2000;0.4925;0.1684;
352.5000;0.4941;0.1709;
352.8000;0.4941;0.1709;
353.1000;0.4957;0.1709;
353.4000;0.4925;0.1659;
353.7000;0.4965;0.1709;
354.0000;0.4908;0.1511;
354.3000;0.4965;0.1610;
354.6000;0.4941;0.1486;
354.9000;0.4990;0.1709;
355.2000;0.4957;0.1634;
355.5000;0.4974;0.1585;
355.8000;0.4957;0.1560;
356.1000;0.4974;0.1610;
356.4000;0.4982;0.1560;
356.7000;0.4974;0.1511;
357.0000;0.4965;0.1511;
357.3000;0.4974;0.1560;
357.6000;0.4965;0.1585;
357.9000;0.4974;0.1659;
358.2000;0.4957;0.1585;
358.5000;0.4974;0.1560;
358.8000;0.4965;0.1610;
359.1000;0.4965;0.1610;
359.4000;0.4941;0.1535;
359.7000;0.4965;0.1634;
360.0000;0.4957;0.1560;
360.3000;0.4974;0.1585;
360.6000;0.4990;0.1560;
360.9000;0.4965;0.1560;
361.2000;0.5039;0.1733;
361.5000;0.4974;0.1585;
361.8000;0.4982;0.1659;
362.1000;0.4965;0.1585;
362.4000;0.4957;0.1560;
362.7000;0.4965;0.1610;
363.0000;0.4990;0.1733;
363.3000;0.4949;0.1659;
363.6000;0.4949;0.1709;
363.9000;0.4957;0.1709;
364.2000;0.4982;0.1709;
364.5000;0.4974;0.1684;
364.8000;0.4982;0.1610;
365.1000;0.4990;0.1585;
365.4000;0.4998;0.1535;
365.7000;0.4974;0.1535;
366.0000;0.4974;0.1560;
366.3000;0.4982;0.1585;
366.6000;0.4990;0.1684;
366.9000;0.4982;0.1634;
367.2000;0.4949;0.1511;
367.5000;0.4982;0.1560;
367.8000;0.4990;0.1585;
368.1000;0.4982;0.1511;
368.4000;0.4908;0.1288;
368.7000;0.4990;0.1511;
369.0000;0.4974;0.1461;
369.3000;0.4974;0.1486;
369.6000;0.4974;0.1461;
369.9000;0.4974;0.1511;
370.2000;0.4982;0.1486;
370.5000;0.4957;0.1511;
370.8000;0.4957;0.1535;
371.1000;0.4941;0.1411;
371.4000;0.4974;0.1461;
371.7000;0.4982;0.1535;
372.0000;0.4925;0.1387;
372.3000;0.4965;0.1610;
372.6000;0.4982;0.1585;
372.9000;0.4982;0.1610;
373.2000;0.4974;0.1684;
373.5000;0.4974;0.1709;
373.8000;0.4990;0.1684;
374.1000;0.4998;0.1783;
374.4000;0.4990;0.1709;
374.7000;0.4957;0.1634;
375.0000;0.4965;0.1733;
375.3000;0.4974;0.1659;
375.6000;0.4957;0.1684;
375.9000;0.4965;0.1783;
376.2000;0.4933;0.1684;
376.5000;0.4949;0.1733;
376.8000;0.4965;0.1783;
377.1000;0.5031;0.1907;
377.4000;0.4974;0.1857;
377.7000;0.4965;0.1733;
378.0000;0.4974;0.1659;
378.3000;0.4965;0.1634;
378.6000;0.4974;0.1634;
378.9000;0.4974;0.1659;
379.2000;0.4982;0.1709;
379.5000;0.4982;0.1733;
379.8000;0.4974;0.1684;
380.1000;0.4949;0.1560;
380.4000;0.4990;0.1535;
380.7000;0.4998;0.1511;
381.0000;0.4990;0.1560;
381.3000;0.4957;0.1535;
381.6000;0.4965;0.1486;
381.9000;0.4998;0.1461;
382.2000;0.4982;0.1411;
382.5000;0.5022;0.1585;
382.8000;0.4990;0.1511;
383.1000;0.4982;0.1535;
383.4000;0.4982;0.1486;
383.7000;0.4965;0.1511;
384.0000;0.4965;0.1486;
384.3000;0.4908;0.1238;
384.6000;0.4982;0.1535;
384.9000;0.4965;0.1511;
385.2000;0.4974;0.1461;
385.5000;0.4965;0.1486;
385.8000;0.4974;0.1585;
386.1000;0.4974;0.1610;
386.4000;0.4974;0.1585;
386.7000;0.4957;0.1610;
387.0000;0.4965;0.1486;
387.3000;0.4998;0.1610;
387.6000;0.4949;0.1535;
387.9000;0.4941;0.1461;
388.2000;0.4949;0.1411;
388.5000;0.4925;0.1288;
388.8000;0.4957;0.1411;
389.1000;0.4965;0.1411;
389.4000;0.4892;0.1312;
389.7000;0.4982;0.1659;
390.0000;0.4965;0.1659;
390.3000;0.4974;0.1733;
390.6000;0.4974;0.1709;
390.9000;0.4982;0.1758;
391.2000;0.4982;0.1783;
391.5000;0.4941;0.1709;
391.8000;0.4965;0.1733;
392.1000;0.4982;0.1758;
392.4000;0.4933;0.1585;
392.7000;0.4957;0.1709;
393.0000;0.4965;0.1709;
393.3000;0.4974;0.1659;
393.6000;0.4990;0.1659;
393.9000;0.4998;0.1684;
394.2000;0.4949;0.1511;
394.5000;0.4957;0.1585;
394.8000;0.4990;0.1733;
395.1000;0.4990;0.1733;
395.4000;0.4982;0.1659;
395.7000;0.4941;0.1511;
396.0000;0.4974;0.1585;
396.3000;0.4982;0.1659;
396.6000;0.4965;0.1560;
396.9000;0.4965;0.1461;
397.2000;0.4974;0.1486;
397.5000;0.4982;0.1535;
397.8000;0.4933;0.1436;
398.1000;0.4982;0.1560;
398.4000;0.4974;0.1461;
398.7000;0.4982;0.1560;
399.0000;0.4982;0.1560;
399.3000;0.4990;0.1511;
399.6000;0.4982;0.1535;
399.9000;0.4965;0.1684;
400.2000;0.5022;0.1733;
400.5000;0.4982;0.1709;
400.8000;0.4974;0.1634;
401.1000;0.4974;0.1659;
401.4000;0.4982;0.1659;
401.7000;0.4974;0.1709;
402.0000;0.4965;0.1659;
402.3000;0.4965;0.1684;
402.6000;0.4982;0.1709;
402.9000;0.4965;0.1634;
403.2000;0.4965;0.1659;
403.5000;0.4974;0.1610;
403.8000;0.4965;0.1659;
404.1000;0.4982;0.1709;
404.4000;0.4974;0.1709;
404.7000;0.4965;0.1709;
405.0000;0.4982;0.1783;
405.3000;0.5039;0.1882;
405.6000;0.4933;0.1634;
405.9000;0.4982;0.1733;
406.2000;0.4965;0.1783;
406.5000;0.4982;0.1857;
406.8000;0.4974;0.1907;
407.1000;0.4957;0.1783;
407.4000;0.4965;0.1709;
407.7000;0.4974;0.1709;
408.0000;0.4974;0.1684;
408.3000;0.4974;0.1709;
408.6000;0.4957;0.1659;
408.9000;0.4965;0.1758;
409.2000;0.4965;0.1783;
409.5000;0.4974;0.1733;
409.8000;0.4974;0.1857;
410.1000;0.4990;0.1857;
410.4000;0.4941;0.1684;
410.7000;0.4974;0.1758;
411.0000;0.4974;0.1758;
411.3000;0.4949;0.1709;
411.6000;0.4982;0.1832;
411.9000;0.4974;0.1758;
412.2000;0.4965;0.1709;
412.5000;0.4965;0.1659;
412.8000;0.4949;0.1684;
413.1000;0.4965;0.1758;
413.4000;0.4957;0.1758;
413.7000;0.4949;0.1783;
414.0000;0.4965;0.1758;
414.3000;0.4965;0.1783;
414.6000;0.4949;0.1709;
414.9000;0.5031;0.1907;
415.2000;0.4965;0.1783;
415.5000;0.4982;0.1857;
415.8000;0.4982;0.1882;
416.1000;0.4990;0.1931;
416.4000;0.4957;0.1832;
416.7000;0.4974;0.1808;
417.0000;0.4974;0.1857;
417.3000;0.4974;0.1783;
417.6000;0.4949;0.1610;
417.9000;0.4990;0.1684;
418.2000;0.4974;0.1560;
418.5000;0.4965;0.1560;
418.8000;0.4925;0.1511;
419.1000;0.4965;0.1610;
419.4000;0.4965;0.1659;
419.7000;0.4949;0.1610;
420.0000;0.5006;0.1808;
420.3000;0.4957;0.1709;
420.6000;0.4965;0.1758;
420.9000;0.4982;0.1832;
421.2000;0.4957;0.1832;
421.5000;0.4957;0.1857;
421.8000;0.4965;0.1882;
422.1000;0.4974;0.1907;
422.4000;0.4965;0.1808;
422.7000;0.4974;0.1808;
423.0000;0.4957;0.1733;
423.3000;0.4974;0.1684;
423.6000;0.4974;0.1684;
423.9000;0.4965;0.1684;
424.2000;0.5063;0.1956;
424.5000;0.4982;0.1733;
424.8000;0.4974;0.1659;
425.1000;0.4982;0.1634;
425.4000;0.4965;0.1535;
425.7000;0.4974;0.1610;
426.0000;0.4876;0.1337;
426.3000;0.4982;0.1535;
426.6000;0.4965;0.1610;
426.9000;0.4982;0.1610;
427.2000;0.4982;0.1709;
427.5000;0.4974;0.1610;
427.8000;0.4900;0.1461;
428.1000;0.4957;0.1535;
428.4000;0.4982;0.1585;
428.7000;0.4965;0.1659;
429.0000;0.4974;0.1684;
429.3000;0.4965;0.1585;
429.6000;0.4957;0.1511;
429.9000;0.4974;0.1486;
430.2000;0.4900;0.1387;
430.5000;0.4974;0.1610;
430.8000;0.4974;0.1684;
431.1000;0.4965;0.1634;
431.4000;0.4957;0.1610;
431.7000;0.4965;0.1585;
432.0000;0.4957;0.1560;
432.3000;0.4965;0.1560;
432.6000;0.4974;0.1585;
432.9000;0.4982;0.1659;
433.2000;0.4965;0.1659;
433.5000;0.4998;0.1808;
433.8000;0.4974;0.1733;
434.1000;0.4957;0.1709;
434.4000;0.4949;0.1634;
434.7000;0.4982;0.1709;
435.0000;0.4965;0.1610;
435.3000;0.4957;0.1634;
435.6000;0.4998;0.1709;
435.9000;0.4974;0.1684;
436.2000;0.4998;0.1709;
436.5000;0.4965;0.1684;
436.8000;0.4957;0.1560;
437.1000;0.4917;0.1387;
437.4000;0.4974;0.1585;
437.7000;0.4974;0.1560;
438.0000;0.4957;0.1511;
438.3000;0.4957;0.1436;
438.6000;0.4933;0.1337;
438.9000;0.4982;0.1436;
439.2000;0.5006;0.1486;
439.5000;0.4974;0.1387;
439.8000;0.4990;0.1461;
440.1000;0.5055;0.1758;
440.4000;0.4965;0.1560;
440.7000;0.4941;0.1560;
441.0000;0.4974;0.1659;
441.3000;0.4965;0.1610;
441.6000;0.4933;0.1585;
441.9000;0.5071;0.1956;
442.2000;0.4933;0.1634;
442.5000;0.4974;0.1808;
442.8000;0.4965;0.1783;
443.1000;0.4982;0.1758;
443.4000;0.4974;0.1733;
443.7000;0.4908;0.1585;
444.0000;0.4990;0.1733;
444.3000;0.4965;0.1733;
444.6000;0.4974;0.1709;
444.9000;0.4982;0.1634;
445.2000;0.4982;0.1659;
445.5000;0.4974;0.1659;
445.8000;0.4982;0.1634;
446.1000;0.4974;0.1634;
446.4000;0.4974;0.1684;
446.7000;0.4974;0.1659;
447.0000;0.5055;0.1907;
447.3000;0.4974;0.1709;
447.6000;0.4965;0.1709;
447.9000;0.4957;0.1733;
448.2000;0.5039;0.1956;
448.5000;0.4982;0.1882;
448.8000;0.4965;0.1758;
449.1000;0.4982;0.1783;
449.4000;0.4974;0.1758;
449.7000;0.4990;0.1907;
450.0000;0.5031;0.2080;
450.3000;0.4990;0.1931;
450.6000;0.4982;0.1907;
450.9000;0.4982;0.1907;
451.2000;0.4965;0.1931;
451.5000;0.4982;0.2006;
451.8000;0.4965;0.1931;
452.1000;0.4982;0.1956;
452.4000;0.4974;0.1981;
452.7000;0.4965;0.1981;
453.0000;0.4982;0.1956;
453.3000;0.4884;0.1610;
453.6000;0.4974;0.1733;
453.9000;0.4965;0.1684;
454.2000;0.4965;0.1684;
454.5000;0.4974;0.1709;
454.8000;0.4965;0.1733;
455.1000;0.4957;0.1684;
455.4000;0.4965;0.1659;
455.7000;0.4974;0.1610;
456.0000;0.4965;0.1610;
456.3000;0.4974;0.1709;
456.6000;0.4957;0.1783;
456.9000;0.4965;0.1857;
457.2000;0.4949;0.1808;
457.5000;0.4941;0.1709;
457.8000;0.4982;0.1907;
458.1000;0.4965;0.1907;
458.4000;0.4974;0.1956;
458.7000;0.5031;0.2080;
459.0000;0.4957;0.1882;
459.3000;0.4990;0.2006;
459.6000;0.4982;0.2006;
459.9000;0.4998;0.2080;
460.2000;0.4990;0.1981;
460.5000;0.4998;0.1981;
460.8000;0.4982;0.2055;
461.1000;0.4990;0.2055;
461.4000;0.4990;0.2031;
461.7000;0.4974;0.1956;
462.0000;0.4949;0.1907;
462.3000;0.4974;0.1907;
462.6000;0.4933;0.1832;
462.9000;0.4933;0.1857;
463.2000;0.4998;0.1981;
463.5000;0.4974;0.1733;
463.8000;0.4941;0.1659;
464.1000;0.4965;0.1709;
464.4000;0.4974;0.1758;
464.7000;0.4933;0.1560;
465.0000;0.4982;0.1684;
465.3000;0.4965;0.1659;
465.6000;0.4982;0.1709;
465.9000;0.4908;0.1535;
466.2000;0.4957;0.1733;
466.5000;0.4990;0.1808;
466.8000;0.4965;0.1832;
467.1000;0.4990;0.1931;
467.4000;0.4982;0.1857;
467.7000;0.5047;0.2006;
468.0000;0.4908;0.1585;
468.3000;0.4974;0.1758;
468.6000;0.4982;0.1758;
468.9000;0.4949;0.1684;
469.2000;0.4990;0.1783;
469.5000;0.4957;0.1808;
469.8000;0.4957;0.1931;
470.1000;0.4949;0.2031;
470.4000;0.4982;0.2055;
470.7000;0.4982;0.2080;
471.0000;0.4957;0.1981;
471.3000;0.4949;0.1882;
471.6000;0.4965;0.1857;
471.9000;0.4965;0.1758;
472.2000;0.4957;0.1684;
472.5000;0.4965;0.1733;
472.8000;0.4957;0.1709;
473.1000;0.4957;0.1733;
473.4000;0.4965;0.1733;
473.7000;0.4982;0.1758;
474.0000;0.4949;0.1634;
474.3000;0.4949;0.1585;
474.6000;0.4957;0.1511;
474.9000;0.4974;0.1585;
475.2000;0.4965;0.1585;
475.5000;0.4949;0.1511;
475.8000;0.4949;0.1535;
476.1000;0.4957;0.1535;
476.4000;0.4982;0.1659;
476.7000;0.4949;0.1560;
477.0000;0.4974;0.1535;
477.3000;0.4925;0.1436;
477.6000;0.4949;0.1511;
477.9000;0.4982;0.1535;
478.2000;0.4965;0.1461;
478.5000;0.4941;0.1436;
478.8000;0.4974;0.1560;
479.1000;0.4974;0.1560;
479.4000;0.4965;0.1511;
479.7000;0.4941;0.1511;
480.0000;0.4957;0.1486;
480.3000;0.4982;0.1511;
480.6000;0.4965;0.1486;
480.9000;0.4965;0.1411;
481.2000;0.4974;0.1461;
481.5000;0.4965;0.1337;
481.8000;0.4949;0.1387;
482.1000;0.4949;0.1486;
482.4000;0.4941;0.1511;
482.7000;0.4974;0.1585;
483.0000;0.4965;0.1535;
483.3000;0.4949;0.1486;
483.6000;0.4965;0.1585;
483.9000;0.4941;0.1560;
484.2000;0.4974;0.1634;
484.5000;0.4974;0.1610;
484.8000;0.4933;0.1535;
485.1000;0.4965;0.1634;
485.4000;0.4917;0.1511;
485.7000;0.4957;0.1758;
486.0000;0.4957;0.1758;
486.3000;0.4957;0.1709;
486.6000;0.4941;0.1733;
486.9000;0.4941;0.1659;
487.2000;0.4965;0.1857;
487.5000;0.4957;0.1733;
487.8000;0.4982;0.1709;
488.1000;0.4998;0.1783;
488.4000;0.4965;0.1733;
488.7000;0.4957;0.1684;
489.0000;0.4974;0.1808;
489.3000;0.4965;0.1808;
489.6000;0.4949;0.1733;
489.9000;0.4949;0.1733;
490.2000;0.4957;0.1659;
490.5000;0.4982;0.1709;
490.8000;0.4965;0.1659;
491.1000;0.4949;0.1684;
491.4000;0.4965;0.1758;
491.7000;0.4965;0.1832;
492.0000;0.4957;0.1733;
492.3000;0.4965;0.1684;
492.6000;0.4982;0.1634;
492.9000;0.4949;0.1486;
493.2000;0.4974;0.1560;
493.5000;0.4965;0.1610;
493.8000;0.4965;0.1610;
494.1000;0.4965;0.1610;
494.4000;0.4949;0.1486;
494.7000;0.4965;0.1486;
495.0000;0.4965;0.1461;
495.3000;0.4965;0.1486;
495.6000;0.4974;0.1486;
495.9000;0.4949;0.1411;
496.2000;0.4949;0.1411;
496.5000;0.4965;0.1411;
496.8000;0.4974;0.1511;
497.1000;0.4965;0.1511;
497.4000;0.4965;0.1610;
497.7000;0.4974;0.1610;
498.0000;0.4990;0.1634;
498.3000;0.4982;0.1560;
498.6000;0.4982;0.1436;
498.9000;0.4990;0.1411;
499.2000;0.4974;0.1362;
499.5000;0.4982;0.1535;
499.8000;0.4974;0.1535;
500.1000;0.4965;0.1585;
500.4000;0.4957;0.1560;
500.7000;0.4965;0.1560;
501.0000;0.4974;0.1560;
501.3000;0.4908;0.1411;
501.6000;0.4965;0.1585;
501.9000;0.4957;0.1585;
502.2000;0.4965;0.1659;
502.5000;0.4974;0.1709;
502.8000;0.4941;0.1684;
503.1000;0.4933;0.1659;
503.4000;0.4982;0.1832;
503.7000;0.4974;0.1758;
504.0000;0.4965;0.1783;
504.3000;0.4974;0.1709;
504.6000;0.4974;0.1659;
504.9000;0.4982;0.1610;
505.2000;0.4965;0.1535;
505.5000;0.4957;0.1560;
505.8000;0.5039;0.1634;
506.1000;0.4982;0.1535;
506.4000;0.4974;0.1511;
506.7000;0.4957;0.1362;
507.0000;0.5039;0.1634;
507.3000;0.4949;0.1436;
507.6000;0.4957;0.1411;
507.9000;0.4974;0.1560;
508.2000;0.4925;0.1486;
508.5000;0.4965;0.1659;
508.8000;0.4965;0.1709;
509.1000;0.5014;0.1956;
509.4000;0.4949;0.1758;
509.7000;0.5022;0.1832;
510.0000;0.4974;0.1783;
510.3000;0.4965;0.1709;
510.6000;0.4965;0.1684;
510.9000;0.4974;0.1709;
511.2000;0.4957;0.1659;
511.5000;0.4974;0.1634;
511.8000;0.4965;0.1585;
512.1000;0.4965;0.1511;
512.4000;0.4957;0.1585;
512.7000;0.4974;0.1684;
513.0000;0.4941;0.1709;
513.3000;0.4957;0.1733;
513.6000;0.4965;0.1733;
513.9000;0.4965;0.1733;
514.2000;0.4974;0.1783;
514.5000;0.4974;0.1758;
514.8000;0.4990;0.1857;
515.1000;0.4982;0.1832;
515.4000;0.4982;0.1907;
515.7000;0.4974;0.1857;
516.0000;0.4957;0.1709;
516.3000;0.4974;0.1808;
516.6000;0.4965;0.1857;
516.9000;0.4965;0.1907;
517.2000;0.4917;0.1709;
517.5000;0.4965;0.1783;
517.8000;0.4974;0.1758;
518.1000;0.5022;0.1882;
518.4000;0.4957;0.1758;
518.7000;0.4949;0.1709;
519.0000;0.4965;0.1709;
519.3000;0.4949;0.1758;
519.6000;0.4957;0.1758;
519.9000;0.4974;0.1758;
520.2000;0.4974;0.1857;
520.5000;0.4982;0.1882;
520.8000;0.4965;0.1808;
521.1000;0.4941;0.1684;
521.4000;0.4974;0.1808;
521.7000;0.4974;0.1709;
522.0000;0.4957;0.1659;
522.3000;0.4949;0.1659;
522.6000;0.4965;0.1709;
522.9000;0.4965;0.1733;
523.2000;0.4974;0.1758;
523.5000;0.4998;0.1783;
523.8000;0.4965;0.1684;
524.1000;0.4957;0.1634;
524.4000;0.4982;0.1709;
524.7000;0.4974;0.1684;
525.0000;0.4957;0.1659;
525.3000;0.4949;0.1585;
525.6000;0.4933;0.1511;
525.9000;0.4965;0.1560;
526.2000;0.4998;0.1659;
526.5000;0.4957;0.1585;
526.8000;0.4925;0.1486;
527.1000;0.4957;0.1511;
527.4000;0.4941;0.1610;
527.7000;0.4957;0.1634;
528.0000;0.4965;0.1684;
528.3000;0.4949;0.1659;
528.6000;0.5055;0.1882;
528.9000;0.4957;0.1560;
529.2000;0.4957;0.1535;
529.5000;0.4949;0.1585;
529.8000;0.4974;0.1585;
530.1000;0.4933;0.1511;
530.4000;0.4957;0.1560;
530.7000;0.4990;0.1634;
531.0000;0.4957;0.1560;
531.3000;0.4941;0.1535;
531.6000;0.4965;0.1535;
531.9000;0.4965;0.1560;
532.2000;0.4965;0.1535;
532.5000;0.4957;0.1610;
532.8000;0.4974;0.1659;
533.1000;0.4965;0.1634;
533.4000;0.4933;0.1560;
533.7000;0.4957;0.1634;
534.0000;0.4941;0.1560;
534.3000;0.4974;0.1634;
534.6000;0.4982;0.1709;
534.9000;0.4957;0.1659;
535.2000;0.4941;0.1560;
535.5000;0.4957;0.1684;
535.8000;0.4908;0.1535;
536.1000;0.4982;0.1808;
536.4000;0.4876;0.1585;
536.7000;0.4957;0.1857;
537.0000;0.4941;0.1783;
537.3000;0.4990;0.1783;
537.6000;0.4965;0.1684;
537.9000;0.4925;0.1659;
538.2000;0.4941;0.1758;
538.5000;0.4965;0.1832;
538.8000;0.4974;0.1832;
539.1000;0.5014;0.1907;
539.4000;0.4974;0.1808;
539.7000;0.4965;0.1882;
540.0000;0.4957;0.1783;
540.3000;0.4941;0.1783;
540.6000;0.4957;0.1808;
540.9000;0.4957;0.1758;
541.2000;0.5022;0.1907;
541.5000;0.4965;0.1733;
541.8000;0.4949;0.1659;
542.1000;0.5006;0.1857;
542.4000;0.4974;0.1758;
542.7000;0.4974;0.1709;
543.0000;0.4965;0.1659;
543.3000;0.4982;0.1783;
543.6000;0.4974;0.1808;
543.9000;0.4982;0.1733;
544.2000;0.5006;0.1709;
544.5000;0.4974;0.1610;
544.8000;0.4974;0.1585;
545.1000;0.4917;0.1436;
545.4000;0.4949;0.1461;
545.7000;0.4933;0.1461;
546.0000;0.4965;0.1535;
546.3000;0.4965;0.1486;
546.6000;0.4974;0.1436;
546.9000;0.4974;0.1535;
547.2000;0.4974;0.1610;
547.5000;0.4974;0.1585;
547.8000;0.4965;0.1610;
548.1000;0.4974;0.1610;
548.4000;0.4982;0.1634;
548.7000;0.4965;0.1585;
549.0000;0.4949;0.1535;
549.3000;0.4925;0.1461;
549.6000;0.4957;0.1585;
549.9000;0.4974;0.1585;
550.2000;0.4957;0.1511;
550.5000;0.4941;0.1511;
550.8000;0.4974;0.1634;
551.1000;0.4974;0.1634;
551.4000;0.4974;0.1610;
551.7000;0.4957;0.1486;
552.0000;0.4949;0.1486;
552.3000;0.4957;0.1535;
552.6000;0.4974;0.1634;
552.9000;0.4917;0.1610;
553.2000;0.4957;0.1709;
553.5000;0.4965;0.1634;
553.8000;0.4974;0.1610;
554.1000;0.4982;0.1659;
554.4000;0.4957;0.1560;
554.7000;0.4974;0.1511;
555.0000;0.4974;0.1535;
555.3000;0.4965;0.1535;
555.6000;0.4974;0.1535;
555.9000;0.4941;0.1461;
556.2000;0.4884;0.1288;
556.5000;0.4974;0.1535;
556.8000;0.4974;0.1585;
557.1000;0.5063;0.1857;
557.4000;0.4933;0.1486;
557.7000;0.4974;0.1486;
558.0000;0.5006;0.1511;
558.3000;0.4965;0.1436;
558.6000;0.4974;0.1560;
558.9000;0.5006;0.1610;
559.2000;0.4990;0.1511;
559.5000;0.4990;0.1411;
559.8000;0.4908;0.1288;
560.1000;0.4998;0.1535;
560.4000;0.4982;0.1436;
560.7000;0.4974;0.1387;
561.0000;0.4957;0.1337;
561.3000;0.4965;0.1288;
561.6000;0.4965;0.1337;
561.9000;0.4957;0.1411;
562.2000;0.4990;0.1461;
562.5000;0.4957;0.1387;
562.8000;0.4965;0.1461;
563.1000;0.4982;0.1511;
563.4000;0.4965;0.1511;
563.7000;0.4949;0.1461;
564.0000;0.4957;0.1659;
564.3000;0.4974;0.1684;
564.6000;0.4965;0.1610;
564.9000;0.4965;0.1535;
565.2000;0.4974;0.1585;
565.5000;0.4974;0.1610;
565.8000;0.4982;0.1610;
566.1000;0.4941;0.1461;
566.4000;0.4957;0.1511;
566.7000;0.4974;0.1486;
567.0000;0.4957;0.1486;
567.3000;0.4982;0.1610;
567.6000;0.4957;0.1585;
567.9000;0.4965;0.1634;
568.2000;0.4974;0.1585;
568.5000;0.4982;0.1634;
568.8000;0.4965;0.1634;
569.1000;0.4965;0.1585;
569.4000;0.4998;0.1709;
569.7000;0.4982;0.1659;
570.0000;0.4957;0.1610;
570.3000;0.4965;0.1585;
570.6000;0.4974;0.1709;
570.9000;0.4974;0.1758;
571.2000;0.4965;0.1733;
571.5000;0.5006;0.1684;
571.8000;0.4974;0.1535;
572.1000;0.4965;0.1486;
572.4000;0.4957;0.1511;
572.7000;0.4957;0.1511;
573.0000;0.4965;0.1511;
573.3000;0.4998;0.1610;
573.6000;0.4868;0.1436;
573.9000;0.4990;0.1758;
574.2000;0.5031;0.1808;
574.5000;0.4917;0.1461;
574.8000;0.4949;0.1535;
575.1000;0.4965;0.1486;
575.4000;0.4974;0.1560;
575.7000;0.4965;0.1585;
576.0000;0.4974;0.1560;
576.3000;0.4957;0.1560;
576.6000;0.4949;0.1659;
576.9000;0.4965;0.1808;
577.2000;0.4908;0.1709;
577.5000;0.4965;0.1931;
577.8000;0.4965;0.1907;
578.1000;0.4965;0.1882;
578.4000;0.4974;0.1783;
578.7000;0.4965;0.1783;
579.0000;0.4982;0.1758;
579.3000;0.4957;0.1808;
579.6000;0.4965;0.1758;
579.9000;0.4965;0.1758;
580.2000;0.4933;0.1610;
580.5000;0.4974;0.1610;
580.8000;0.4990;0.1585;
581.1000;0.4957;0.1511;
581.4000;0.4965;0.1560;
581.7000;0.4957;0.1486;
582.0000;0.4892;0.1362;
582.3000;0.4957;0.1585;
582.6000;0.4965;0.1610;
582.9000;0.4990;0.1659;
583.2000;0.4949;0.1560;
583.5000;0.4965;0.1610;
583.8000;0.4998;0.1709;
584.1000;0.4949;0.1560;
584.4000;0.4957;0.1560;
584.7000;0.4957;0.1610;
585.0000;0.4949;0.1659;
585.3000;0.4949;0.1659;
585.6000;0.4957;0.1659;
585.9000;0.4949;0.1634;
586.2000;0.4957;0.1560;
586.5000;0.4965;0.1560;
586.8000;0.4957;0.1560;
587.1000;0.4974;0.1511;
587.4000;0.4974;0.1585;
587.7000;0.4965;0.1560;
588.0000;0.4974;0.1585;
588.3000;0.4974;0.1610;
588.6000;0.4949;0.1610;
588.9000;0.4974;0.1684;
589.2000;0.4957;0.1733;
589.5000;0.4957;0.1684;
589.8000;0.4957;0.1758;
590.1000;0.4941;0.1733;
590.4000;0.4957;0.1832;
590.7000;0.4957;0.1733;
591.0000;0.4965;0.1733;
591.3000;0.4941;0.1733;
591.6000;0.4990;0.1733;
591.9000;0.4965;0.1733;
592.2000;0.4957;0.1758;
592.5000;0.4990;0.1857;
592.8000;0.4974;0.1783;
593.1000;0.5006;0.1832;
593.4000;0.4990;0.1832;
593.7000;0.4974;0.1808;
594.0000;0.4974;0.1808;
594.3000;0.4982;0.1808;
594.6000;0.4957;0.1733;
594.9000;0.4941;0.1733;
595.2000;0.4982;0.1783;
595.5000;0.4957;0.1659;
595.8000;0.4965;0.1634;
596.1000;0.4974;0.1560;
596.4000;0.4957;0.1585;
596.7000;0.4957;0.1684;
597.0000;0.4965;0.1659;
597.3000;0.4949;0.1634;
597.6000;0.4892;0.1511;
597.9000;0.4941;0.1610;
598.2000;0.5006;0.1758;
598.5000;0.4908;0.1535;
598.8000;0.4917;0.1535;
599.1000;0.4974;0.1585;
599.4000;0.4965;0.1560;
599.7000;0.4941;0.1486;
600.0000;0.4949;0.1535;
600.3000;0.4974;0.1535;
600.6000;0.4982;0.1436;
600.9000;0.5014;0.1461;
601.2000;0.4933;0.1238;
601.5000;0.4917;0.1114;
601.8000;0.4908;0.1164;
602.1000;0.4851;0.0941;
602.4000;0.4835;0.0817;
602.7000;0.4819;0.0743;
603.0000;0.4762;0.0545;
603.3000;0.4770;0.0693;
603.6000;0.4754;0.0619;
603.9000;0.4697;0.0470;
604.2000;0.4664;0.0347;
604.5000;0.4672;0.0446;
604.8000;0.4664;0.0421;
605.1000;0.4624;0.0421;
605.4000;0.4607;0.0371;
605.7000;0.4591;0.0421;
606.0000;0.4591;0.0371;
606.3000;0.4567;0.0371;
606.6000;0.4534;0.0272;
606.9000;0.4542;0.0347;
607.2000;0.4534;0.0322;
607.5000;0.4510;0.0347;
607.8000;0.4501;0.0322;
608.1000;0.4485;0.0322;
608.4000;0.4477;0.0371;
608.7000;0.4453;0.0396;
609.0000;0.4428;0.0347;
609.3000;0.4428;0.0347;
609.6000;0.4436;0.0371;
609.9000;0.4420;0.0322;
610.2000;0.4396;0.0272;
610.5000;0.4339;0.0223;
610.8000;0.4371;0.0173;
611.1000;0.4314;0.0124;
611.4000;0.4330;0.0074;
611.7000;0.4339;0.0050;
612.0000;0.4355;0.0074;
612.3000;0.4322;-0.0025;
612.6000;0.4314;0.0050;
612.9000;0.4339;0.0124;
613.2000;0.4314;0.0124;
613.5000;0.4314;0.0173;
613.8000;0.4298;0.0198;
614.1000;0.4314;0.0272;
614.4000;0.4265;0.0173;
614.7000;0.4282;0.0198;
615.0000;0.4257;0.0198;
615.3000;0.4282;0.0272;
615.6000;0.4225;0.0173;
615.9000;0.4233;0.0173;
616.2000;0.4241;0.0173;
616.5000;0.4151;-0.0050;
616.8000;0.4200;0.0074;
617.1000;0.4274;0.0272;
617.4000;0.4192;0.0000;
617.7000;0.4184;-0.0074;
618.0000;0.4143;-0.0198;
618.3000;0.4160;-0.0050;
618.6000;0.4176;0.0074;
618.9000;0.4143;-0.0050;
619.2000;0.4151;-0.0050;
619.5000;0.4135;-0.0050;
619.8000;0.4143;0.0099;
620.1000;0.4119;0.0074;
620.4000;0.4127;0.0099;
620.7000;0.4103;0.0099;
621.0000;0.4111;0.0149;
621.3000;0.4103;0.0099;
621.6000;0.4094;-0.0050;
621.9000;0.4111;0.0000;
622.2000;0.4135;0.0050;
622.5000;0.4078;0.0025;
622.8000;0.4070;0.0025;
623.1000;0.4062;0.0050;
623.4000;0.4054;0.0173;
623.7000;0.4046;0.0124;
624.0000;0.4111;0.0322;
624.3000;0.4037;0.0099;
624.6000;0.4029;0.0149;
624.9000;0.4037;0.0198;
625.2000;0.4029;0.0248;
625.5000;0.4029;0.0198;
625.8000;0.4005;0.0099;
626.1000;0.4029;0.0124;
626.4000;0.4013;0.0149;
626.7000;0.3997;0.0050;
627.0000;0.3980;0.0050;
627.3000;0.3989;0.0074;
627.6000;0.3980;0.0000;
627.9000;0.3956;-0.0124;
628.2000;0.3956;-0.0050;
628.5000;0.3964;0.0025;
628.8000;0.3956;0.0000;
629.1000;0.3964;0.0050;
629.4000;0.3932;0.0074;
629.7000;0.3867;-0.0050;
630.0000;0.3891;0.0050;
630.3000;0.3932;0.0124;
630.6000;0.3948;0.0198;
630.9000;0.3932;0.0149;
631.2000;0.3940;0.0198;
631.5000;0.3932;0.0099;
631.8000;0.3899;-0.0050;
632.1000;0.3915;0.0025;
632.4000;0.3883;-0.0124;
632.7000;0.3883;-0.0050;
633.0000;0.3899;-0.0074;
633.3000;0.3867;-0.0099;
633.6000;0.3875;-0.0074;
633.9000;0.3850;-0.0124;
634.2000;0.3907;0.0025;
634.5000;0.3858;-0.0050;
634.8000;0.3850;-0.0025;
635.1000;0.3801;-0.0124;
635.4000;0.3875;0.0000;
635.7000;0.3850;-0.0050;
636.0000;0.3858;-0.0050;
636.3000;0.3826;-0.0025;
636.6000;0.3793;-0.0074;
636.9000;0.3834;0.0050;
637.2000;0.3793;-0.0099;
637.5000;0.3810;-0.0050;
637.8000;0.3826;-0.0050;
638.1000;0.3858;0.0124;
638.4000;0.3810;0.0099;
638.7000;0.3793;0.0000;
639.0000;0.3793;-0.0050;
639.3000;0.3785;-0.0074;
639.6000;0.3785;-0.0074;
639.9000;0.3793;0.0025;
640.2000;0.3785;-0.0025;
640.5000;0.3769;-0.0099;
640.8000;0.3769;-0.0124;
641.1000;0.3769;-0.0099;
641.4000;0.3753;-0.0173;
641.7000;0.3793;-0.0074;
642.0000;0.3761;-0.0173;
642.3000;0.3810;-0.0025;
642.6000;0.3761;-0.0074;
642.9000;0.3777;0.0025;
643.2000;0.3769;-0.0074;
643.5000;0.3744;-0.0025;
643.8000;0.3736;-0.0074;
644.1000;0.3785;0.0025;
644.4000;0.3744;-0.0173;
644.7000;0.3753;-0.0124;
645.0000;0.3679;-0.0421;
645.3000;0.3712;-0.0297;
645.6000;0.3687;-0.0396;
645.9000;0.3728;-0.0248;
646.2000;0.3736;-0.0149;
646.5000;0.3720;-0.0149;
646.8000;0.3663;-0.0371;
647.1000;0.3761;-0.0124;
647.4000;0.3712;-0.0173;
647.7000;0.3712;-0.0124;
648.0000;0.3712;-0.0198;
648.3000;0.3696;-0.0248;
648.6000;0.3687;-0.0248;
648.9000;0.3687;-0.0223;
649.2000;0.3679;-0.0223;
649.5000;0.3679;-0.0124;
649.8000;0.3696;-0.0099;
650.1000;0.3687;-0.0124;
650.4000;0.3663;-0.0248;
650.7000;0.3663;-0.0223;
651.0000;0.3696;-0.0124;
651.3000;0.3663;-0.0149;
651.6000;0.3639;-0.0173;
651.9000;0.3687;-0.0050;
652.2000;0.3671;-0.0025;
652.5000;0.3663;0.0050;
652.8000;0.3712;0.0173;
653.1000;0.3655;0.0074;
653.4000;0.3639;0.0050;
653.7000;0.3639;-0.0050;
654.0000;0.3663;0.0074;
654.3000;0.3639;0.0025;
654.6000;0.3655;0.0124;
654.9000;0.3639;0.0124;
655.2000;0.3647;0.0050;
655.5000;0.3630;-0.0050;
655.8000;0.3687;0.0173;
656.1000;0.3655;0.0000;
656.4000;0.3622;-0.0099;
656.7000;0.3622;-0.0173;
657.0000;0.3606;-0.0124;
657.3000;0.3606;-0.0099;
657.6000;0.3606;-0.0124;
657.9000;0.3606;0.0000;
658.2000;0.3598;0.0025;
658.5000;0.3647;0.0223;
658.8000;0.3598;0.0099;
659.1000;0.3582;-0.0050;
659.4000;0.3590;-0.0099;
659.7000;0.3590;-0.0149;
660.0000;0.3590;-0.0149;
660.3000;0.3598;-0.0223;
660.6000;0.3598;-0.0297;
660.9000;0.3606;-0.0223;
661.2000;0.3598;-0.0099;
661.5000;0.3582;-0.0198;
661.8000;0.3582;-0.0248;
662.1000;0.3582;-0.0198;
662.4000;0.3573;-0.0149;
662.7000;0.3582;-0.0149;
663.0000;0.3582;-0.0124;
663.3000;0.3565;-0.0050;
663.6000;0.3557;-0.0099;
663.9000;0.3582;-0.0025;
664.2000;0.3573;-0.0025;
664.5000;0.3541;-0.0173;
664.8000;0.3573;0.0050;
665.1000;0.3590;-0.0050;
665.4000;0.3557;0.0074;
665.7000;0.3565;0.0050;
666.0000;0.3557;-0.0025;
666.3000;0.3533;-0.0099;
666.6000;0.3533;0.0050;
666.9000;0.3549;-0.0050;
667.2000;0.3541;-0.0099;
667.5000;0.3541;-0.0050;
667.8000;0.3484;-0.0223;
668.1000;0.3533;-0.0173;
668.4000;0.3541;-0.0173;
668.7000;0.3533;-0.0124;
669.0000;0.3549;-0.0050;
669.3000;0.3525;-0.0149;
669.6000;0.3525;-0.0124;
669.9000;0.3541;-0.0050;
670.2000;0.3533;0.0050;
670.5000;0.3525;0.0074;
670.8000;0.3435;-0.0149;
671.1000;0.3500;-0.0050;
671.4000;0.3541;-0.0099;
671.7000;0.3541;-0.0223;
672.0000;0.3492;-0.0297;
672.3000;0.3598;0.0025;
672.6000;0.3451;-0.0272;
672.9000;0.3516;-0.0124;
673.2000;0.3484;-0.0173;
673.5000;0.3525;-0.0124;
673.8000;0.3516;-0.0074;
674.1000;0.3508;0.0000;
674.4000;0.3516;0.0050;
674.7000;0.3508;0.0099;
675.0000;0.3492;0.0025;
675.3000;0.3582;0.0149;
675.6000;0.3500;-0.0050;
675.9000;0.3484;-0.0149;
676.2000;0.3508;-0.0173;
676.5000;0.3476;-0.0173;
676.8000;0.3516;-0.0050;
677.1000;0.3484;-0.0099;
677.4000;0.3476;-0.0149;
677.7000;0.3476;-0.0074;
678.0000;0.3484;-0.0124;
678.3000;0.3443;-0.0272;
678.6000;0.3460;-0.0223;
678.9000;0.3443;-0.0198;
679.2000;0.3468;-0.0074;
679.5000;0.3460;-0.0099;
679.8000;0.3492;-0.0025;
680.1000;0.3468;-0.0074;
680.4000;0.3443;-0.0099;
680.7000;0.3541;0.0149;
681.0000;0.3468;-0.0099;
681.3000;0.3460;-0.0149;
681.6000;0.3451;-0.0149;
681.9000;0.3484;-0.0025;
682.2000;0.3451;-0.0050;
682.5000;0.3443;-0.0025;
682.8000;0.3460;0.0000;
683.1000;0.3451;-0.0025;
683.4000;0.3484;0.0074;
683.7000;0.3443;-0.0025;
684.0000;0.3451;0.0025;
684.3000;0.3443;0.0025;
684.6000;0.3427;0.0050;
684.9000;0.3451;0.0050;
685.2000;0.3443;0.0149;
685.5000;0.3435;0.0099;
685.8000;0.3443;0.0074;
686.1000;0.3443;0.0124;
686.4000;0.3435;0.0124;
686.7000;0.3460;0.0173;
687.0000;0.3443;0.0074;
687.3000;0.3411;0.0074;
687.6000;0.3354;-0.0074;
687.9000;0.3451;0.0248;
688.2000;0.3427;0.0223;
688.5000;0.3427;0.0149;
688.8000;0.3468;0.0173;
689.1000;0.3419;0.0050;
689.4000;0.3427;0.0050;
689.7000;0.3411;0.0050;
690.0000;0.3403;0.0050;
690.3000;0.3411;0.0124;
690.6000;0.3484;0.0248;
690.9000;0.3419;0.0149;
691.2000;0.3403;0.0099;
691.5000;0.3419;0.0149;
691.8000;0.3394;0.0025;
692.1000;0.3419;-0.0025;
692.4000;0.3394;-0.0124;
692.7000;0.3427;-0.0074;
693.0000;0.3386;-0.0099;
693.3000;0.3403;-0.0050;
693.6000;0.3403;0.0000;
693.9000;0.3411;0.0000;
694.2000;0.3476;0.0149;
694.5000;0.3411;0.0074;
694.8000;0.3427;0.0050;
695.1000;0.3419;0.0050;
695.4000;0.3403;-0.0099;
695.7000;0.3411;-0.0050;
696.0000;0.3362;-0.0173;
696.3000;0.3435;0.0000;
696.6000;0.3411;-0.0025;
696.9000;0.3411;-0.0099;
697.2000;0.3370;-0.0149;
697.5000;0.3394;-0.0149;
697.8000;0.3403;-0.0074;
698.1000;0.3394;0.0050;
698.4000;0.3370;0.0050;
698.7000;0.3411;0.0149;
699.0000;0.3386;0.0025;
699.3000;0.3394;-0.0025;
699.6000;0.3370;-0.0050;
699.9000;0.3386;-0.0074;
700.2000;0.3378;-0.0173;
700.5000;0.3378;-0.0198;
700.8000;0.3362;-0.0322;
701.1000;0.3403;-0.0272;
701.4000;0.3419;-0.0223;
701.7000;0.3386;-0.0223;
702.0000;0.3378;-0.0248;
702.3000;0.3313;-0.0470;
702.6000;0.3378;-0.0272;
702.9000;0.3386;-0.0297;
703.2000;0.3370;-0.0396;
703.5000;0.3378;-0.0495;
703.8000;0.3346;-0.0495;
704.1000;0.3427;-0.0297;
704.4000;0.3362;-0.0446;
704.7000;0.3362;-0.0396;
705.0000;0.3305;-0.0570;
705.3000;0.3362;-0.0347;
705.6000;0.3354;-0.0396;
705.9000;0.3370;-0.0421;
706.2000;0.3370;-0.0347;
706.5000;0.3346;-0.0421;
706.8000;0.3362;-0.0272;
707.1000;0.3362;-0.0173;
707.4000;0.3354;-0.0149;
707.7000;0.3337;-0.0124;
708.0000;0.3378;-0.0074;
708.3000;0.3378;-0.0124;
708.6000;0.3346;-0.0124;
708.9000;0.3354;-0.0050;
709.2000;0.3378;0.0000;
709.5000;0.3305;-0.0198;
709.8000;0.3337;-0.0099;
710.1000;0.3370;-0.0149;
710.4000;0.3386;-0.0099;
710.7000;0.3354;-0.0173;
711.0000;0.3346;-0.0149;
711.3000;0.3394;-0.0074;
711.6000;0.3337;-0.0248;
711.9000;0.3354;-0.0173;
712.2000;0.3362;-0.0149;
712.5000;0.3362;-0.0173;
712.8000;0.3329;-0.0074;
713.1000;0.3378;0.0074;
713.4000;0.3329;-0.0050;
713.7000;0.3313;-0.0198;
714.0000;0.3346;-0.0124;
714.3000;0.3354;-0.0124;
714.6000;0.3329;-0.0198;
714.9000;0.3329;-0.0322;
715.2000;0.3386;-0.0223;
715.5000;0.3280;-0.0446;
715.8000;0.3329;-0.0322;
716.1000;0.3321;-0.0272;
716.4000;0.3337;-0.0272;
716.7000;0.3321;-0.0322;
717.0000;0.3378;-0.0124;
717.3000;0.3354;-0.0198;
717.6000;0.3346;-0.0248;
717.9000;0.3329;-0.0396;
718.2000;0.3337;-0.0347;
718.5000;0.3337;-0.0371;
718.8000;0.3297;-0.0545;
719.1000;0.3411;-0.0248;
719.4000;0.3362;-0.0347;
719.7000;0.3337;-0.0322;
720.0000;0.3354;-0.0272;
720.3000;0.3337;-0.0173;
720.6000;0.3346;-0.0050;
720.9000;0.3346;-0.0124;
721.2000;0.3337;-0.0099;
721.5000;0.3297;-0.0198;
721.8000;0.3329;-0.0173;
722.1000;0.3305;-0.0198;
722.4000;0.3329;-0.0173;
722.7000;0.3329;-0.0198;
723.0000;0.3321;-0.0272;
723.3000;0.3329;-0.0248;
723.6000;0.3329;-0.0297;
723.9000;0.3313;-0.0272;
724.2000;0.3329;-0.0223;
724.5000;0.3329;-0.0124;
724.8000;0.3313;-0.0173;
725.1000;0.3305;-0.0198;
725.4000;0.3305;-0.0272;
725.7000;0.3305;-0.0223;
726.0000;0.3297;-0.0272;
726.3000;0.3313;-0.0173;
726.6000;0.3305;-0.0198;
726.9000;0.3313;-0.0198;
727.2000;0.3280;-0.0248;
727.5000;0.3297;-0.0149;
727.8000;0.3305;-0.0099;
728.1000;0.3305;-0.0198;
728.4000;0.3289;-0.0272;
728.7000;0.3329;-0.0223;
729.0000;0.3240;-0.0470;
729.3000;0.3297;-0.0248;
729.6000;0.3329;-0.0223;
729.9000;0.3329;-0.0248;
730.2000;0.3313;-0.0272;
730.5000;0.3313;-0.0173;
730.8000;0.3305;-0.0297;
731.1000;0.3329;-0.0248;
731.4000;0.3305;-0.0396;
731.7000;0.3297;-0.0347;
732.0000;0.3305;-0.0322;
732.3000;0.3337;-0.0248;
732.6000;0.3305;-0.0371;
732.9000;0.3289;-0.0396;
733.2000;0.3264;-0.0421;
733.5000;0.3289;-0.0470;
733.8000;0.3313;-0.0347;
734.1000;0.3280;-0.0371;
734.4000;0.3297;-0.0396;
734.7000;0.3297;-0.0248;
735.0000;0.3297;-0.0198;
735.3000;0.3337;-0.0099;
735.6000;0.3329;-0.0074;
735.9000;0.3280;-0.0025;
736.2000;0.3289;-0.0124;
736.5000;0.3297;-0.0223;
736.8000;0.3280;-0.0297;
737.1000;0.3272;-0.0272;
737.4000;0.3289;-0.0297;
737.7000;0.3280;-0.0347;
738.0000;0.3289;-0.0297;
738.3000;0.3280;-0.0248;
738.6000;0.3272;-0.0248;
738.9000;0.3297;-0.0149;
739.2000;0.3289;-0.0149;
739.5000;0.3272;-0.0173;
739.8000;0.3264;-0.0173;
740.1000;0.3289;-0.0074;
740.4000;0.3272;-0.0074;
740.7000;0.3305;-0.0050;
741.0000;0.3297;-0.0025;
741.3000;0.3280;-0.0025;
741.6000;0.3289;-0.0025;
741.9000;0.3289;-0.0074;
742.2000;0.3280;-0.0099;
742.5000;0.3289;-0.0074;
742.8000;0.3264;-0.0223;
743.1000;0.3289;-0.0124;
743.4000;0.3280;-0.0149;
743.7000;0.3272;-0.0149;
744.0000;0.3272;-0.0149;
744.3000;0.3264;-0.0223;
744.6000;0.3240;-0.0347;
744.9000;0.3280;-0.0149;
745.2000;0.3297;-0.0124;
745.5000;0.3280;-0.0099;
745.8000;0.3280;-0.0074;
746.1000;0.3264;-0.0149;
746.4000;0.3264;-0.0198;
746.7000;0.3297;-0.0124;
747.0000;0.3240;-0.0297;
747.3000;0.3256;-0.0223;
747.6000;0.3272;-0.0173;
747.9000;0.3280;-0.0124;
748.2000;0.3289;-0.0198;
748.5000;0.3280;-0.0198;
748.8000;0.3256;-0.0198;
749.1000;0.3297;-0.0149;
749.4000;0.3272;-0.0173;
749.7000;0.3256;-0.0124;
750.0000;0.3272;-0.0099;
750.3000;0.3280;-0.0050;
750.6000;0.3207;-0.0198;
750.9000;0.3272;-0.0074;
751.2000;0.3264;-0.0173;
751.5000;0.3264;-0.0149;
751.8000;0.3264;0.0000;
752.1000;0.3280;0.0050;
752.4000;0.3248;0.0000;
752.7000;0.3256;0.0050;
753.0000;0.3223;-0.0025;
753.3000;0.3272;0.0074;
753.6000;0.3272;0.0074;
753.9000;0.3256;0.0099;
754.2000;0.3256;0.0025;
754.5000;0.3240;-0.0099;
754.8000;0.3248;-0.0099;
755.1000;0.3256;-0.0074;
755.4000;0.3264;-0.0149;
755.7000;0.3256;-0.0223;
756.0000;0.3264;-0.0272;
756.3000;0.3280;-0.0248;
756.6000;0.3264;-0.0223;
756.9000;0.3256;-0.0223;
757.2000;0.3264;-0.0124;
757.5000;0.3256;-0.0149;
757.8000;0.3248;-0.0173;
758.1000;0.3256;-0.0099;
758.4000;0.3264;-0.0099;
758.7000;0.3232;-0.0173;
759.0000;0.3256;-0.0198;
759.3000;0.3248;-0.0198;
759.6000;0.3256;-0.0198;
759.9000;0.3248;-0.0272;
760.2000;0.3248;-0.0272;
760.5000;0.3256;-0.0223;
760.8000;0.3264;-0.0149;
761.1000;0.3256;-0.0099;
761.4000;0.3207;-0.0124;
761.7000;0.3240;0.0000;
762.0000;0.3313;0.0124;
762.3000;0.3272;-0.0025;
762.6000;0.3240;-0.0149;
762.9000;0.3199;-0.0223;
763.2000;0.3240;0.0000;
763.5000;0.3240;0.0000;
763.8000;0.3280;0.0025;
764.1000;0.3248;-0.0074;
764.4000;0.3232;-0.0149;
764.7000;0.3248;-0.0099;
765.0000;0.3240;-0.0198;
765.3000;0.3248;-0.0198;
765.6000;0.3272;-0.0124;
765.9000;0.3248;-0.0124;
766.2000;0.3240;-0.0149;
766.5000;0.3215;-0.0248;
766.8000;0.3240;-0.0223;
767.1000;0.3248;-0.0223;
767.4000;0.3264;-0.0198;
767.7000;0.3248;-0.0149;
768.0000;0.3280;-0.0050;
768.3000;0.3256;-0.0173;
768.6000;0.3248;-0.0050;
768.9000;0.3232;-0.0025;
769.2000;0.3240;-0.0124;
769.5000;0.3199;-0.0248;
769.8000;0.3256;-0.0099;
770.1000;0.3240;-0.0223;
770.4000;0.3240;-0.0322;
770.7000;0.3256;-0.0396;
771.0000;0.3248;-0.0371;
771.3000;0.3256;-0.0396;
771.6000;0.3240;-0.0495;
771.9000;0.3248;-0.0470;
772.2000;0.3248;-0.0421;
772.5000;0.3256;-0.0446;
772.8000;0.3248;-0.0421;
773.1000;0.3215;-0.0495;
773.4000;0.3240;-0.0396;
773.7000;0.3248;-0.0371;
774.0000;0.3248;-0.0371;
774.3000;0.3215;-0.0371;
774.6000;0.3207;-0.0446;
774.9000;0.3232;-0.0446;
775.2000;0.3232;-0.0446;
775.5000;0.3248;-0.0495;
775.8000;0.3240;-0.0446;
776.1000;0.3232;-0.0371;
776.4000;0.3240;-0.0297;
776.7000;0.3223;-0.0297;
777.0000;0.3223;-0.0322;
777.3000;0.3232;-0.0248;
777.6000;0.3215;-0.0396;
777.9000;0.3223;-0.0322;
778.2000;0.3215;-0.0322;
778.5000;0.3232;-0.0173;
778.8000;0.3240;-0.0149;
779.1000;0.3232;-0.0149;
779.4000;0.3248;-0.0198;
779.7000;0.3232;-0.0248;
780.0000;0.3232;-0.0297;
780.3000;0.3215;-0.0297;
780.6000;0.3223;-0.0223;
780.9000;0.3215;-0.0173;
781.2000;0.3223;-0.0074;
781.5000;0.3142;-0.0322;
781.8000;0.3223;-0.0149;
782.1000;0.3215;-0.0099;
782.4000;0.3215;-0.0124;
782.7000;0.3232;-0.0074;
783.0000;0.3223;-0.0149;
783.3000;0.3215;-0.0198;
783.6000;0.3223;-0.0223;
783.9000;0.3240;-0.0074;
784.2000;0.3256;-0.0025;
784.5000;0.3183;-0.0124;
784.8000;0.3223;-0.0025;
785.1000;0.3223;0.0000;
785.4000;0.3240;-0.0050;
785.7000;0.3223;-0.0124;
786.0000;0.3223;-0.0025;
786.3000;0.3232;0.0025;
786.6000;0.3215;-0.0050;
786.9000;0.3223;0.0025;
787.2000;0.3215;-0.0025;
787.5000;0.3215;0.0025;
787.8000;0.3248;0.0099;
788.1000;0.3223;-0.0025;
788.4000;0.3240;-0.0074;
788.7000;0.3223;-0.0050;
789.0000;0.3126;-0.0322;
789.3000;0.3215;-0.0074;
789.6000;0.3207;-0.0124;
789.9000;0.3207;-0.0124;
790.2000;0.3215;-0.0124;
790.5000;0.3240;0.0025;
790.8000;0.3223;-0.0025;
791.1000;0.3215;-0.0074;
791.4000;0.3223;0.0025;
791.7000;0.3191;0.0000;
792.0000;0.3158;-0.0025;
792.3000;0.3223;0.0025;
792.6000;0.3215;-0.0050;
792.9000;0.3207;0.0025;
793.2000;0.3232;0.0099;
793.5000;0.3199;0.0000;
793.8000;0.3223;-0.0025;
794.1000;0.3232;0.0074;
794.4000;0.3215;0.0000;
794.7000;0.3199;-0.0074;
795.0000;0.3232;0.0050;
795.3000;0.3215;-0.0074;
795.6000;0.3191;-0.0149;
795.9000;0.3199;-0.0173;
796.2000;0.3232;-0.0124;
796.5000;0.3199;-0.0173;
796.8000;0.3191;-0.0099;
797.1000;0.3207;-0.0050;
797.4000;0.3240;-0.0050;
797.7000;0.3207;-0.0149;
798.0000;0.3183;-0.0198;
798.3000;0.3199;-0.0223;
798.6000;0.3183;-0.0223;
798.9000;0.3199;-0.0198;
799.2000;0.3183;-0.0371;
799.5000;0.3215;-0.0272;
799.8000;0.3207;-0.0371;
800.1000;0.3199;-0.0446;
800.4000;0.3199;-0.0446;
800.7000;0.3175;-0.0545;
801.0000;0.3215;-0.0470;
801.3000;0.3199;-0.0446;
801.6000;0.3183;-0.0421;
801.9000;0.3207;-0.0322;
802.2000;0.3207;-0.0272;
802.5000;0.3199;-0.0248;
802.8000;0.3199;-0.0347;
803.1000;0.3183;-0.0495;
803.4000;0.3199;-0.0495;
803.7000;0.3207;-0.0446;
804.0000;0.3207;-0.0495;
804.3000;0.3199;-0.0545;
804.6000;0.3223;-0.0470;
804.9000;0.3207;-0.0545;
805.2000;0.3199;-0.0520;
805.5000;0.3199;-0.0520;
805.8000;0.3199;-0.0520;
806.1000;0.3207;-0.0470;
806.4000;0.3191;-0.0322;
806.7000;0.3101;-0.0495;
807.0000;0.3215;-0.0099;
807.3000;0.3256;0.0099;
807.6000;0.3191;0.0050;
807.9000;0.3158;-0.0099;
808.2000;0.3297;0.0099;
808.5000;0.3207;-0.0248;
808.8000;0.3199;-0.0371;
809.1000;0.3207;-0.0347;
809.4000;0.3191;-0.0396;
809.7000;0.3207;-0.0322;
810.0000;0.3191;-0.0347;
810.3000;0.3264;-0.0099;
810.6000;0.3207;-0.0149;
810.9000;0.3183;-0.0173;
811.2000;0.3199;-0.0173;
811.5000;0.3207;-0.0074;
811.8000;0.3142;-0.0223;
812.1000;0.3199;-0.0149;
812.4000;0.3199;-0.0198;
812.7000;0.3199;-0.0297;
813.0000;0.3223;-0.0272;
813.3000;0.3199;-0.0297;
813.6000;0.3175;-0.0272;
813.9000;0.3183;-0.0223;
814.2000;0.3207;-0.0248;
814.5000;0.3191;-0.0248;
814.8000;0.3183;-0.0223;
815.1000;0.3207;-0.0149;
815.4000;0.3166;-0.0297;
815.7000;0.3199;-0.0124;
816.0000;0.3158;-0.0099;
816.3000;0.3191;-0.0025;
816.6000;0.3199;-0.0025;
816.9000;0.3199;0.0000;
817.2000;0.3175;-0.0124;
817.5000;0.3199;-0.0149;
817.8000;0.3191;-0.0248;
818.1000;0.3150;-0.0371;
818.4000;0.3199;-0.0248;
818.7000;0.3207;-0.0272;
819.0000;0.3191;-0.0347;
819.3000;0.3223;-0.0272;
819.6000;0.3183;-0.0272;
819.9000;0.3191;-0.0297;
820.2000;0.3215;-0.0272;
820.5000;0.3199;-0.0297;
820.8000;0.3183;-0.0272;
821.1000;0.3199;-0.0173;
821.4000;0.3191;-0.0099;
821.7000;0.3207;-0.0050;
822.0000;0.3223;0.0025;
822.3000;0.3093;-0.0322;
822.6000;0.3175;-0.0050;
822.9000;0.3183;-0.0025;
823.2000;0.3183;-0.0025;
823.5000;0.3183;-0.0124;
823.8000;0.3199;-0.0124;
824.1000;0.3207;-0.0099;
824.4000;0.3199;-0.0050;
824.7000;0.3175;-0.0173;
825.0000;0.3175;-0.0124;
825.3000;0.3248;0.0050;
825.6000;0.3175;-0.0124;
825.9000;0.3158;-0.0124;
826.2000;0.3134;-0.0198;
826.5000;0.3175;-0.0074;
826.8000;0.3207;0.0025;
827.1000;0.3166;-0.0074;
827.4000;0.3223;0.0050;
827.7000;0.3183;-0.0149;
828.0000;0.3166;-0.0173;
828.3000;0.3199;-0.0149;
828.6000;0.3191;-0.0223;
828.9000;0.3191;-0.0248;
829.2000;0.3183;-0.0198;
829.5000;0.3191;-0.0149;
829.8000;0.3199;-0.0025;
830.1000;0.3183;0.0000;
830.4000;0.3166;0.0000;
830.7000;0.3126;-0.0124;
831.0000;0.3150;-0.0124;
831.3000;0.3183;-0.0050;
831.6000;0.3223;0.0025;
831.9000;0.3166;-0.0099;
832.2000;0.3183;-0.0074;
832.5000;0.3175;-0.0173;
832.8000;0.3272;0.0050;
833.1000;0.3191;-0.0149;
833.4000;0.3191;-0.0050;
833.7000;0.3183;-0.0025;
834.0000;0.3175;-0.0050;
834.3000;0.3175;0.0050;
834.6000;0.3183;0.0000;
834.9000;0.3207;0.0025;
835.2000;0.3191;-0.0099;
835.5000;0.3158;-0.0248;
835.8000;0.3158;-0.0149;
836.1000;0.3158;-0.0198;
836.4000;0.3150;-0.0248;
836.7000;0.3166;-0.0149;
837.0000;0.3215;-0.0074;
837.3000;0.3199;-0.0173;
837.6000;0.3166;-0.0149;
837.9000;0.3166;-0.0099;
838.2000;0.3183;-0.0050;
838.5000;0.3158;-0.0050;
838.8000;0.3207;-0.0025;
839.1000;0.3207;0.0025;
839.4000;0.3183;0.0050;
839.7000;0.3199;0.0124;
840.0000;0.3207;0.0124;
840.3000;0.3183;0.0124;
840.6000;0.3175;0.0099;
840.9000;0.3183;0.0050;
841.2000;0.3175;0.0025;
841.5000;0.3175;0.0000;
841.8000;0.3166;0.0025;
842.1000;0.3183;0.0025;
842.4000;0.3142;-0.0074;
842.7000;0.3232;0.0149;
843.0000;0.3183;-0.0050;
843.3000;0.3150;-0.0099;
843.6000;0.3183;0.0000;
843.9000;0.3183;-0.0050;
844.2000;0.3183;-0.0050;
844.5000;0.3166;-0.0099;
844.8000;0.3191;-0.0025;
845.1000;0.3199;-0.0025;
845.4000;0.3199;0.0025;
845.7000;0.3142;-0.0248;
846.0000;0.3150;-0.0124;
846.3000;0.3191;0.0000;
846.6000;0.3183;-0.0099;
846.9000;0.3183;-0.0124;
847.2000;0.3175;-0.0099;
847.5000;0.3175;-0.0074;
847.8000;0.3118;-0.0248;
848.1000;0.3158;-0.0173;
848.4000;0.3101;-0.0347;
848.7000;0.3183;-0.0050;
849.0000;0.3166;0.0000;
849.3000;0.3175;-0.0025;
849.6000;0.3175;-0.0074;
849.9000;0.3183;-0.0149;
850.2000;0.3175;-0.0173;
850.5000;0.3183;-0.0099;
850.8000;0.3166;-0.0099;
851.1000;0.3175;0.0000;
851.4000;0.3199;0.0000;
851.7000;0.3183;-0.0025;
852.0000;0.3183;-0.0099;
852.3000;0.3142;-0.0149;
852.6000;0.3183;-0.0050;
852.9000;0.3199;-0.0074;
853.2000;0.3215;-0.0025;
853.5000;0.3175;-0.0149;
853.8000;0.3183;-0.0149;
854.1000;0.3183;-0.0025;
854.4000;0.3175;0.0050;
854.7000;0.3175;0.0000;
855.0000;0.3158;-0.0099;
855.3000;0.3166;-0.0124;
855.6000;0.3158;-0.0198;
855.9000;0.3191;-0.0099;
856.2000;0.3166;-0.0099;
856.5000;0.3223;0.0000;
856.8000;0.3166;-0.0223;
857.1000;0.3175;-0.0248;
857.4000;0.3142;-0.0322;
857.7000;0.3150;-0.0297;
858.0000;0.3109;-0.0347;
858.3000;0.3142;-0.0149;
858.6000;0.3134;-0.0248;
858.9000;0.3166;-0.0149;
859.2000;0.3166;-0.0099;
859.5000;0.3175;-0.0025;
859.8000;0.3166;-0.0074;
860.1000;0.3199;0.0050;
860.4000;0.3166;0.0050;
860.7000;0.3175;0.0025;
861.0000;0.3166;0.0000;
861.3000;0.3158;0.0025;
861.6000;0.3150;0.0000;
861.9000;0.3166;0.0025;
862.2000;0.3150;-0.0074;
862.5000;0.3158;-0.0099;
862.8000;0.3166;-0.0099;
863.1000;0.3150;-0.0074;
863.4000;0.3150;-0.0173;
863.7000;0.3150;-0.0248;
864.0000;0.3166;-0.0297;
864.3000;0.3158;-0.0297;
864.6000;0.3183;-0.0272;
864.9000;0.3166;-0.0248;
865.2000;0.3183;-0.0198;
865.5000;0.3166;-0.0248;
865.8000;0.3158;-0.0198;
866.1000;0.3150;-0.0198;
866.4000;0.3166;-0.0272;
866.7000;0.3134;-0.0322;
867.0000;0.3158;-0.0248;
867.3000;0.3158;-0.0297;
867.6000;0.3150;-0.0272;
867.9000;0.3126;-0.0223;
868.2000;0.3183;-0.0124;
868.5000;0.3158;-0.0050;
868.8000;0.3134;-0.0149;
869.1000;0.3118;-0.0149;
869.4000;0.3150;-0.0025;
869.7000;0.3183;0.0000;
870.0000;0.3101;-0.0223;
870.3000;0.3142;-0.0173;
870.6000;0.3150;-0.0124;
870.9000;0.3175;-0.0149;
871.2000;0.3191;-0.0099;
871.5000;0.3158;-0.0149;
871.8000;0.3158;-0.0173;
872.1000;0.3215;-0.0050;
872.4000;0.3158;-0.0248;
872.7000;0.3321;0.0173;
873.0000;0.3158;-0.0198;
873.3000;0.3175;-0.0149;
873.6000;0.3150;-0.0297;
873.9000;0.3150;-0.0297;
874.2000;0.3183;-0.0223;
874.5000;0.3166;-0.0297;
874.8000;0.3175;-0.0223;
875.1000;0.3150;-0.0297;
875.4000;0.3166;-0.0248;
875.7000;0.3166;-0.0347;
876.0000;0.3166;-0.0248;
876.3000;0.3183;-0.0198;
876.6000;0.3134;-0.0248;
876.9000;0.3158;-0.0198;
877.2000;0.3175;-0.0050;
877.5000;0.3134;-0.0149;
877.8000;0.3175;-0.0124;
878.1000;0.3158;-0.0173;
878.4000;0.3158;-0.0322;
878.7000;0.3158;-0.0421;
879.0000;0.3142;-0.0520;
879.3000;0.3150;-0.0470;
879.6000;0.3166;-0.0495;
879.9000;0.3158;-0.0470;
880.2000;0.3142;-0.0347;
880.5000;0.3158;-0.0272;
880.8000;0.3183;-0.0198;
881.1000;0.3158;-0.0198;
881.4000;0.3150;-0.0248;
881.7000;0.3142;-0.0272;
882.0000;0.3150;-0.0248;
882.3000;0.3175;-0.0223;
882.6000;0.3166;-0.0272;
882.9000;0.3126;-0.0446;
883.2000;0.3166;-0.0297;
883.5000;0.3158;-0.0297;
883.8000;0.3175;-0.0248;
884.1000;0.3223;-0.0149;
884.4000;0.3158;-0.0272;
884.7000;0.3134;-0.0347;
885.0000;0.3158;-0.0322;
885.3000;0.3158;-0.0297;
885.6000;0.3150;-0.0198;
885.9000;0.3150;-0.0223;
886.2000;0.3142;-0.0223;
886.5000;0.3166;-0.0198;
886.8000;0.3150;-0.0272;
887.1000;0.3150;-0.0347;
887.4000;0.3199;-0.0149;
887.7000;0.3142;-0.0248;
888.0000;0.3175;-0.0248;
888.3000;0.3158;-0.0322;
888.6000;0.3158;-0.0371;
888.9000;0.3166;-0.0347;
889.2000;0.3142;-0.0297;
889.5000;0.3142;-0.0371;
889.8000;0.3183;-0.0223;
890.1000;0.3150;-0.0223;
890.4000;0.3158;-0.0074;
890.7000;0.3150;-0.0074;
891.0000;0.3126;-0.0124;
891.3000;0.3199;-0.0025;
891.6000;0.3118;-0.0297;
891.9000;0.3142;-0.0173;
892.2000;0.3166;-0.0099;
892.5000;0.3142;-0.0124;
892.8000;0.3150;-0.0124;
893.1000;0.3142;-0.0173;
893.4000;0.3142;-0.0297;
893.7000;0.3126;-0.0322;
894.0000;0.3199;-0.0099;
894.3000;0.3134;-0.0198;
894.6000;0.3134;-0.0248;
894.9000;0.3150;-0.0149;
895.2000;0.3150;-0.0248;
895.5000;0.3199;-0.0124;
895.8000;0.3158;-0.0198;
896.1000;0.3134;-0.0297;
896.4000;0.3134;-0.0322;
896.7000;0.3126;-0.0396;
897.0000;0.3166;-0.0396;
897.3000;0.3150;-0.0446;
897.6000;0.3158;-0.0396;
897.9000;0.3150;-0.0272;
898.2000;0.3142;-0.0297;
898.5000;0.3158;-0.0248;
898.8000;0.3142;-0.0149;
899.1000;0.3166;-0.0149;
899.4000;0.3134;-0.0248;
899.7000;0.3101;-0.0223;
900.0000;0.3134;-0.0198;
900.3000;0.3142;-0.0173;
900.6000;0.3142;-0.0074;
900.9000;0.3150;-0.0149;
901.2000;0.3126;-0.0124;
901.5000;0.3158;-0.0124;
901.8000;0.3150;-0.0149;
902.1000;0.3158;-0.0173;
902.4000;0.3085;-0.0297;
902.7000;0.3150;-0.0124;
903.0000;0.3142;-0.0124;
903.3000;0.3109;-0.0223;
903.6000;0.3150;-0.0149;
903.9000;0.3150;-0.0198;
904.2000;0.3126;-0.0248;
904.5000;0.3150;-0.0149;
904.8000;0.3150;-0.0124;
905.1000;0.3142;-0.0149;
905.4000;0.3085;-0.0347;
905.7000;0.3126;-0.0198;
906.0000;0.3142;-0.0223;
906.3000;0.3142;-0.0248;
906.6000;0.3134;-0.0198;
906.9000;0.3166;-0.0025;
907.2000;0.3134;-0.0173;
907.5000;0.3134;-0.0198;
907.8000;0.3150;-0.0173;
908.1000;0.3175;-0.0074;
908.4000;0.3150;-0.0198;
908.7000;0.3142;-0.0223;
909.0000;0.3101;-0.0272;
909.3000;0.3142;-0.0173;
909.6000;0.3134;-0.0173;
909.9000;0.3134;-0.0248;
910.2000;0.3142;-0.0198;
910.5000;0.3150;-0.0149;
910.8000;0.3158;-0.0149;
911.1000;0.3191;0.0025;
911.4000;0.3142;-0.0149;
911.7000;0.3134;-0.0198;
912.0000;0.3142;-0.0149;
912.3000;0.3118;-0.0248;
912.6000;0.3142;-0.0248;
912.9000;0.3134;-0.0223;
913.2000;0.3150;-0.0173;
913.5000;0.3158;0.0000;
913.8000;0.3142;0.0025;
914.1000;0.3142;0.0074;
914.4000;0.3142;0.0149;
914.7000;0.3166;0.0198;
915.0000;0.3158;0.0124;
915.3000;0.3134;0.0025;
915.6000;0.3150;0.0000;
915.9000;0.3150;0.0025;
916.2000;0.3142;0.0000;
916.5000;0.3134;0.0050;
916.8000;0.3134;0.0099;
917.1000;0.3126;0.0050;
917.4000;0.3142;0.0124;
917.7000;0.3158;0.0173;
918.0000;0.3101;0.0025;
918.3000;0.3126;0.0124;
918.6000;0.3150;0.0124;
918.9000;0.3158;0.0149;
919.2000;0.3109;0.0025;
919.5000;0.3142;0.0025;
919.8000;0.3150;0.0000;
920.1000;0.3142;-0.0050;
920.4000;0.3126;-0.0074;
920.7000;0.3126;-0.0099;
921.0000;0.3126;-0.0050;
921.3000;0.3134;-0.0124;
921.6000;0.3142;-0.0173;
921.9000;0.3118;-0.0198;
922.2000;0.3134;-0.0099;
922.5000;0.3166;0.0025;
922.8000;0.3093;-0.0149;
923.1000;0.3199;0.0124;
923.4000;0.3109;-0.0050;
923.7000;0.3069;-0.0149;
924.0000;0.3126;0.0124;
924.3000;0.3069;-0.0074;
924.6000;0.3142;0.0149;
924.9000;0.3166;0.0124;
925.2000;0.3134;0.0074;
925.5000;0.3150;0.0124;
925.8000;0.3142;0.0074;
926.1000;0.3134;0.0099;
926.4000;0.3158;0.0124;
926.7000;0.3158;0.0223;
927.0000;0.3109;0.0074;
927.3000;0.3158;0.0099;
927.6000;0.3134;0.0124;
927.9000;0.3126;0.0099;
928.2000;0.3142;0.0149;
928.5000;0.3150;0.0198;
928.8000;0.3142;0.0149;
929.1000;0.3118;0.0050;
929.4000;0.3118;0.0074;
929.7000;0.3126;0.0050;
930.0000;0.3126;0.0025;
930.3000;0.3134;0.0000;
930.6000;0.3126;-0.0050;
930.9000;0.3150;-0.0050;
931.2000;0.3109;-0.0149;
931.5000;0.3142;-0.0149;
931.8000;0.3118;-0.0149;
932.1000;0.3134;-0.0124;
932.4000;0.3142;-0.0099;
932.7000;0.3134;-0.0025;
933.0000;0.3142;0.0050;
933.3000;0.3126;0.0025;
933.6000;0.3126;0.0000;
933.9000;0.3126;-0.0050;
934.2000;0.3126;-0.0149;
934.5000;0.3118;-0.0099;
934.8000;0.3109;-0.0050;
935.1000;0.3134;0.0124;
935.4000;0.3142;0.0149;
935.7000;0.3126;0.0099;
936.0000;0.3134;0.0124;
936.3000;0.3126;0.0000;
936.6000;0.3126;-0.0050;
936.9000;0.3142;-0.0050;
937.2000;0.3134;-0.0149;
937.5000;0.3118;-0.0223;
937.8000;0.3126;-0.0198;
938.1000;0.3158;-0.0198;
938.4000;0.3183;-0.0149;
938.7000;0.3142;-0.0297;
939.0000;0.3150;-0.0248;
939.3000;0.3175;-0.0173;
939.6000;0.3134;-0.0248;
939.9000;0.3126;-0.0272;
940.2000;0.3126;-0.0347;
940.5000;0.3118;-0.0322;
940.8000;0.3142;-0.0223;
941.1000;0.3150;-0.0173;
941.4000;0.3199;0.0025;
941.7000;0.3109;-0.0173;
942.0000;0.3109;-0.0099;
942.3000;0.3166;0.0099;
942.6000;0.3150;-0.0050;
942.9000;0.3126;-0.0074;
943.2000;0.3134;-0.0050;
943.5000;0.3126;-0.0173;
943.8000;0.3150;-0.0124;
944.1000;0.3158;-0.0099;
944.4000;0.3126;-0.0099;
944.7000;0.3158;-0.0099;
945.0000;0.3134;-0.0149;
945.3000;0.3109;-0.0297;
945.6000;0.3158;-0.0173;
945.9000;0.3166;-0.0124;
946.2000;0.3134;-0.0074;
946.5000;0.3109;-0.0050;
946.8000;0.3134;-0.0025;
947.1000;0.3142;-0.0025;
947.4000;0.3126;-0.0074;
947.7000;0.3118;-0.0149;
948.0000;0.3134;-0.0074;
948.3000;0.3158;0.0074;
948.6000;0.3191;0.0099;
948.9000;0.3118;-0.0050;
949.2000;0.3085;-0.0149;
949.5000;0.3142;-0.0050;
949.8000;0.3142;-0.0149;
950.1000;0.3142;-0.0223;
950.4000;0.3142;-0.0248;
950.7000;0.3142;-0.0124;
951.0000;0.3134;-0.0124;
951.3000;0.3126;-0.0173;
951.6000;0.3118;-0.0099;
951.9000;0.3093;-0.0248;
952.2000;0.3142;-0.0074;
952.5000;0.3142;0.0000;
952.8000;0.3061;-0.0198;
953.1000;0.3134;0.0025;
953.4000;0.3109;0.0000;
953.7000;0.3126;0.0000;
954.0000;0.3126;-0.0025;
954.3000;0.3101;-0.0074;
954.6000;0.3134;-0.0050;
954.9000;0.3191;0.0173;
955.2000;0.3150;0.0099;
955.5000;0.3126;0.0000;
955.8000;0.3134;0.0025;
956.1000;0.3134;-0.0025;
956.4000;0.3142;0.0000;
956.7000;0.3109;-0.0099;
957.0000;0.3109;-0.0198;
957.3000;0.3142;-0.0050;
957.6000;0.3126;0.0025;
957.9000;0.3158;0.0050;
958.2000;0.3134;-0.0025;
958.5000;0.3150;0.0074;
958.8000;0.3150;0.0198;
959.1000;0.3134;0.0198;
959.4000;0.3118;0.0149;
959.7000;0.3134;0.0198;
960.0000;0.3118;0.0248;
960.3000;0.3158;0.0371;
960.6000;0.3134;0.0124;
960.9000;0.3150;0.0025;
961.2000;0.3150;0.0025;
961.5000;0.3150;-0.0025;
961.8000;0.3134;-0.0025;
962.1000;0.3134;0.0000;
962.4000;0.3134;0.0025;
962.7000;0.3126;0.0050;
963.0000;0.3118;0.0025;
963.3000;0.3134;0.0074;
963.6000;0.3126;0.0124;
963.9000;0.3126;0.0099;
964.2000;0.3069;0.0000;
964.5000;0.3134;0.0223;
964.8000;0.3134;0.0223;
965.1000;0.3166;0.0248;
965.4000;0.3101;0.0223;
965.7000;0.3061;0.0074;
966.0000;0.3118;0.0248;
966.3000;0.3142;0.0173;
966.6000;0.3150;0.0149;
966.9000;0.3101;0.0149;
967.2000;0.3101;0.0124;
967.5000;0.3166;0.0173;
967.8000;0.3126;0.0074;
968.1000;0.3093;0.0000;
968.4000;0.3109;0.0025;
968.7000;0.3118;-0.0025;
969.0000;0.3101;-0.0074;
969.3000;0.3134;-0.0050;
969.6000;0.3118;-0.0050;
969.9000;0.3109;-0.0050;
970.2000;0.3118;-0.0124;
970.5000;0.3118;-0.0124;
970.8000;0.3118;-0.0074;
971.1000;0.3118;-0.0124;
971.4000;0.3101;-0.0173;
971.7000;0.3134;-0.0124;
972.0000;0.3118;-0.0149;
972.3000;0.3134;-0.0198;
972.6000;0.3118;-0.0248;
972.9000;0.3118;-0.0173;
973.2000;0.3109;-0.0124;
973.5000;0.3118;-0.0074;
973.8000;0.3118;-0.0099;
974.1000;0.3118;0.0000;
974.4000;0.3126;0.0050;
974.7000;0.3085;-0.0099;
975.0000;0.3126;0.0025;
975.3000;0.3118;0.0050;
975.6000;0.3142;0.0025;
975.9000;0.3134;0.0000;
976.2000;0.3118;0.0000;
976.5000;0.3134;0.0099;
976.8000;0.3134;0.0149;
977.1000;0.3118;0.0099;
977.4000;0.3109;0.0000;
977.7000;0.3109;-0.0025;
978.0000;0.3101;0.0000;
978.3000;0.3126;0.0050;
978.6000;0.3109;0.0000;
978.9000;0.3142;0.0074;
979.2000;0.3126;-0.0050;
979.5000;0.3134;-0.0099;
979.8000;0.3126;-0.0173;
980.1000;0.3109;-0.0223;
980.4000;0.3093;-0.0248;
980.7000;0.3134;-0.0149;
981.0000;0.3109;-0.0248;
981.3000;0.3126;-0.0248;
981.6000;0.3126;-0.0297;
981.9000;0.3183;-0.0149;
982.2000;0.3142;-0.0198;
982.5000;0.3053;-0.0297;
982.8000;0.3109;-0.0099;
983.1000;0.3118;-0.0149;
983.4000;0.3118;-0.0198;
983.7000;0.3126;-0.0198;
984.0000;0.3109;-0.0272;
984.3000;0.3109;-0.0223;
984.6000;0.3118;-0.0149;
984.9000;0.3118;-0.0248;
985.2000;0.3126;-0.0248;
985.5000;0.3118;-0.0198;
985.8000;0.3150;-0.0099;
986.1000;0.3134;-0.0173;
986.4000;0.3109;-0.0223;
986.7000;0.3183;-0.0074;
987.0000;0.3126;-0.0198;
987.3000;0.3142;-0.0149;
987.6000;0.3109;-0.0124;
987.9000;0.3126;-0.0198;
988.2000;0.3101;-0.0149;
988.5000;0.3053;-0.0223;
988.8000;0.3134;-0.0074;
989.1000;0.3166;-0.0099;
989.4000;0.3118;-0.0173;
989.7000;0.3093;-0.0223;
990.0000;0.3093;-0.0099;
990.3000;0.3150;0.0000;
990.6000;0.3101;-0.0149;
990.9000;0.3134;-0.0099;
991.2000;0.3109;-0.0124;
991.5000;0.3126;-0.0099;
991.8000;0.3118;-0.0099;
992.1000;0.3109;-0.0074;
992.4000;0.3118;-0.0074;
992.7000;0.3118;-0.0050;
993.0000;0.3109;-0.0124;
993.3000;0.3126;-0.0173;
993.6000;0.3093;-0.0297;
993.9000;0.3118;-0.0248;
994.2000;0.3093;-0.0347;
994.5000;0.3109;-0.0322;
994.8000;0.3109;-0.0272;
995.1000;0.3118;-0.0223;
995.4000;0.3109;-0.0272;
995.7000;0.3109;-0.0248;
996.0000;0.3109;-0.0099;
996.3000;0.3142;-0.0124;
996.6000;0.3101;-0.0173;
996.9000;0.3126;-0.0149;
997.2000;0.3109;-0.0149;
997.5000;0.3093;-0.0248;
997.8000;0.3118;-0.0223;
998.1000;0.3101;-0.0099;
998.4000;0.3109;-0.0124;
998.7000;0.3142;-0.0074;
999.0000;0.3134;-0.0074;
999.3000;0.3101;-0.0099;
999.6000;0.3101;-0.0173;
999.9000;0.3126;-0.0149;
1000.2000;0.3109;-0.0173;
1000.5000;0.3109;-0.0149;
1000.8000;0.3118;-0.0074;
1001.1000;0.3118;-0.0124;
1001.4000;0.3126;-0.0173;
1001.7000;0.3118;-0.0223;
1002.0000;0.3109;-0.0272;
1002.3000;0.3109;-0.0272;
1002.6000;0.3126;-0.0124;
1002.9000;0.3118;-0.0025;
1003.2000;0.3109;-0.0074;
1003.5000;0.3142;0.0025;
1003.8000;0.3126;0.0025;
1004.1000;0.3085;0.0000;
1004.4000;0.3118;0.0099;
1004.7000;0.3101;0.0050;
1005.0000;0.3118;0.0074;
1005.3000;0.3109;-0.0074;
1005.6000;0.3142;-0.0025;
1005.9000;0.3126;0.0000;
1006.2000;0.3126;0.0050;
1006.5000;0.3150;0.0124;
1006.8000;0.3126;0.0099;
1007.1000;0.3142;0.0173;
1007.4000;0.3093;0.0149;
1007.7000;0.3134;0.0297;
1008.0000;0.3142;0.0173;
1008.3000;0.3109;0.0099;
1008.6000;0.3044;-0.0149;
1008.9000;0.3118;-0.0025;
1009.2000;0.3126;-0.0099;
1009.5000;0.3101;-0.0149;
1009.8000;0.3109;-0.0149;
1010.1000;0.3134;-0.0099;
1010.4000;0.3118;-0.0025;
1010.7000;0.3118;0.0025;
1011.0000;0.3109;-0.0099;
1011.3000;0.3118;-0.0124;
1011.6000;0.3126;-0.0099;
1011.9000;0.3109;-0.0272;
1012.2000;0.3101;-0.0396;
1012.5000;0.3158;-0.0248;
1012.8000;0.3020;-0.0495;
1013.1000;0.3142;-0.0124;
1013.4000;0.3101;-0.0149;
1013.7000;0.3101;-0.0074;
1014.0000;0.3036;-0.0198;
1014.3000;0.3069;-0.0124;
1014.6000;0.3126;-0.0050;
1014.9000;0.3101;-0.0099;
1015.2000;0.3101;-0.0074;
1015.5000;0.3126;0.0025;
1015.8000;0.3101;0.0074;
1016.1000;0.3118;0.0074;
1016.4000;0.3118;-0.0050;
1016.7000;0.3126;0.0000;
1017.0000;0.3109;-0.0050;
1017.3000;0.3053;-0.0248;
1017.6000;0.3134;-0.0050;
1017.9000;0.3101;-0.0223;
1018.2000;0.3142;-0.0124;
1018.5000;0.3126;-0.0099;
1018.8000;0.3085;-0.0149;
1019.1000;0.3036;-0.0198;
1019.4000;0.3134;-0.0050;
1019.7000;0.3118;-0.0074;
1020.0000;0.3134;-0.0124;
1020.3000;0.3199;0.0074;
1020.6000;0.3134;-0.0050;
1020.9000;0.3142;-0.0025;
1021.2000;0.3134;-0.0025;
1021.5000;0.3069;-0.0074;
1021.8000;0.3061;-0.0050;
1022.1000;0.3118;0.0124;
1022.4000;0.3093;0.0074;
1022.7000;0.3134;0.0223;
1023.0000;0.3093;0.0074;
1023.3000;0.3126;0.0149;
1023.6000;0.3093;0.0074;
1023.9000;0.3077;0.0050;
1024.2000;0.3093;0.0074;
1024.5000;0.3109;0.0149;
1024.8000;0.3134;0.0198;
1025.1000;0.3101;0.0074;
1025.4000;0.3118;0.0025;
1025.7000;0.3166;0.0124;
1026.0000;0.3126;0.0074;
1026.3000;0.3109;0.0074;
1026.6000;0.3109;0.0149;
1026.9000;0.3069;0.0050;
1027.2000;0.3101;0.0198;
1027.5000;0.3142;0.0248;
1027.8000;0.3118;0.0173;
1028.1000;0.3109;0.0198;
1028.4000;0.3109;0.0248;
1028.7000;0.3077;0.0149;
1029.0000;0.3109;0.0297;
1029.3000;0.3085;0.0248;
1029.6000;0.3101;0.0248;
1029.9000;0.3134;0.0297;
1030.2000;0.3134;0.0272;
1030.5000;0.3118;0.0371;
1030.8000;0.3109;0.0446;
1031.1000;0.3134;0.0446;
1031.4000;0.3077;0.0248;
1031.7000;0.3109;0.0396;
1032.0000;0.3101;0.0396;
1032.3000;0.3126;0.0371;
1032.6000;0.3109;0.0421;
1032.9000;0.3109;0.0421;
1033.2000;0.3085;0.0322;
1033.5000;0.3101;0.0371;
1033.8000;0.3109;0.0347;
1034.1000;0.3101;0.0198;
1034.4000;0.3093;0.0099;
1034.7000;0.3093;0.0149;
1035.0000;0.3101;0.0099;
1035.3000;0.3109;0.0149;
1035.6000;0.3093;0.0025;
1035.9000;0.3077;0.0000;
1036.2000;0.3118;0.0173;
1036.5000;0.3101;0.0248;
1036.8000;0.3118;0.0173;
1037.1000;0.3093;0.0074;
1037.4000;0.3118;0.0074;
1037.7000;0.3028;-0.0099;
1038.0000;0.3101;0.0173;
1038.3000;0.3109;0.0248;
1038.6000;0.3101;0.0149;
1038.9000;0.3118;0.0099;
1039.2000;0.3077;0.0050;
1039.5000;0.3085;0.0025;
1039.8000;0.3101;0.0050;
1040.1000;0.3118;0.0099;
1040.4000;0.3109;0.0025;
1040.7000;0.3118;-0.0050;
1041.0000;0.3118;0.0000;
1041.3000;0.3158;0.0074;
1041.6000;0.3134;-0.0025;
1041.9000;0.3175;0.0149;
1042.2000;0.3101;0.0050;
1042.5000;0.3093;-0.0050;
1042.8000;0.3134;0.0025;
1043.1000;0.3061;-0.0173;
1043.4000;0.3109;-0.0074;
1043.7000;0.3101;0.0025;
1044.0000;0.3093;0.0099;
1044.3000;0.3134;0.0198;
1044.6000;0.3118;0.0025;
1044.9000;0.3109;-0.0099;
1045.2000;0.3093;-0.0149;
1045.5000;0.3109;-0.0099;
1045.8000;0.3109;-0.0099;
1046.1000;0.3109;-0.0050;
1046.4000;0.3109;-0.0074;
1046.7000;0.3126;0.0025;
1047.0000;0.3101;-0.0074;
1047.3000;0.3109;-0.0025;
1047.6000;0.3118;0.0050;
1047.9000;0.3109;0.0074;
1048.2000;0.3101;0.0050;
1048.5000;0.3109;0.0074;
1048.8000;0.3134;0.0099;
1049.1000;0.3126;0.0050;
1049.4000;0.3126;0.0000;
1049.7000;0.3118;0.0050;
1050.0000;0.3069;0.0000;
1050.3000;0.3109;0.0099;
1050.6000;0.3109;0.0025;
1050.9000;0.3085;-0.0074;
1051.2000;0.3118;-0.0050;
1051.5000;0.3134;-0.0074;
1051.8000;0.3118;-0.0099;
1052.1000;0.3109;-0.0074;
1052.4000;0.3093;-0.0124;
1052.7000;0.3118;-0.0099;
1053.0000;0.3126;-0.0050;
1053.3000;0.3109;-0.0074;
1053.6000;0.3199;0.0124;
1053.9000;0.3118;-0.0074;
1054.2000;0.3126;-0.0074;
1054.5000;0.3109;-0.0050;
1054.8000;0.3101;-0.0124;
1055.1000;0.3150;-0.0074;
1055.4000;0.3085;-0.0223;
1055.7000;0.3126;-0.0124;
1056.0000;0.3109;-0.0099;
1056.3000;0.3085;-0.0149;
1056.6000;0.3109;0.0000;
1056.9000;0.3118;-0.0074;
1057.2000;0.3028;-0.0396;
1057.5000;0.3134;-0.0173;
1057.8000;0.3109;-0.0272;
1058.1000;0.3109;-0.0322;
1058.4000;0.3109;-0.0297;
1058.7000;0.3101;-0.0223;
1059.0000;0.3134;-0.0074;
1059.3000;0.3093;-0.0198;
1059.6000;0.3118;-0.0198;
1059.9000;0.3069;-0.0272;
1060.2000;0.3118;-0.0248;
1060.5000;0.3109;-0.0248;
1060.8000;0.3118;-0.0149;
1061.1000;0.3134;-0.0074;
1061.4000;0.3118;-0.0272;
1061.7000;0.3101;-0.0347;
1062.0000;0.3069;-0.0421;
1062.3000;0.3101;-0.0297;
1062.6000;0.3101;-0.0297;
1062.9000;0.3109;-0.0322;
1063.2000;0.3134;-0.0421;
1063.5000;0.3183;-0.0297;
1063.8000;0.3118;-0.0396;
1064.1000;0.3101;-0.0396;
1064.4000;0.3109;-0.0396;
1064.7000;0.3109;-0.0371;
1065.0000;0.3126;-0.0322;
1065.3000;0.3101;-0.0470;
1065.6000;0.3101;-0.0421;
1065.9000;0.3101;-0.0446;
1066.2000;0.3101;-0.0446;
1066.5000;0.3118;-0.0421;
1066.8000;0.3109;-0.0347;
1067.1000;0.3118;-0.0421;
1067.4000;0.3109;-0.0470;
1067.7000;0.3109;-0.0446;
1068.0000;0.3101;-0.0446;
1068.3000;0.3101;-0.0446;
1068.6000;0.3101;-0.0347;
1068.9000;0.3101;-0.0347;
1069.2000;0.3109;-0.0371;
1069.5000;0.3101;-0.0347;
1069.8000;0.3109;-0.0297;
1070.1000;0.3118;-0.0173;
1070.4000;0.3101;-0.0124;
1070.7000;0.3101;-0.0248;
1071.0000;0.3109;-0.0248;
1071.3000;0.3093;-0.0149;
1071.6000;0.3093;-0.0173;
1071.9000;0.3191;0.0124;
1072.2000;0.3109;-0.0099;
1072.5000;0.3093;-0.0149;
1072.8000;0.3101;-0.0173;
1073.1000;0.3109;-0.0198;
1073.4000;0.3077;-0.0272;
1073.7000;0.3085;-0.0248;
1074.0000;0.3118;-0.0149;
1074.3000;0.3101;-0.0198;
1074.6000;0.3118;-0.0099;
1074.9000;0.3085;-0.0050;
1075.2000;0.3134;0.0074;
1075.5000;0.3101;0.0050;
1075.8000;0.3093;0.0000;
1076.1000;0.3093;-0.0025;
1076.4000;0.3109;-0.0099;
1076.7000;0.3101;-0.0124;
1077.0000;0.3101;-0.0074;
1077.3000;0.3085;-0.0025;
1077.6000;0.3126;0.0074;
1077.9000;0.3109;-0.0050;
1078.2000;0.3118;0.0000;
1078.5000;0.3134;0.0074;
1078.8000;0.3109;0.0025;
1079.1000;0.3109;-0.0050;
1079.4000;0.3101;-0.0050;
1079.7000;0.3085;-0.0124;
1080.0000;0.3126;-0.0099;
1080.3000;0.3118;-0.0050;
1080.6000;0.3134;-0.0099;
1080.9000;0.3109;-0.0149;
1081.2000;0.3044;-0.0322;
1081.5000;0.3101;-0.0124;
1081.8000;0.3077;-0.0173;
1082.1000;0.3061;-0.0173;
1082.4000;0.3109;-0.0124;
1082.7000;0.3142;-0.0074;
1083.0000;0.3093;-0.0248;
1083.3000;0.3085;-0.0223;
1083.6000;0.3126;-0.0124;
1083.9000;0.3093;-0.0223;
1084.2000;0.3109;-0.0198;
1084.5000;0.3093;-0.0223;
1084.8000;0.3101;-0.0223;
1085.1000;0.3101;-0.0223;
1085.4000;0.3101;-0.0173;
1085.7000;0.3126;-0.0149;
1086.0000;0.3109;-0.0124;
1086.3000;0.3109;-0.0099;
1086.6000;0.3101;-0.0173;
1086.9000;0.3101;-0.0173;
1087.2000;0.3118;-0.0198;
1087.5000;0.3101;-0.0198;
1087.8000;0.3118;-0.0248;
1088.1000;0.3126;-0.0173;
1088.4000;0.3093;-0.0272;
1088.7000;0.3101;-0.0272;
1089.0000;0.3134;-0.0198;
1089.3000;0.3109;-0.0248;
1089.6000;0.3118;-0.0297;
1089.9000;0.3150;-0.0198;
1090.2000;0.3101;-0.0223;
1090.5000;0.3101;-0.0297;
1090.8000;0.3109;-0.0297;
1091.1000;0.3118;-0.0297;
1091.4000;0.3109;-0.0272;
1091.7000;0.3093;-0.0272;
1092.0000;0.3109;-0.0173;
1092.3000;0.3069;-0.0173;
1092.6000;0.3101;-0.0124;
1092.9000;0.3126;-0.0149;
1093.2000;0.3101;-0.0272;
1093.5000;0.3142;-0.0248;
1093.8000;0.3093;-0.0248;
1094.1000;0.3101;-0.0223;
1094.4000;0.3101;-0.0173;
1094.7000;0.3118;-0.0124;
1095.0000;0.3028;-0.0371;
1095.3000;0.3093;-0.0173;
1095.6000;0.3101;-0.0198;
1095.9000;0.3175;-0.0050;
1096.2000;0.3101;-0.0248;
1096.5000;0.3093;-0.0248;
1096.8000;0.3109;-0.0099;
1097.1000;0.3101;-0.0124;
1097.4000;0.3109;-0.0099;
1097.7000;0.3085;-0.0074;
1098.0000;0.3053;-0.0198;
1098.3000;0.3109;-0.0099;
1098.6000;0.3118;-0.0025;
1098.9000;0.3118;-0.0025;
1099.2000;0.3101;-0.0099;
1099.5000;0.3109;-0.0099;
1099.8000;0.3109;-0.0050;
1100.1000;0.3118;0.0000;
1100.4000;0.3118;0.0025;
1100.7000;0.3118;-0.0050;
1101.0000;0.3126;-0.0025;
1101.3000;0.3101;-0.0099;
1101.6000;0.3093;-0.0099;
1101.9000;0.3150;0.0050;
1102.2000;0.3118;-0.0050;
1102.5000;0.3109;-0.0124;
1102.8000;0.3085;-0.0173;
1103.1000;0.3101;-0.0099;
1103.4000;0.3020;-0.0248;
1103.7000;0.3150;0.0124;
1104.0000;0.3101;-0.0025;
1104.3000;0.3085;-0.0050;
1104.6000;0.3093;0.0000;
1104.9000;0.3077;-0.0099;
1105.2000;0.3053;-0.0099;
1105.5000;0.3101;-0.0025;
1105.8000;0.3085;-0.0050;
1106.1000;0.3109;-0.0050;
1106.4000;0.3134;-0.0025;
1106.7000;0.3109;-0.0074;
1107.0000;0.3109;-0.0074;
1107.3000;0.3118;-0.0025;
1107.6000;0.3101;-0.0074;
1107.9000;0.3126;-0.0050;
1108.2000;0.3109;-0.0173;
1108.5000;0.3077;-0.0149;
1108.8000;0.3118;-0.0050;
1109.1000;0.3101;-0.0099;
1109.4000;0.3101;-0.0099;
1109.7000;0.3069;-0.0173;
1110.0000;0.3126;-0.0074;
1110.3000;0.3118;-0.0074;
1110.6000;0.3085;-0.0149;
1110.9000;0.3109;-0.0074;
1111.2000;0.3101;-0.0074;
1111.5000;0.3109;-0.0074;
1111.8000;0.3118;-0.0074;
1112.1000;0.3109;-0.0099;
1112.4000;0.3126;-0.0050;
1112.7000;0.3093;-0.0149;
1113.0000;0.3109;-0.0074;
1113.3000;0.3118;-0.0025;
1113.6000;0.3109;-0.0025;
1113.9000;0.3158;-0.0050;
1114.2000;0.3118;-0.0173;
1114.5000;0.3109;-0.0223;
1114.8000;0.3093;-0.0124;
1115.1000;0.3118;-0.0074;
1115.4000;0.3109;-0.0050;
1115.7000;0.3085;-0.0099;
1116.0000;0.3101;0.0025;
1116.3000;0.3101;0.0074;
1116.6000;0.3158;0.0173;
1116.9000;0.3109;-0.0025;
1117.2000;0.3142;0.0050;
1117.5000;0.3109;-0.0050;
1117.8000;0.3093;-0.0074;
1118.1000;0.3101;-0.0025;
1118.4000;0.3085;-0.0050;
1118.7000;0.3109;0.0050;
1119.0000;0.3223;0.0322;
1119.3000;0.3077;-0.0099;
1119.6000;0.3101;0.0025;
1119.9000;0.3077;-0.0074;
1120.2000;0.3085;-0.0050;
1120.5000;0.3093;-0.0124;
1120.8000;0.3101;-0.0149;
1121.1000;0.3093;-0.0272;
1121.4000;0.3118;-0.0223;
1121.7000;0.3093;-0.0248;
1122.0000;0.3101;-0.0272;
1122.3000;0.3093;-0.0248;
1122.6000;0.3101;-0.0223;
1122.9000;0.3101;-0.0297;
1123.2000;0.3101;-0.0223;
1123.5000;0.3109;-0.0149;
1123.8000;0.3093;-0.0099;
1124.1000;0.3109;-0.0223;
1124.4000;0.3101;-0.0198;
1124.7000;0.3093;-0.0223;
1125.0000;0.3109;-0.0223;
1125.3000;0.3126;-0.0198;
1125.6000;0.3109;-0.0198;
1125.9000;0.3118;-0.0099;
1126.2000;0.3101;-0.0223;
1126.5000;0.3150;-0.0173;
1126.8000;0.3109;-0.0272;
1127.1000;0.3142;-0.0149;
1127.4000;0.3109;-0.0198;
1127.7000;0.3077;-0.0297;
1128.0000;0.3077;-0.0371;
1128.3000;0.3101;-0.0223;
1128.6000;0.3101;-0.0198;
1128.9000;0.3093;-0.0223;
1129.2000;0.3126;-0.0272;
1129.5000;0.3142;-0.0198;
1129.8000;0.3093;-0.0223;
1130.1000;0.3077;-0.0248;
1130.4000;0.3061;-0.0297;
1130.7000;0.3093;-0.0297;
1131.0000;0.3101;-0.0297;
1131.3000;0.3109;-0.0248;
1131.6000;0.3085;-0.0272;
1131.9000;0.3093;-0.0149;
1132.2000;0.3085;-0.0149;
1132.5000;0.3061;-0.0248;
1132.8000;0.3109;-0.0223;
1133.1000;0.3093;-0.0173;
1133.4000;0.3053;-0.0322;
1133.7000;0.3101;-0.0149;
1134.0000;0.3101;-0.0099;
1134.3000;0.3109;-0.0124;
1134.6000;0.3126;-0.0149;
1134.9000;0.3109;-0.0149;
1135.2000;0.3101;-0.0173;
1135.5000;0.3053;-0.0248;
1135.8000;0.3118;-0.0074;
1136.1000;0.3109;-0.0124;
1136.4000;0.3077;-0.0198;
1136.7000;0.3085;-0.0149;
1137.0000;0.3093;-0.0198;
1137.3000;0.3061;-0.0297;
1137.6000;0.3101;-0.0223;
1137.9000;0.3150;0.0050;
1138.2000;0.3109;0.0000;
1138.5000;0.3109;-0.0074;
1138.8000;0.3093;-0.0124;
1139.1000;0.3093;-0.0223;
1139.4000;0.3126;-0.0149;
1139.7000;0.3028;-0.0421;
1140.0000;0.3109;-0.0248;
1140.3000;0.3077;-0.0371;
1140.6000;0.3109;-0.0198;
1140.9000;0.3101;-0.0074;
1141.2000;0.3109;-0.0050;
1141.5000;0.3093;-0.0124;
1141.8000;0.3085;-0.0223;
1142.1000;0.3109;-0.0173;
1142.4000;0.3109;-0.0198;
1142.7000;0.3085;-0.0297;
1143.0000;0.3085;-0.0248;
1143.3000;0.3061;-0.0223;
1143.6000;0.3109;-0.0050;
1143.9000;0.3101;-0.0099;
1144.2000;0.3085;-0.0198;
1144.5000;0.3093;-0.0248;
1144.8000;0.3118;-0.0173;
1145.1000;0.3101;-0.0124;
1145.4000;0.3077;-0.0074;
1145.7000;0.3093;-0.0050;
1146.0000;0.3109;0.0000;
1146.3000;0.3093;-0.0025;
1146.6000;0.3101;0.0000;
1146.9000;0.3093;-0.0074;
1147.2000;0.3109;-0.0099;
1147.5000;0.3109;-0.0099;
1147.8000;0.3126;-0.0074;
1148.1000;0.3101;-0.0198;
1148.4000;0.3118;-0.0074;
1148.7000;0.3126;-0.0074;
1149.0000;0.3134;-0.0050;
1149.3000;0.3126;-0.0198;
1149.6000;0.3044;-0.0470;
1149.9000;0.3126;-0.0272;
1150.2000;0.3101;-0.0272;
1150.5000;0.3101;-0.0248;
1150.8000;0.3109;-0.0297;
1151.1000;0.3101;-0.0297;
1151.4000;0.3118;-0.0272;
1151.7000;0.3101;-0.0322;
1152.0000;0.3093;-0.0322;
1152.3000;0.3118;-0.0347;
1152.6000;0.3109;-0.0297;
1152.9000;0.3077;-0.0322;
1153.2000;0.3109;-0.0223;
1153.5000;0.3077;-0.0198;
1153.8000;0.3093;-0.0124;
1154.1000;0.3101;-0.0173;
1154.4000;0.3077;-0.0173;
1154.7000;0.3166;-0.0099;
1155.0000;0.3093;-0.0248;
1155.3000;0.3101;-0.0198;
1155.6000;0.3093;-0.0173;
1155.9000;0.3101;-0.0173;
1156.2000;0.3118;-0.0248;
1156.5000;0.3085;-0.0297;
1156.8000;0.3093;-0.0248;
1157.1000;0.3093;-0.0248;
1157.4000;0.3085;-0.0347;
1157.7000;0.3093;-0.0322;
1158.0000;0.3118;-0.0223;
1158.3000;0.3109;-0.0173;
1158.6000;0.3077;-0.0198;
1158.9000;0.3134;-0.0099;
1159.2000;0.3109;-0.0198;
1159.5000;0.3093;-0.0198;
1159.8000;0.3109;-0.0099;
1160.1000;0.3093;-0.0124;
1160.4000;0.3109;-0.0099;
1160.7000;0.3134;-0.0124;
1161.0000;0.3126;-0.0173;
1161.3000;0.3101;-0.0198;
1161.6000;0.3109;-0.0099;
1161.9000;0.3101;-0.0074;
1162.2000;0.3118;0.0000;
1162.5000;0.3134;0.0074;
1162.8000;0.3109;-0.0050;
1163.1000;0.3085;-0.0099;
1163.4000;0.3126;0.0025;
1163.7000;0.3028;-0.0173;
1164.0000;0.3093;-0.0025;
1164.3000;0.3093;0.0050;
1164.6000;0.3061;-0.0149;
1164.9000;0.3101;-0.0050;
1165.2000;0.3077;-0.0124;
1165.5000;0.3077;-0.0025;
1165.8000;0.3093;0.0025;
1166.1000;0.3126;-0.0050;
1166.4000;0.3118;-0.0074;
1166.7000;0.3093;-0.0198;
1167.0000;0.3093;-0.0272;
1167.3000;0.3101;-0.0322;
1167.6000;0.3101;-0.0272;
1167.9000;0.3109;-0.0248;
1168.2000;0.3126;-0.0149;
1168.5000;0.3053;-0.0297;
1168.8000;0.3077;-0.0173;
1169.1000;0.3077;-0.0297;
1169.4000;0.3077;-0.0297;
1169.7000;0.3109;-0.0198;
1170.0000;0.3126;-0.0198;
1170.3000;0.3085;-0.0173;
1170.6000;0.3085;-0.0173;
1170.9000;0.3093;-0.0149;
1171.2000;0.3109;-0.0149;
1171.5000;0.3085;-0.0149;
1171.8000;0.3126;-0.0124;
1172.1000;0.3093;-0.0223;
1172.4000;0.3093;-0.0322;
1172.7000;0.3158;-0.0149;
1173.0000;0.3118;-0.0173;
1173.3000;0.3126;-0.0124;
1173.6000;0.3028;-0.0322;
1173.9000;0.3101;-0.0050;
1174.2000;0.3118;-0.0173;
1174.5000;0.3101;-0.0149;
1174.8000;0.3053;-0.0297;
1175.1000;0.3093;-0.0173;
1175.4000;0.3118;-0.0124;
1175.7000;0.3085;-0.0124;
1176.0000;0.3061;-0.0272;
1176.3000;0.3028;-0.0396;
1176.6000;0.3077;-0.0272;
1176.9000;0.3142;-0.0198;
1177.2000;0.3101;-0.0371;
1177.5000;0.3109;-0.0371;
1177.8000;0.3093;-0.0297;
1178.1000;0.3077;-0.0396;
1178.4000;0.3118;-0.0297;
1178.7000;0.3118;-0.0248;
1179.0000;0.3093;-0.0322;
1179.3000;0.3093;-0.0396;
1179.6000;0.3101;-0.0347;
1179.9000;0.3101;-0.0322;
1180.2000;0.3085;-0.0446;
1180.5000;0.3109;-0.0421;
1180.8000;0.3085;-0.0396;
1181.1000;0.3093;-0.0322;
1181.4000;0.3093;-0.0297;
1181.7000;0.3069;-0.0371;
1182.0000;0.3093;-0.0347;
1182.3000;0.3061;-0.0371;
1182.6000;0.3093;-0.0297;
1182.9000;0.3118;-0.0272;
1183.2000;0.3101;-0.0322;
1183.5000;0.3109;-0.0272;
1183.8000;0.3101;-0.0347;
1184.1000;0.3109;-0.0347;
1184.4000;0.3061;-0.0396;
1184.7000;0.3150;-0.0198;
1185.0000;0.3126;-0.0272;
1185.3000;0.3158;-0.0149;
1185.6000;0.3109;-0.0173;
1185.9000;0.3158;-0.0124;
1186.2000;0.3109;-0.0223;
1186.5000;0.3036;-0.0322;
1186.8000;0.3109;-0.0223;
1187.1000;0.3093;-0.0322;
1187.4000;0.3093;-0.0322;
1187.7000;0.3101;-0.0322;
1188.0000;0.3085;-0.0446;
1188.3000;0.3069;-0.0421;
1188.6000;0.3093;-0.0421;
1188.9000;0.3109;-0.0371;
1189.2000;0.3101;-0.0446;
1189.5000;0.3077;-0.0446;
1189.8000;0.3077;-0.0446;
1190.1000;0.3093;-0.0371;
1190.4000;0.3093;-0.0446;
1190.7000;0.3101;-0.0322;
1191.0000;0.3077;-0.0371;
1191.3000;0.3118;-0.0272;
1191.6000;0.3093;-0.0322;
1191.9000;0.3069;-0.0470;
1192.2000;0.3085;-0.0421;
1192.5000;0.3101;-0.0421;
1192.8000;0.3093;-0.0520;
1193.1000;0.3093;-0.0470;
1193.4000;0.3101;-0.0347;
1193.7000;0.3069;-0.0396;
1194.0000;0.3093;-0.0371;
1194.3000;0.3093;-0.0421;
1194.6000;0.3077;-0.0322;
1194.9000;0.3093;-0.0223;
1195.2000;0.3093;-0.0198;
1195.5000;0.3109;-0.0248;
1195.8000;0.3085;-0.0297;
1196.1000;0.3085;-0.0272;
1196.4000;0.3077;-0.0297;
1196.7000;0.3101;-0.0198;
1197.0000;0.3093;-0.0248;
1197.3000;0.3109;-0.0223;
1197.6000;0.3183;-0.0099;
1197.9000;0.3126;-0.0173;
1198.2000;0.3101;-0.0272;
1198.5000;0.3077;-0.0223;
1198.8000;0.3101;-0.0173;
1199.1000;0.3093;-0.0223;
1199.4000;0.3093;-0.0248;
1199.7000;0.3093;-0.0248;
1200.0000;0.3085;-0.0297;
1200.3000;0.3061;-0.0272;
1200.6000;0.3118;-0.0149;
1200.9000;0.3069;-0.0198;
1201.2000;0.3093;-0.0173;
1201.5000;0.3085;-0.0198;
1201.8000;0.3134;-0.0050;
1202.1000;0.3118;-0.0099;
1202.4000;0.3101;-0.0198;
1202.7000;0.3109;-0.0173;
1203.0000;0.3109;-0.0173;
1203.3000;0.3069;-0.0173;
1203.6000;0.3101;-0.0099;
1203.9000;0.3077;-0.0099;
1204.2000;0.3085;-0.0099;
1204.5000;0.3109;-0.0025;
1204.8000;0.3093;-0.0099;
1205.1000;0.3093;-0.0124;
1205.4000;0.3109;-0.0149;
1205.7000;0.3109;-0.0223;
1206.0000;0.3118;-0.0198;
1206.3000;0.3093;-0.0173;
1206.6000;0.3093;-0.0124;
1206.9000;0.3118;-0.0074;
1207.2000;0.3118;-0.0198;
1207.5000;0.3101;-0.0347;
1207.8000;0.3101;-0.0322;
1208.1000;0.3118;-0.0297;
1208.4000;0.3085;-0.0371;
1208.7000;0.3093;-0.0322;
1209.0000;0.3093;-0.0272;
1209.3000;0.3101;-0.0248;
1209.6000;0.3109;-0.0149;
1209.9000;0.3101;-0.0124;
1210.2000;0.3093;-0.0173;
1210.5000;0.3093;-0.0124;
1210.8000;0.3150;0.0025;
1211.1000;0.3093;-0.0050;
1211.4000;0.3101;-0.0025;
1211.7000;0.3109;-0.0099;
1212.0000;0.3004;-0.0371;
1212.3000;0.3142;0.0000;
1212.6000;0.3101;-0.0149;
1212.9000;0.3085;-0.0272;
1213.2000;0.3093;-0.0248;
1213.5000;0.3085;-0.0297;
1213.8000;0.3101;-0.0297;
1214.1000;0.3093;-0.0297;
1214.4000;0.3093;-0.0297;
1214.7000;0.3093;-0.0322;
1215.0000;0.3101;-0.0347;
1215.3000;0.3142;-0.0248;
1215.6000;0.3109;-0.0297;
1215.9000;0.3069;-0.0396;
1216.2000;0.3061;-0.0421;
1216.5000;0.3101;-0.0371;
1216.8000;0.3093;-0.0322;
1217.1000;0.3101;-0.0248;
1217.4000;0.3118;-0.0223;
1217.7000;0.3093;-0.0223;
1218.0000;0.3085;-0.0272;
1218.3000;0.3101;-0.0198;
1218.6000;0.3101;-0.0149;
1218.9000;0.3093;-0.0223;
1219.2000;0.3085;-0.0198;
1219.5000;0.3118;-0.0198;
1219.8000;0.3101;-0.0198;
1220.1000;0.3109;-0.0173;
1220.4000;0.3101;-0.0322;
1220.7000;0.3077;-0.0248;
1221.0000;0.3118;-0.0173;
1221.3000;0.3093;-0.0198;
1221.6000;0.3109;-0.0173;
1221.9000;0.3093;-0.0173;
1222.2000;0.3118;-0.0198;
1222.5000;0.3150;-0.0173;
1222.8000;0.3053;-0.0446;
1223.1000;0.3118;-0.0297;
1223.4000;0.3093;-0.0371;
1223.7000;0.3093;-0.0347;
1224.0000;0.3101;-0.0322;
1224.3000;0.3134;-0.0173;
1224.6000;0.3093;-0.0223;
1224.9000;0.3085;-0.0173;
1225.2000;0.3101;-0.0099;
1225.5000;0.3093;-0.0074;
1225.8000;0.3109;-0.0025;
1226.1000;0.3085;-0.0124;
1226.4000;0.3093;-0.0050;
1226.7000;0.3093;-0.0050;
1227.0000;0.3085;-0.0099;
1227.3000;0.3077;-0.0099;
1227.6000;0.3101;0.0025;
1227.9000;0.3109;0.0000;
1228.2000;0.3093;-0.0025;
1228.5000;0.3101;0.0025;
1228.8000;0.3109;0.0000;
1229.1000;0.3109;0.0025;
1229.4000;0.3134;0.0000;
1229.7000;0.3101;-0.0074;
1230.0000;0.3093;-0.0050;
1230.3000;0.3109;-0.0099;
1230.6000;0.3101;-0.0099;
1230.9000;0.3101;-0.0124;
1231.2000;0.3109;-0.0173;
1231.5000;0.3109;-0.0050;
1231.8000;0.3109;-0.0050;
1232.1000;0.3109;-0.0025;
1232.4000;0.3109;-0.0025;
1232.7000;0.3093;0.0000;
1233.0000;0.3126;0.0074;
1233.3000;0.3109;0.0074;
1233.6000;0.3093;-0.0050;
1233.9000;0.3093;-0.0099;
1234.2000;0.3093;-0.0050;
1234.5000;0.3183;0.0198;
1234.8000;0.3093;-0.0074;
1235.1000;0.3101;-0.0074;
1235.4000;0.3101;-0.0124;
1235.7000;0.3093;-0.0124;
1236.0000;0.3101;-0.0149;
1236.3000;0.3036;-0.0223;
1236.6000;0.3077;-0.0099;
1236.9000;0.3101;0.0000;
1237.2000;0.3085;0.0000;
1237.5000;0.3053;-0.0050;
1237.8000;0.3118;0.0000;
1238.1000;0.3109;0.0099;
1238.4000;0.3077;0.0000;
1238.7000;0.3085;0.0050;
1239.0000;0.3053;-0.0124;
1239.3000;0.3101;0.0000;
1239.6000;0.3093;-0.0050;
1239.9000;0.3101;0.0000;
1240.2000;0.3093;0.0124;
1240.5000;0.3126;0.0124;
1240.8000;0.3109;0.0074;
1241.1000;0.3109;0.0099;
1241.4000;0.3101;0.0074;
1241.7000;0.3109;0.0074;
1242.0000;0.3191;0.0297;
1242.3000;0.3158;0.0124;
1242.6000;0.3085;-0.0050;
1242.9000;0.3109;-0.0025;
1243.2000;0.3118;0.0050;
1243.5000;0.3069;-0.0050;
1243.8000;0.3085;0.0050;
1244.1000;0.3109;0.0124;
1244.4000;0.3126;0.0025;
1244.7000;0.3109;0.0074;
1245.0000;0.3175;0.0248;
1245.3000;0.3093;-0.0074;
1245.6000;0.3093;-0.0074;
1245.9000;0.3093;-0.0099;
1246.2000;0.3118;-0.0074;
1246.5000;0.3077;-0.0198;
1246.8000;0.3109;-0.0149;
1247.1000;0.3061;-0.0248;
1247.4000;0.3101;-0.0149;
1247.7000;0.3085;-0.0074;
1248.0000;0.3093;-0.0099;
1248.3000;0.3077;-0.0074;
1248.6000;0.3069;-0.0025;
1248.9000;0.3109;0.0050;
1249.2000;0.3109;0.0149;
1249.5000;0.3093;0.0173;
1249.8000;0.3085;0.0099;
1250.1000;0.3085;0.0124;
1250.4000;0.3044;0.0025;
1250.7000;0.3085;0.0149;
1251.0000;0.3101;0.0198;
1251.3000;0.3085;0.0099;
1251.6000;0.3069;-0.0025;
1251.9000;0.3118;-0.0025;
1252.2000;0.3093;-0.0074;
1252.5000;0.3126;0.0050;
1252.8000;0.3093;-0.0050;
1253.1000;0.3085;-0.0074;
1253.4000;0.3109;-0.0025;
1253.7000;0.3101;-0.0025;
1254.0000;0.3085;0.0000;
1254.3000;0.3109;0.0025;
1254.6000;0.3118;0.0074;
1254.9000;0.3101;0.0050;
1255.2000;0.3101;-0.0025;
1255.5000;0.3134;-0.0099;
1255.8000;0.3109;-0.0198;
1256.1000;0.3109;-0.0099;
1256.4000;0.3101;-0.0074;
1256.7000;0.3069;-0.0149;
1257.0000;0.3085;-0.0124;
1257.3000;0.3109;-0.0074;
1257.6000;0.3093;-0.0173;
1257.9000;0.3109;-0.0124;
1258.2000;0.3061;-0.0124;
1258.5000;0.3093;-0.0099;
1258.8000;0.3166;0.0074;
1259.1000;0.3126;-0.0050;
1259.4000;0.3020;-0.0347;
1259.7000;0.3101;-0.0124;
1260.0000;0.3044;-0.0272;
1260.3000;0.3093;-0.0124;
1260.6000;0.3085;-0.0124;
1260.9000;0.3093;-0.0198;
1261.2000;0.3093;-0.0074;
1261.5000;0.3101;-0.0025;
1261.8000;0.3077;-0.0025;
1262.1000;0.3061;-0.0124;
1262.4000;0.3093;-0.0050;
1262.7000;0.3077;-0.0149;
1263.0000;0.3085;-0.0050;
1263.3000;0.3085;-0.0050;
1263.6000;0.3085;-0.0025;
1263.9000;0.3101;0.0025;
1264.2000;0.2996;-0.0223;
1264.5000;0.3101;0.0050;
1264.8000;0.3093;0.0000;
1265.1000;0.3101;0.0025;
1265.4000;0.3126;0.0124;
1265.7000;0.3183;0.0173;
1266.0000;0.3126;0.0000;
1266.3000;0.3093;-0.0025;
1266.6000;0.3118;0.0025;
1266.9000;0.3085;-0.0025;
1267.2000;0.3069;-0.0099;
1267.5000;0.3101;-0.0025;
1267.8000;0.3093;-0.0099;
1268.1000;0.3109;-0.0099;
1268.4000;0.3101;-0.0124;
1268.7000;0.3093;-0.0099;
1269.0000;0.3101;-0.0099;
1269.3000;0.3101;-0.0149;
1269.6000;0.3085;-0.0198;
1269.9000;0.3077;-0.0198;
1270.2000;0.3109;-0.0124;
1270.5000;0.3085;-0.0149;
1270.8000;0.3085;-0.0074;
1271.1000;0.3085;-0.0025;
1271.4000;0.3077;-0.0124;
1271.7000;0.3085;-0.0173;
1272.0000;0.3118;-0.0124;
1272.3000;0.3069;-0.0297;
1272.6000;0.3077;-0.0248;
1272.9000;0.3085;-0.0198;
1273.2000;0.3061;-0.0198;
1273.5000;0.3069;-0.0149;
1273.8000;0.3118;-0.0074;
1274.1000;0.3093;-0.0074;
1274.4000;0.3077;-0.0050;
1274.7000;0.3101;0.0074;
1275.0000;0.3077;-0.0025;
1275.3000;0.3118;0.0074;
1275.6000;0.3150;0.0074;
1275.9000;0.3101;0.0074;
1276.2000;0.3109;0.0149;
1276.5000;0.3085;0.0149;
1276.8000;0.3126;0.0099;
1277.1000;0.3085;0.0025;
1277.4000;0.3093;0.0050;
1277.7000;0.3093;-0.0099;
1278.0000;0.3118;-0.0050;
1278.3000;0.3093;-0.0124;
1278.6000;0.3061;-0.0198;
1278.9000;0.3093;-0.0099;
1279.2000;0.3101;-0.0124;
1279.5000;0.3093;-0.0124;
1279.8000;0.3101;-0.0124;
1280.1000;0.3093;-0.0124;
1280.4000;0.3109;-0.0074;
1280.7000;0.3101;-0.0025;
1281.0000;0.3109;-0.0025;
1281.3000;0.3093;-0.0025;
1281.6000;0.3126;0.0074;
1281.9000;0.3118;-0.0074;
1282.2000;0.3126;-0.0099;
1282.5000;0.3028;-0.0322;
1282.8000;0.3109;-0.0124;
1283.1000;0.3109;-0.0173;
1283.4000;0.3093;-0.0173;
1283.7000;0.3093;-0.0149;
1284.0000;0.3028;-0.0272;
1284.3000;0.3118;0.0050;
1284.6000;0.3093;0.0074;
1284.9000;0.3085;-0.0050;
1285.2000;0.3004;-0.0272;
1285.5000;0.3093;-0.0099;
1285.8000;0.3093;-0.0074;
1286.1000;0.3077;-0.0074;
1286.4000;0.3077;-0.0099;
1286.7000;0.3093;-0.0099;
1287.0000;0.3126;-0.0198;
1287.3000;0.3118;-0.0198;
1287.6000;0.3093;-0.0248;
1287.9000;0.3085;-0.0149;
1288.2000;0.3101;-0.0050;
1288.5000;0.3093;-0.0074;
1288.8000;0.3101;-0.0050;
1289.1000;0.3109;-0.0025;
1289.4000;0.3093;-0.0074;
1289.7000;0.3109;-0.0050;
1290.0000;0.3101;0.0000;
1290.3000;0.3150;0.0173;
1290.6000;0.3077;-0.0025;
1290.9000;0.3109;-0.0025;
1291.2000;0.3093;-0.0149;
1291.5000;0.3101;-0.0074;
1291.8000;0.3134;0.0025;
1292.1000;0.3093;-0.0074;
1292.4000;0.3069;-0.0124;
1292.7000;0.3085;-0.0124;
1293.0000;0.3044;-0.0149;
1293.3000;0.3093;0.0025;
1293.6000;0.3085;-0.0025;
1293.9000;0.3093;-0.0074;
1294.2000;0.3093;-0.0099;
1294.5000;0.3085;-0.0099;
1294.8000;0.3101;-0.0099;
1295.1000;0.3085;-0.0124;
1295.4000;0.3069;-0.0297;
1295.7000;0.3085;-0.0248;
1296.0000;0.3077;-0.0149;
1296.3000;0.3085;-0.0198;
1296.6000;0.3077;-0.0297;
1296.9000;0.3077;-0.0322;
1297.2000;0.3069;-0.0297;
1297.5000;0.3101;-0.0149;
1297.8000;0.3158;-0.0025;
1298.1000;0.3085;-0.0198;
1298.4000;0.3093;-0.0149;
1298.7000;0.3109;-0.0149;
1299.0000;0.3077;-0.0149;
1299.3000;0.3101;-0.0099;
1299.6000;0.3093;-0.0149;
1299.9000;0.3101;-0.0124;
1300.2000;0.3101;-0.0124;
1300.5000;0.3093;-0.0223;
1300.8000;0.3077;-0.0173;
1301.1000;0.3109;-0.0124;
1301.4000;0.3101;-0.0050;
1301.7000;0.3077;-0.0074;
1302.0000;0.3101;0.0025;
1302.3000;0.3077;0.0025;
1302.6000;0.3093;0.0099;
1302.9000;0.3093;0.0124;
1303.2000;0.3085;0.0025;
1303.5000;0.3077;0.0025;
1303.8000;0.3109;0.0050;
1304.1000;0.3085;-0.0050;
1304.4000;0.3077;-0.0099;
1304.7000;0.3077;-0.0099;
1305.0000;0.3085;-0.0074;
1305.3000;0.3101;-0.0099;
1305.6000;0.3093;-0.0074;
1305.9000;0.3101;-0.0099;
1306.2000;0.3085;-0.0173;
1306.5000;0.3101;-0.0173;
1306.8000;0.3069;-0.0223;
1307.1000;0.3166;-0.0099;
1307.4000;0.3093;-0.0198;
1307.7000;0.3126;-0.0124;
1308.0000;0.3109;-0.0099;
1308.3000;0.3093;-0.0124;
1308.6000;0.3093;-0.0074;
1308.9000;0.3093;0.0025;
1309.2000;0.3044;-0.0173;
1309.5000;0.3085;-0.0074;
1309.8000;0.3085;-0.0149;
1310.1000;0.3093;-0.0124;
1310.4000;0.3093;-0.0099;
1310.7000;0.3077;-0.0173;
1311.0000;0.3077;-0.0149;
1311.3000;0.3101;-0.0099;
1311.6000;0.3101;-0.0173;
1311.9000;0.3085;-0.0248;
1312.2000;0.3093;-0.0272;
1312.5000;0.3085;-0.0297;
1312.8000;0.3085;-0.0297;
1313.1000;0.3109;-0.0248;
1313.4000;0.3085;-0.0198;
1313.7000;0.3093;-0.0124;
1314.0000;0.3077;-0.0074;
1314.3000;0.3109;0.0074;
1314.6000;0.3085;0.0050;
1314.9000;0.3085;0.0025;
1315.2000;0.3093;-0.0050;
1315.5000;0.3077;-0.0050;
1315.8000;0.3101;-0.0074;
1316.1000;0.3093;-0.0025;
1316.4000;0.3085;0.0050;
1316.7000;0.3077;-0.0025;
1317.0000;0.3093;0.0000;
1317.3000;0.3101;-0.0025;
1317.6000;0.3069;-0.0025;
1317.9000;0.3085;0.0025;
1318.2000;0.3150;0.0248;
1318.5000;0.3101;0.0074;
1318.8000;0.3101;0.0099;
1319.1000;0.3101;0.0173;
1319.4000;0.3069;0.0050;
1319.7000;0.3077;0.0050;
1320.0000;0.3085;0.0074;
1320.3000;0.3028;-0.0099;
1320.6000;0.3109;0.0124;
1320.9000;0.3093;0.0050;
1321.2000;0.3093;0.0000;
1321.5000;0.3085;0.0050;
1321.8000;0.3109;0.0099;
1322.1000;0.3093;0.0074;
1322.4000;0.3093;0.0074;
1322.7000;0.3085;0.0000;
1323.0000;0.3061;-0.0050;
1323.3000;0.3101;0.0050;
1323.6000;0.3093;0.0074;
1323.9000;0.3085;0.0000;
1324.2000;0.3109;0.0099;
1324.5000;0.3085;0.0074;
1324.8000;0.3085;0.0198;
1325.1000;0.3085;0.0223;
1325.4000;0.3085;0.0099;
1325.7000;0.3093;0.0173;
1326.0000;0.3118;0.0124;
1326.3000;0.3101;0.0099;
1326.6000;0.3085;0.0099;
1326.9000;0.3109;0.0025;
1327.2000;0.3093;-0.0050;
1327.5000;0.3101;0.0000;
1327.8000;0.3126;0.0050;
1328.1000;0.3077;-0.0025;
1328.4000;0.3109;0.0074;
1328.7000;0.3093;0.0000;
1329.0000;0.3101;0.0025;
1329.3000;0.3093;0.0050;
1329.6000;0.3085;0.0000;
1329.9000;0.3093;0.0025;
1330.2000;0.3085;0.0149;
1330.5000;0.3085;0.0074;
1330.8000;0.3134;0.0173;
1331.1000;0.3101;0.0074;
1331.4000;0.3101;0.0074;
1331.7000;0.3077;0.0025;
1332.0000;0.3085;0.0050;
1332.3000;0.3044;0.0050;
1332.6000;0.3093;0.0149;
1332.9000;0.3077;0.0124;
1333.2000;0.3085;0.0050;
1333.5000;0.3085;-0.0050;
1333.8000;0.3093;-0.0025;
1334.1000;0.3093;0.0050;
1334.4000;0.3069;-0.0099;
1334.7000;0.3093;-0.0050;
1335.0000;0.3085;-0.0099;
1335.3000;0.3093;-0.0099;
1335.6000;0.3109;-0.0099;
1335.9000;0.3093;-0.0149;
1336.2000;0.3101;-0.0099;
1336.5000;0.3085;-0.0099;
1336.8000;0.3069;-0.0124;
1337.1000;0.3085;-0.0173;
1337.4000;0.3134;-0.0124;
1337.7000;0.3118;-0.0124;
1338.0000;0.3085;-0.0124;
1338.3000;0.3109;-0.0099;
1338.6000;0.3085;-0.0149;
1338.9000;0.3085;-0.0198;
1339.2000;0.3085;-0.0149;
1339.5000;0.3077;-0.0173;
1339.8000;0.3069;-0.0248;
1340.1000;0.3085;-0.0322;
1340.4000;0.3020;-0.0396;
1340.7000;0.3126;-0.0198;
1341.0000;0.3093;-0.0248;
1341.3000;0.3118;-0.0124;
1341.6000;0.3109;-0.0173;
1341.9000;0.3093;-0.0272;
1342.2000;0.3118;-0.0198;
1342.5000;0.3093;-0.0173;
1342.8000;0.3101;-0.0099;
1343.1000;0.3085;-0.0124;
1343.4000;0.3077;-0.0149;
1343.7000;0.3093;-0.0173;
1344.0000;0.3085;-0.0223;
1344.3000;0.3118;-0.0149;
1344.6000;0.3020;-0.0396;
1344.9000;0.3109;-0.0198;
1345.2000;0.3101;-0.0198;
1345.5000;0.3118;-0.0248;
1345.8000;0.3085;-0.0297;
1346.1000;0.3085;-0.0297;
1346.4000;0.3077;-0.0297;
1346.7000;0.3093;-0.0198;
1347.0000;0.3101;-0.0248;
1347.3000;0.3093;-0.0272;
1347.6000;0.3077;-0.0248;
1347.9000;0.3109;-0.0173;
1348.2000;0.3118;-0.0124;
1348.5000;0.3142;-0.0050;
1348.8000;0.3093;-0.0074;
1349.1000;0.3077;-0.0099;
1349.4000;0.3109;0.0099;
1349.7000;0.3061;0.0074;
1350.0000;0.3061;0.0173;
1350.3000;0.3085;0.0149;
1350.6000;0.3101;0.0099;
1350.9000;0.3077;-0.0050;
1351.2000;0.3085;-0.0099;
1351.5000;0.3028;-0.0198;
1351.8000;0.3101;-0.0050;
1352.1000;0.3101;-0.0099;
1352.4000;0.3077;-0.0173;
1352.7000;0.3093;-0.0173;
1353.0000;0.3093;-0.0173;
1353.3000;0.3093;-0.0223;
1353.6000;0.3077;-0.0248;
1353.9000;0.3150;-0.0074;
1354.2000;0.3101;-0.0272;
1354.5000;0.3093;-0.0248;
1354.8000;0.3077;-0.0248;
1355.1000;0.3028;-0.0371;
1355.4000;0.3085;-0.0173;
1355.7000;0.3109;-0.0124;
1356.0000;0.3077;-0.0173;
1356.3000;0.3085;-0.0198;
1356.6000;0.3101;-0.0198;
1356.9000;0.3093;-0.0198;
1357.2000;0.3077;-0.0297;
1357.5000;0.3069;-0.0322;
1357.8000;0.3109;-0.0198;
1358.1000;0.3101;-0.0173;
1358.4000;0.3142;-0.0099;
1358.7000;0.3085;-0.0124;
1359.0000;0.3101;0.0000;
1359.3000;0.3101;-0.0050;
1359.6000;0.3109;0.0074;
1359.9000;0.3101;0.0050;
1360.2000;0.3085;0.0000;
1360.5000;0.3093;0.0050;
1360.8000;0.3109;0.0074;
1361.1000;0.3093;-0.0050;
1361.4000;0.3109;-0.0124;
1361.7000;0.3093;-0.0248;
1362.0000;0.3069;-0.0248;
1362.3000;0.3118;-0.0198;
1362.6000;0.3101;-0.0322;
1362.9000;0.3085;-0.0347;
1363.2000;0.3077;-0.0347;
1363.5000;0.3118;-0.0248;
1363.8000;0.3101;-0.0173;
1364.1000;0.3020;-0.0347;
1364.4000;0.3118;-0.0050;
1364.7000;0.3150;0.0099;
1365.0000;0.3183;0.0149;
1365.3000;0.3109;-0.0074;
1365.6000;0.3101;-0.0149;
1365.9000;0.3109;-0.0149;
1366.2000;0.3109;-0.0124;
1366.5000;0.3085;-0.0248;
1366.8000;0.3093;-0.0272;
1367.1000;0.3077;-0.0297;
1367.4000;0.3109;-0.0248;
1367.7000;0.3118;-0.0272;
1368.0000;0.3077;-0.0248;
1368.3000;0.3101;-0.0223;
1368.6000;0.3077;-0.0272;
1368.9000;0.3101;-0.0198;
1369.2000;0.3069;-0.0322;
1369.5000;0.3077;-0.0297;
1369.8000;0.3085;-0.0347;
1370.1000;0.3077;-0.0248;
1370.4000;0.3044;-0.0297;
1370.7000;0.3101;-0.0248;
1371.0000;0.3093;-0.0322;
1371.3000;0.3109;-0.0297;
1371.6000;0.3069;-0.0421;
1371.9000;0.3085;-0.0371;
1372.2000;0.3093;-0.0297;
1372.5000;0.3118;-0.0149;
1372.8000;0.3093;-0.0272;
1373.1000;0.3085;-0.0347;
1373.4000;0.3077;-0.0272;
1373.7000;0.3093;-0.0223;
1374.0000;0.3166;-0.0099;
1374.3000;0.3069;-0.0322;
1374.6000;0.3069;-0.0223;
1374.9000;0.3093;-0.0198;
1375.2000;0.3101;-0.0198;
1375.5000;0.3077;-0.0248;
1375.8000;0.3093;-0.0149;
1376.1000;0.3085;-0.0198;
1376.4000;0.3093;-0.0149;
1376.7000;0.3061;-0.0198;
1377.0000;0.3126;-0.0025;
1377.3000;0.3158;0.0050;
1377.6000;0.3085;-0.0124;
1377.9000;0.3101;-0.0099;
1378.2000;0.3061;-0.0297;
1378.5000;0.3150;-0.0149;
1378.8000;0.3093;-0.0322;
1379.1000;0.3085;-0.0371;
1379.4000;0.3126;-0.0272;
1379.7000;0.3077;-0.0446;
1380.0000;0.3150;-0.0297;
1380.3000;0.3118;-0.0347;
1380.6000;0.3101;-0.0371;
1380.9000;0.3061;-0.0470;
1381.2000;0.3109;-0.0297;
1381.5000;0.3166;-0.0074;
1381.8000;0.3118;-0.0173;
1382.1000;0.3118;-0.0248;
1382.4000;0.3093;-0.0223;
1382.7000;0.3093;-0.0173;
1383.0000;0.3134;-0.0025;
1383.3000;0.3109;-0.0074;
1383.6000;0.3093;-0.0173;
1383.9000;0.3093;-0.0248;
1384.2000;0.3093;-0.0272;
1384.5000;0.3109;-0.0173;
1384.8000;0.3109;-0.0025;
1385.1000;0.3126;0.0050;
1385.4000;0.3085;-0.0050;
1385.7000;0.3085;-0.0124;
1386.0000;0.3093;-0.0173;
1386.3000;0.3101;-0.0149;
1386.6000;0.3101;-0.0099;
1386.9000;0.3093;-0.0124;
1387.2000;0.3036;-0.0396;
1387.5000;0.3077;-0.0272;
1387.8000;0.3101;-0.0099;
1388.1000;0.3028;-0.0149;
1388.4000;0.3093;0.0025;
1388.7000;0.3085;-0.0050;
1389.0000;0.3069;-0.0050;
1389.3000;0.3061;-0.0124;
1389.6000;0.3077;-0.0074;
1389.9000;0.3085;-0.0173;
1390.2000;0.3077;-0.0124;
1390.5000;0.3077;-0.0050;
1390.8000;0.3069;-0.0074;
1391.1000;0.3077;-0.0124;
1391.4000;0.3109;-0.0149;
1391.7000;0.3101;-0.0074;
1392.0000;0.3093;-0.0149;
1392.3000;0.3101;-0.0124;
1392.6000;0.3109;-0.0099;
1392.9000;0.3085;-0.0149;
1393.2000;0.3101;-0.0149;
1393.5000;0.3085;-0.0124;
1393.8000;0.3093;-0.0173;
1394.1000;0.3101;-0.0124;
1394.4000;0.3085;-0.0173;
1394.7000;0.3101;-0.0074;
1395.0000;0.3085;-0.0198;
1395.3000;0.3093;-0.0198;
1395.6000;0.3109;-0.0198;
1395.9000;0.3109;-0.0124;
1396.2000;0.3085;-0.0149;
1396.5000;0.3093;-0.0149;
1396.8000;0.3069;-0.0297;
1397.1000;0.3118;-0.0223;
1397.4000;0.3101;-0.0149;
1397.7000;0.3093;-0.0198;
1398.0000;0.3077;-0.0272;
1398.3000;0.3118;-0.0248;
1398.6000;0.3085;-0.0322;
1398.9000;0.3069;-0.0371;
1399.2000;0.3085;-0.0371;
1399.5000;0.3085;-0.0421;
1399.8000;0.3085;-0.0371;
