time/ms;Fluo/V;P700 deltaI/I x10³;
-199.8000;0.4534;-0.8884;
-199.5000;0.4526;-0.8859;
-199.2000;0.4550;-0.8835;
-198.9000;0.4599;-0.8686;
-198.6000;0.4526;-0.8884;
-198.3000;0.4510;-0.8859;
-198.0000;0.4550;-0.8785;
-197.7000;0.4510;-0.8884;
-197.4000;0.4461;-0.9057;
-197.1000;0.4526;-0.8859;
-196.8000;0.4542;-0.8835;
-196.5000;0.4485;-0.9008;
-196.2000;0.4550;-0.8884;
-195.9000;0.4542;-0.8909;
-195.6000;0.4526;-0.8884;
-195.3000;0.4558;-0.8835;
-195.0000;0.4518;-0.8909;
-194.7000;0.4526;-0.8934;
-194.4000;0.4526;-0.8958;
-194.1000;0.4550;-0.8909;
-193.8000;0.4501;-0.9008;
-193.5000;0.4526;-0.8958;
-193.2000;0.4526;-0.9033;
-192.9000;0.4575;-0.9033;
-192.6000;0.4534;-0.9156;
-192.3000;0.4534;-0.9057;
-192.0000;0.4526;-0.8934;
-191.7000;0.4534;-0.8934;
-191.4000;0.4558;-0.8884;
-191.1000;0.4542;-0.8934;
-190.8000;0.4542;-0.8958;
-190.5000;0.4542;-0.8934;
-190.2000;0.4648;-0.8686;
-189.9000;0.4526;-0.8983;
-189.6000;0.4518;-0.8983;
-189.3000;0.4501;-0.8983;
-189.0000;0.4550;-0.8835;
-188.7000;0.4542;-0.8859;
-188.4000;0.4542;-0.8859;
-188.1000;0.4518;-0.8859;
-187.8000;0.4534;-0.8859;
-187.5000;0.4550;-0.8810;
-187.2000;0.4542;-0.8736;
-186.9000;0.4542;-0.8711;
-186.6000;0.4558;-0.8711;
-186.3000;0.4591;-0.8637;
-186.0000;0.4526;-0.8810;
-185.7000;0.4534;-0.8785;
-185.4000;0.4510;-0.8810;
-185.1000;0.4583;-0.8686;
-184.8000;0.4632;-0.8562;
-184.5000;0.4542;-0.8835;
-184.2000;0.4510;-0.8909;
-183.9000;0.4534;-0.8934;
-183.6000;0.4550;-0.8884;
-183.3000;0.4534;-0.8884;
-183.0000;0.4534;-0.8884;
-182.7000;0.4534;-0.8859;
-182.4000;0.4518;-0.8934;
-182.1000;0.4534;-0.8835;
-181.8000;0.4558;-0.8736;
-181.5000;0.4591;-0.8736;
-181.2000;0.4518;-0.8909;
-180.9000;0.4550;-0.8760;
-180.6000;0.4542;-0.8785;
-180.3000;0.4493;-0.8859;
-180.0000;0.4453;-0.8983;
-179.7000;0.4542;-0.8736;
-179.4000;0.4501;-0.8884;
-179.1000;0.4534;-0.8785;
-178.8000;0.4510;-0.8884;
-178.5000;0.4526;-0.8785;
-178.2000;0.4510;-0.8810;
-177.9000;0.4526;-0.8736;
-177.6000;0.4558;-0.8637;
-177.3000;0.4542;-0.8637;
-177.0000;0.4518;-0.8760;
-176.7000;0.4501;-0.8810;
-176.4000;0.4656;-0.8389;
-176.1000;0.4542;-0.8612;
-175.8000;0.4599;-0.8488;
-175.5000;0.4493;-0.8711;
-175.2000;0.4558;-0.8538;
-174.9000;0.4558;-0.8587;
-174.6000;0.4591;-0.8538;
-174.3000;0.4607;-0.8513;
-174.0000;0.4526;-0.8661;
-173.7000;0.4542;-0.8736;
-173.4000;0.4518;-0.8835;
-173.1000;0.4542;-0.8810;
-172.8000;0.4526;-0.8909;
-172.5000;0.4534;-0.8884;
-172.2000;0.4534;-0.8859;
-171.9000;0.4469;-0.8958;
-171.6000;0.4550;-0.8711;
-171.3000;0.4534;-0.8711;
-171.0000;0.4518;-0.8760;
-170.7000;0.4550;-0.8785;
-170.4000;0.4485;-0.8983;
-170.1000;0.4534;-0.8958;
-169.8000;0.4510;-0.9057;
-169.5000;0.4542;-0.9008;
-169.2000;0.4526;-0.9082;
-168.9000;0.4575;-0.8934;
-168.6000;0.4567;-0.8983;
-168.3000;0.4550;-0.9008;
-168.0000;0.4526;-0.9008;
-167.7000;0.4607;-0.8810;
-167.4000;0.4510;-0.8934;
-167.1000;0.4534;-0.8909;
-166.8000;0.4534;-0.8934;
-166.5000;0.4526;-0.8958;
-166.2000;0.4542;-0.8884;
-165.9000;0.4550;-0.8884;
-165.6000;0.4501;-0.8810;
-165.3000;0.4542;-0.8686;
-165.0000;0.4534;-0.8760;
-164.7000;0.4518;-0.8810;
-164.4000;0.4534;-0.8686;
-164.1000;0.4534;-0.8711;
-163.8000;0.4550;-0.8661;
-163.5000;0.4550;-0.8711;
-163.2000;0.4550;-0.8686;
-162.9000;0.4534;-0.8760;
-162.6000;0.4542;-0.8760;
-162.3000;0.4558;-0.8711;
-162.0000;0.4567;-0.8711;
-161.7000;0.4550;-0.8760;
-161.4000;0.4550;-0.8760;
-161.1000;0.4575;-0.8736;
-160.8000;0.4558;-0.8760;
-160.5000;0.4461;-0.9008;
-160.2000;0.4526;-0.8810;
-159.9000;0.4542;-0.8810;
-159.6000;0.4518;-0.8884;
-159.3000;0.4518;-0.8859;
-159.0000;0.4518;-0.8810;
-158.7000;0.4534;-0.8736;
-158.4000;0.4534;-0.8760;
-158.1000;0.4526;-0.8760;
-157.8000;0.4518;-0.8859;
-157.5000;0.4518;-0.8810;
-157.2000;0.4558;-0.8760;
-156.9000;0.4518;-0.8859;
-156.6000;0.4534;-0.8859;
-156.3000;0.4550;-0.8835;
-156.0000;0.4550;-0.8711;
-155.7000;0.4510;-0.8835;
-155.4000;0.4526;-0.8884;
-155.1000;0.4526;-0.8760;
-154.8000;0.4534;-0.8661;
-154.5000;0.4550;-0.8661;
-154.2000;0.4477;-0.8810;
-153.9000;0.4550;-0.8562;
-153.6000;0.4526;-0.8637;
-153.3000;0.4477;-0.8661;
-153.0000;0.4583;-0.8488;
-152.7000;0.4583;-0.8439;
-152.4000;0.4542;-0.8562;
-152.1000;0.4599;-0.8513;
-151.8000;0.4550;-0.8637;
-151.5000;0.4436;-0.9082;
-151.2000;0.4550;-0.8785;
-150.9000;0.4542;-0.8810;
-150.6000;0.4542;-0.8760;
-150.3000;0.4501;-0.8810;
-150.0000;0.4510;-0.8736;
-149.7000;0.4526;-0.8711;
-149.4000;0.4526;-0.8686;
-149.1000;0.4526;-0.8711;
-148.8000;0.4534;-0.8736;
-148.5000;0.4534;-0.8686;
-148.2000;0.4591;-0.8439;
-147.9000;0.4550;-0.8562;
-147.6000;0.4550;-0.8587;
-147.3000;0.4550;-0.8587;
-147.0000;0.4526;-0.8637;
-146.7000;0.4534;-0.8637;
-146.4000;0.4558;-0.8562;
-146.1000;0.4518;-0.8661;
-145.8000;0.4510;-0.8810;
-145.5000;0.4550;-0.8711;
-145.2000;0.4615;-0.8612;
-144.9000;0.4526;-0.8760;
-144.6000;0.4534;-0.8661;
-144.3000;0.4550;-0.8661;
-144.0000;0.4550;-0.8686;
-143.7000;0.4534;-0.8760;
-143.4000;0.4550;-0.8760;
-143.1000;0.4542;-0.8711;
-142.8000;0.4534;-0.8859;
-142.5000;0.4550;-0.8810;
-142.2000;0.4526;-0.8909;
-141.9000;0.4534;-0.8884;
-141.6000;0.4542;-0.8909;
-141.3000;0.4542;-0.8859;
-141.0000;0.4534;-0.8859;
-140.7000;0.4542;-0.8785;
-140.4000;0.4550;-0.8760;
-140.1000;0.4550;-0.8760;
-139.8000;0.4558;-0.8810;
-139.5000;0.4542;-0.8835;
-139.2000;0.4534;-0.8760;
-138.9000;0.4542;-0.8736;
-138.6000;0.4526;-0.8736;
-138.3000;0.4542;-0.8736;
-138.0000;0.4583;-0.8661;
-137.7000;0.4534;-0.8835;
-137.4000;0.4534;-0.8884;
-137.1000;0.4542;-0.8934;
-136.8000;0.4542;-0.8958;
-136.5000;0.4550;-0.8884;
-136.2000;0.4518;-0.8983;
-135.9000;0.4461;-0.9156;
-135.6000;0.4542;-0.8810;
-135.3000;0.4534;-0.8835;
-135.0000;0.4444;-0.9033;
-134.7000;0.4518;-0.8884;
-134.4000;0.4534;-0.8909;
-134.1000;0.4526;-0.8958;
-133.8000;0.4542;-0.8859;
-133.5000;0.4510;-0.8958;
-133.2000;0.4526;-0.8909;
-132.9000;0.4542;-0.8909;
-132.6000;0.4526;-0.8884;
-132.3000;0.4493;-0.9008;
-132.0000;0.4542;-0.8983;
-131.7000;0.4550;-0.8884;
-131.4000;0.4526;-0.8859;
-131.1000;0.4510;-0.8884;
-130.8000;0.4526;-0.8884;
-130.5000;0.4542;-0.8835;
-130.2000;0.4493;-0.8810;
-129.9000;0.4518;-0.8736;
-129.6000;0.4493;-0.8810;
-129.3000;0.4493;-0.8785;
-129.0000;0.4558;-0.8612;
-128.7000;0.4469;-0.8835;
-128.4000;0.4542;-0.8785;
-128.1000;0.4526;-0.8835;
-127.8000;0.4550;-0.8785;
-127.5000;0.4550;-0.8859;
-127.2000;0.4575;-0.8686;
-126.9000;0.4501;-0.8909;
-126.6000;0.4542;-0.8711;
-126.3000;0.4461;-0.8909;
-126.0000;0.4518;-0.8711;
-125.7000;0.4518;-0.8711;
-125.4000;0.4542;-0.8736;
-125.1000;0.4542;-0.8711;
-124.8000;0.4550;-0.8711;
-124.5000;0.4526;-0.8760;
-124.2000;0.4526;-0.8711;
-123.9000;0.4542;-0.8711;
-123.6000;0.4550;-0.8661;
-123.3000;0.4534;-0.8661;
-123.0000;0.4526;-0.8686;
-122.7000;0.4526;-0.8661;
-122.4000;0.4469;-0.8835;
-122.1000;0.4542;-0.8686;
-121.8000;0.4534;-0.8736;
-121.5000;0.4518;-0.8785;
-121.2000;0.4518;-0.8835;
-120.9000;0.4526;-0.8859;
-120.6000;0.4510;-0.8884;
-120.3000;0.4550;-0.8835;
-120.0000;0.4550;-0.8736;
-119.7000;0.4518;-0.8859;
-119.4000;0.4550;-0.8909;
-119.1000;0.4534;-0.8934;
-118.8000;0.4534;-0.8909;
-118.5000;0.4534;-0.8909;
-118.2000;0.4550;-0.8835;
-117.9000;0.4615;-0.8736;
-117.6000;0.4550;-0.8810;
-117.3000;0.4550;-0.8760;
-117.0000;0.4526;-0.8835;
-116.7000;0.4534;-0.8859;
-116.4000;0.4550;-0.8736;
-116.1000;0.4526;-0.8711;
-115.8000;0.4534;-0.8736;
-115.5000;0.4534;-0.8785;
-115.2000;0.4542;-0.8760;
-114.9000;0.4534;-0.8736;
-114.6000;0.4550;-0.8736;
-114.3000;0.4534;-0.8760;
-114.0000;0.4518;-0.8884;
-113.7000;0.4534;-0.8909;
-113.4000;0.4510;-0.8859;
-113.1000;0.4648;-0.8463;
-112.8000;0.4558;-0.8711;
-112.5000;0.4534;-0.8785;
-112.2000;0.4526;-0.8785;
-111.9000;0.4591;-0.8686;
-111.6000;0.4558;-0.8785;
-111.3000;0.4518;-0.8934;
-111.0000;0.4526;-0.8934;
-110.7000;0.4510;-0.8983;
-110.4000;0.4526;-0.8909;
-110.1000;0.4534;-0.8909;
-109.8000;0.4501;-0.8983;
-109.5000;0.4501;-0.8934;
-109.2000;0.4510;-0.8958;
-108.9000;0.4534;-0.8934;
-108.6000;0.4542;-0.8884;
-108.3000;0.4526;-0.8934;
-108.0000;0.4534;-0.8859;
-107.7000;0.4526;-0.8785;
-107.4000;0.4558;-0.8760;
-107.1000;0.4567;-0.8736;
-106.8000;0.4542;-0.8711;
-106.5000;0.4534;-0.8686;
-106.2000;0.4567;-0.8686;
-105.9000;0.4558;-0.8711;
-105.6000;0.4526;-0.8736;
-105.3000;0.4510;-0.8810;
-105.0000;0.4542;-0.8785;
-104.7000;0.4534;-0.8859;
-104.4000;0.4550;-0.8859;
-104.1000;0.4518;-0.8884;
-103.8000;0.4542;-0.8810;
-103.5000;0.4542;-0.8736;
-103.2000;0.4444;-0.8983;
-102.9000;0.4534;-0.8760;
-102.6000;0.4550;-0.8736;
-102.3000;0.4510;-0.8785;
-102.0000;0.4526;-0.8711;
-101.7000;0.4550;-0.8711;
-101.4000;0.4526;-0.8760;
-101.1000;0.4534;-0.8810;
-100.8000;0.4534;-0.8736;
-100.5000;0.4534;-0.8736;
-100.2000;0.4518;-0.8760;
-99.9000;0.4518;-0.8785;
-99.6000;0.4550;-0.8686;
-99.3000;0.4518;-0.8736;
-99.0000;0.4526;-0.8711;
-98.7000;0.4526;-0.8661;
-98.4000;0.4534;-0.8686;
-98.1000;0.4526;-0.8661;
-97.8000;0.4510;-0.8736;
-97.5000;0.4526;-0.8736;
-97.2000;0.4518;-0.8810;
-96.9000;0.4526;-0.8835;
-96.6000;0.4542;-0.8785;
-96.3000;0.4550;-0.8736;
-96.0000;0.4534;-0.8711;
-95.7000;0.4518;-0.8736;
-95.4000;0.4534;-0.8736;
-95.1000;0.4550;-0.8661;
-94.8000;0.4534;-0.8736;
-94.5000;0.4534;-0.8686;
-94.2000;0.4542;-0.8686;
-93.9000;0.4542;-0.8760;
-93.6000;0.4526;-0.8835;
-93.3000;0.4542;-0.8835;
-93.0000;0.4558;-0.8810;
-92.7000;0.4526;-0.8983;
-92.4000;0.4510;-0.9057;
-92.1000;0.4615;-0.8810;
-91.8000;0.4632;-0.8760;
-91.5000;0.4542;-0.9033;
-91.2000;0.4477;-0.9082;
-90.9000;0.4477;-0.9132;
-90.6000;0.4542;-0.8934;
-90.3000;0.4526;-0.8884;
-90.0000;0.4436;-0.9107;
-89.7000;0.4542;-0.8859;
-89.4000;0.4518;-0.8859;
-89.1000;0.4664;-0.8612;
-88.8000;0.4534;-0.8859;
-88.5000;0.4550;-0.8835;
-88.2000;0.4542;-0.8810;
-87.9000;0.4542;-0.8859;
-87.6000;0.4534;-0.8884;
-87.3000;0.4550;-0.8884;
-87.0000;0.4550;-0.8859;
-86.7000;0.4550;-0.8810;
-86.4000;0.4526;-0.8884;
-86.1000;0.4526;-0.8983;
-85.8000;0.4526;-0.8983;
-85.5000;0.4542;-0.8983;
-85.2000;0.4558;-0.8983;
-84.9000;0.4526;-0.9132;
-84.6000;0.4534;-0.9156;
-84.3000;0.4534;-0.9206;
-84.0000;0.4526;-0.9107;
-83.7000;0.4534;-0.9008;
-83.4000;0.4542;-0.8884;
-83.1000;0.4550;-0.8884;
-82.8000;0.4558;-0.8810;
-82.5000;0.4510;-0.8859;
-82.2000;0.4558;-0.8736;
-81.9000;0.4550;-0.8736;
-81.6000;0.4550;-0.8711;
-81.3000;0.4542;-0.8711;
-81.0000;0.4534;-0.8711;
-80.7000;0.4542;-0.8736;
-80.4000;0.4542;-0.8736;
-80.1000;0.4542;-0.8661;
-79.8000;0.4542;-0.8736;
-79.5000;0.4526;-0.8810;
-79.2000;0.4542;-0.8884;
-78.9000;0.4550;-0.8884;
-78.6000;0.4550;-0.8859;
-78.3000;0.4575;-0.8835;
-78.0000;0.4550;-0.8859;
-77.7000;0.4550;-0.8835;
-77.4000;0.4493;-0.8983;
-77.1000;0.4526;-0.8884;
-76.8000;0.4542;-0.8884;
-76.5000;0.4542;-0.8785;
-76.2000;0.4534;-0.8711;
-75.9000;0.4526;-0.8711;
-75.6000;0.4558;-0.8661;
-75.3000;0.4567;-0.8661;
-75.0000;0.4534;-0.8686;
-74.7000;0.4526;-0.8711;
-74.4000;0.4526;-0.8736;
-74.1000;0.4550;-0.8835;
-73.8000;0.4534;-0.8958;
-73.5000;0.4534;-0.8884;
-73.2000;0.4542;-0.8958;
-72.9000;0.4501;-0.9082;
-72.6000;0.4518;-0.8983;
-72.3000;0.4526;-0.8934;
-72.0000;0.4542;-0.8810;
-71.7000;0.4485;-0.8958;
-71.4000;0.4542;-0.8760;
-71.1000;0.4526;-0.8835;
-70.8000;0.4526;-0.8958;
-70.5000;0.4550;-0.8934;
-70.2000;0.4542;-0.8934;
-69.9000;0.4567;-0.8934;
-69.6000;0.4567;-0.8983;
-69.3000;0.4534;-0.9107;
-69.0000;0.4534;-0.9156;
-68.7000;0.4550;-0.9107;
-68.4000;0.4550;-0.9057;
-68.1000;0.4542;-0.8909;
-67.8000;0.4550;-0.8934;
-67.5000;0.4510;-0.8983;
-67.2000;0.4534;-0.8909;
-66.9000;0.4542;-0.8884;
-66.6000;0.4542;-0.8909;
-66.3000;0.4550;-0.8785;
-66.0000;0.4542;-0.8810;
-65.7000;0.4526;-0.8835;
-65.4000;0.4526;-0.8785;
-65.1000;0.4542;-0.8835;
-64.8000;0.4518;-0.8884;
-64.5000;0.4493;-0.8909;
-64.2000;0.4526;-0.8835;
-63.9000;0.4542;-0.8859;
-63.6000;0.4526;-0.8983;
-63.3000;0.4542;-0.9132;
-63.0000;0.4542;-0.8958;
-62.7000;0.4575;-0.8983;
-62.4000;0.4534;-0.8958;
-62.1000;0.4542;-0.8859;
-61.8000;0.4518;-0.8810;
-61.5000;0.4583;-0.8612;
-61.2000;0.4526;-0.8835;
-60.9000;0.4526;-0.8859;
-60.6000;0.4510;-0.8835;
-60.3000;0.4534;-0.8810;
-60.0000;0.4534;-0.8835;
-59.7000;0.4510;-0.8859;
-59.4000;0.4493;-0.8884;
-59.1000;0.4518;-0.8760;
-58.8000;0.4534;-0.8785;
-58.5000;0.4534;-0.8760;
-58.2000;0.4542;-0.8736;
-57.9000;0.4558;-0.8711;
-57.6000;0.4534;-0.8785;
-57.3000;0.4550;-0.8785;
-57.0000;0.4534;-0.8785;
-56.7000;0.4567;-0.8810;
-56.4000;0.4550;-0.8859;
-56.1000;0.4542;-0.8810;
-55.8000;0.4518;-0.8958;
-55.5000;0.4518;-0.8958;
-55.2000;0.4550;-0.8711;
-54.9000;0.4526;-0.8810;
-54.6000;0.4518;-0.8760;
-54.3000;0.4501;-0.8884;
-54.0000;0.4542;-0.8859;
-53.7000;0.4567;-0.8884;
-53.4000;0.4501;-0.8983;
-53.1000;0.4526;-0.8909;
-52.8000;0.4575;-0.8760;
-52.5000;0.4558;-0.8785;
-52.2000;0.4453;-0.8983;
-51.9000;0.4526;-0.8711;
-51.6000;0.4453;-0.8884;
-51.3000;0.4558;-0.8686;
-51.0000;0.4493;-0.8909;
-50.7000;0.4591;-0.8736;
-50.4000;0.4542;-0.8859;
-50.1000;0.4550;-0.8835;
-49.8000;0.4534;-0.8835;
-49.5000;0.4526;-0.8810;
-49.2000;0.4534;-0.8810;
-48.9000;0.4550;-0.8785;
-48.6000;0.4534;-0.8810;
-48.3000;0.4542;-0.8711;
-48.0000;0.4526;-0.8760;
-47.7000;0.4510;-0.8736;
-47.4000;0.4567;-0.8661;
-47.1000;0.4526;-0.8810;
-46.8000;0.4510;-0.8909;
-46.5000;0.4510;-0.8909;
-46.2000;0.4542;-0.8835;
-45.9000;0.4567;-0.8711;
-45.6000;0.4558;-0.8661;
-45.3000;0.4550;-0.8661;
-45.0000;0.4550;-0.8686;
-44.7000;0.4534;-0.8637;
-44.4000;0.4485;-0.8810;
-44.1000;0.4485;-0.8884;
-43.8000;0.4542;-0.8736;
-43.5000;0.4526;-0.8736;
-43.2000;0.4510;-0.8587;
-42.9000;0.4526;-0.8513;
-42.6000;0.4526;-0.8463;
-42.3000;0.4534;-0.8538;
-42.0000;0.4534;-0.8513;
-41.7000;0.4542;-0.8463;
-41.4000;0.4518;-0.8612;
-41.1000;0.4510;-0.8637;
-40.8000;0.4558;-0.8587;
-40.5000;0.4542;-0.8661;
-40.2000;0.4534;-0.8686;
-39.9000;0.4526;-0.8711;
-39.6000;0.4550;-0.8686;
-39.3000;0.4526;-0.8736;
-39.0000;0.4526;-0.8661;
-38.7000;0.4501;-0.8736;
-38.4000;0.4542;-0.8711;
-38.1000;0.4526;-0.8736;
-37.8000;0.4510;-0.8736;
-37.5000;0.4469;-0.8909;
-37.2000;0.4534;-0.8736;
-36.9000;0.4542;-0.8711;
-36.6000;0.4526;-0.8785;
-36.3000;0.4428;-0.9008;
-36.0000;0.4542;-0.8810;
-35.7000;0.4550;-0.8835;
-35.4000;0.4518;-0.8884;
-35.1000;0.4518;-0.8884;
-34.8000;0.4542;-0.8859;
-34.5000;0.4534;-0.8785;
-34.2000;0.4526;-0.8810;
-33.9000;0.4526;-0.8810;
-33.6000;0.4518;-0.8884;
-33.3000;0.4534;-0.8810;
-33.0000;0.4534;-0.8736;
-32.7000;0.4550;-0.8686;
-32.4000;0.4526;-0.8686;
-32.1000;0.4542;-0.8637;
-31.8000;0.4526;-0.8736;
-31.5000;0.4518;-0.8785;
-31.2000;0.4510;-0.8835;
-30.9000;0.4534;-0.8711;
-30.6000;0.4526;-0.8835;
-30.3000;0.4542;-0.8835;
-30.0000;0.4501;-0.8909;
-29.7000;0.4534;-0.8810;
-29.4000;0.4534;-0.8711;
-29.1000;0.4526;-0.8661;
-28.8000;0.4526;-0.8686;
-28.5000;0.4542;-0.8637;
-28.2000;0.4526;-0.8661;
-27.9000;0.4526;-0.8661;
-27.6000;0.4550;-0.8661;
-27.3000;0.4591;-0.8513;
-27.0000;0.4534;-0.8637;
-26.7000;0.4542;-0.8686;
-26.4000;0.4526;-0.8810;
-26.1000;0.4526;-0.8859;
-25.8000;0.4550;-0.8884;
-25.5000;0.4518;-0.8983;
-25.2000;0.4542;-0.8983;
-24.9000;0.4542;-0.8983;
-24.6000;0.4542;-0.8909;
-24.3000;0.4558;-0.8909;
-24.0000;0.4526;-0.8958;
-23.7000;0.4558;-0.8909;
-23.4000;0.4583;-0.8736;
-23.1000;0.4567;-0.8760;
-22.8000;0.4526;-0.8934;
-22.5000;0.4550;-0.8934;
-22.2000;0.4542;-0.9033;
-21.9000;0.4575;-0.8859;
-21.6000;0.4583;-0.8785;
-21.3000;0.4542;-0.8810;
-21.0000;0.4469;-0.9057;
-20.7000;0.4567;-0.8835;
-20.4000;0.4550;-0.8934;
-20.1000;0.4469;-0.9156;
-19.8000;0.4567;-0.8884;
-19.5000;0.4526;-0.8983;
-19.2000;0.4542;-0.8909;
-18.9000;0.4493;-0.8934;
-18.6000;0.4526;-0.8859;
-18.3000;0.4518;-0.8810;
-18.0000;0.4526;-0.8810;
-17.7000;0.4534;-0.8835;
-17.4000;0.4526;-0.8810;
-17.1000;0.4534;-0.8785;
-16.8000;0.4550;-0.8785;
-16.5000;0.4558;-0.8736;
-16.2000;0.4534;-0.8760;
-15.9000;0.4567;-0.8661;
-15.6000;0.4542;-0.8785;
-15.3000;0.4558;-0.8785;
-15.0000;0.4534;-0.8835;
-14.7000;0.4510;-0.8859;
-14.4000;0.4526;-0.8785;
-14.1000;0.4567;-0.8785;
-13.8000;0.4493;-0.9033;
-13.5000;0.4526;-0.8983;
-13.2000;0.4542;-0.8859;
-12.9000;0.4542;-0.8810;
-12.6000;0.4542;-0.8810;
-12.3000;0.4599;-0.8686;
-12.0000;0.4534;-0.8835;
-11.7000;0.4542;-0.8835;
-11.4000;0.4550;-0.8884;
-11.1000;0.4583;-0.8785;
-10.8000;0.4542;-0.8934;
-10.5000;0.4501;-0.9008;
-10.2000;0.4558;-0.8884;
-9.9000;0.4518;-0.8934;
-9.6000;0.4526;-0.8859;
-9.3000;0.4575;-0.8760;
-9.0000;0.4550;-0.8810;
-8.7000;0.4534;-0.8859;
-8.4000;0.4542;-0.8760;
-8.1000;0.4550;-0.8810;
-7.8000;0.4518;-0.8810;
-7.5000;0.4518;-0.8884;
-7.2000;0.4518;-0.8909;
-6.9000;0.4591;-0.8661;
-6.6000;0.4534;-0.8835;
-6.3000;0.4526;-0.8859;
-6.0000;0.4526;-0.8909;
-5.7000;0.4526;-0.9033;
-5.4000;0.4542;-0.9057;
-5.1000;0.4526;-0.9057;
-4.8000;0.4534;-0.9033;
-4.5000;0.4534;-0.9033;
-4.2000;0.4477;-0.9107;
-3.9000;0.4526;-0.8909;
-3.6000;0.4542;-0.8958;
-3.3000;0.4518;-0.8983;
-3.0000;0.4526;-0.8934;
-2.7000;0.4550;-0.8909;
-2.4000;0.4591;-0.8835;
-2.1000;0.4534;-0.9008;
-1.8000;0.4526;-0.8983;
-1.5000;0.4534;-0.8884;
-1.2000;0.4534;-0.8884;
-0.9000;0.4526;-0.8884;
-0.6000;0.4542;-0.8859;
-0.3000;0.4542;-0.8909;
0.0000;0.4542;-0.8909;
0.3000;0.4754;-0.9156;
0.6000;0.5169;-0.8488;
0.9000;0.5511;-0.7869;
1.2000;0.5731;-0.7523;
1.5000;0.5934;-0.7028;
1.8000;0.6064;-0.6657;
2.1000;0.6162;-0.6286;
2.4000;0.6243;-0.6088;
2.7000;0.6357;-0.5840;
3.0000;0.6382;-0.5741;
3.3000;0.6479;-0.5494;
3.6000;0.6553;-0.5345;
3.9000;0.6545;-0.5321;
4.2000;0.6626;-0.5073;
4.5000;0.6667;-0.5048;
4.8000;0.6675;-0.5073;
5.1000;0.6724;-0.4925;
5.4000;0.6805;-0.4826;
5.7000;0.6797;-0.4925;
6.0000;0.6805;-0.5024;
6.3000;0.6829;-0.5073;
6.6000;0.6846;-0.5073;
6.9000;0.6870;-0.5073;
7.2000;0.6895;-0.5073;
7.5000;0.6911;-0.5024;
7.8000;0.6935;-0.5048;
8.1000;0.6968;-0.4999;
8.4000;0.6968;-0.4974;
8.7000;0.7066;-0.4776;
9.0000;0.7025;-0.4974;
9.3000;0.7000;-0.4974;
9.6000;0.7041;-0.4999;
9.9000;0.7082;-0.4925;
10.2000;0.7098;-0.4949;
10.5000;0.7123;-0.4925;
10.8000;0.7139;-0.4826;
11.1000;0.7123;-0.4900;
11.4000;0.7147;-0.4900;
11.7000;0.7155;-0.4949;
12.0000;0.7155;-0.4925;
12.3000;0.7179;-0.4949;
12.6000;0.7196;-0.4999;
12.9000;0.7220;-0.4925;
13.2000;0.7204;-0.4999;
13.5000;0.7245;-0.4949;
13.8000;0.7212;-0.4999;
14.1000;0.7253;-0.4974;
14.4000;0.7277;-0.4875;
14.7000;0.7310;-0.4900;
15.0000;0.7326;-0.4925;
15.3000;0.7334;-0.4900;
15.6000;0.7407;-0.4702;
15.9000;0.7342;-0.4900;
16.2000;0.7367;-0.4900;
16.5000;0.7399;-0.4826;
16.8000;0.7334;-0.4875;
17.1000;0.7375;-0.4826;
17.4000;0.7399;-0.4875;
17.7000;0.7473;-0.4801;
18.0000;0.7432;-0.5048;
18.3000;0.7424;-0.5098;
18.6000;0.7530;-0.4875;
18.9000;0.7432;-0.5048;
19.2000;0.7464;-0.5024;
19.5000;0.7464;-0.4999;
19.8000;0.7489;-0.4999;
20.1000;0.7489;-0.4900;
20.4000;0.7497;-0.4826;
20.7000;0.7505;-0.4900;
21.0000;0.7521;-0.4900;
21.3000;0.7530;-0.4900;
21.6000;0.7538;-0.4925;
21.9000;0.7570;-0.4925;
22.2000;0.7538;-0.5024;
22.5000;0.7562;-0.4999;
22.8000;0.7578;-0.5024;
23.1000;0.7586;-0.5024;
23.4000;0.7554;-0.5147;
23.7000;0.7595;-0.5024;
24.0000;0.7586;-0.5147;
24.3000;0.7595;-0.5073;
24.6000;0.7643;-0.5048;
24.9000;0.7603;-0.5147;
25.2000;0.7619;-0.5098;
25.5000;0.7627;-0.5147;
25.8000;0.7635;-0.5073;
26.1000;0.7652;-0.5098;
26.4000;0.7676;-0.5123;
26.7000;0.7676;-0.5098;
27.0000;0.7668;-0.5098;
27.3000;0.7660;-0.5147;
27.6000;0.7684;-0.5172;
27.9000;0.7741;-0.4999;
28.2000;0.7684;-0.5222;
28.5000;0.7643;-0.5321;
28.8000;0.7692;-0.5197;
29.1000;0.7635;-0.5321;
29.4000;0.7692;-0.5172;
29.7000;0.7700;-0.5098;
30.0000;0.7700;-0.5024;
30.3000;0.7733;-0.4974;
30.6000;0.7741;-0.5098;
30.9000;0.7733;-0.5073;
31.2000;0.7741;-0.5048;
31.5000;0.7733;-0.5073;
31.8000;0.7757;-0.5098;
32.1000;0.7766;-0.5073;
32.4000;0.7741;-0.5147;
32.7000;0.7766;-0.5222;
33.0000;0.7766;-0.5172;
33.3000;0.7790;-0.5098;
33.6000;0.7774;-0.5098;
33.9000;0.7782;-0.5172;
34.2000;0.7774;-0.5172;
34.5000;0.7814;-0.5147;
34.8000;0.7790;-0.5271;
35.1000;0.7790;-0.5197;
35.4000;0.7814;-0.5222;
35.7000;0.7806;-0.5370;
36.0000;0.7814;-0.5395;
36.3000;0.7806;-0.5494;
36.6000;0.7814;-0.5469;
36.9000;0.7855;-0.5395;
37.2000;0.7847;-0.5469;
37.5000;0.7912;-0.5271;
37.8000;0.7831;-0.5420;
38.1000;0.7855;-0.5345;
38.4000;0.7863;-0.5296;
38.7000;0.7847;-0.5345;
39.0000;0.7839;-0.5395;
39.3000;0.7928;-0.5197;
39.6000;0.7920;-0.5147;
39.9000;0.7871;-0.5296;
40.2000;0.7896;-0.5246;
40.5000;0.7888;-0.5296;
40.8000;0.7928;-0.5098;
41.1000;0.7880;-0.5222;
41.4000;0.7904;-0.5172;
41.7000;0.7888;-0.5271;
42.0000;0.7888;-0.5321;
42.3000;0.7920;-0.5345;
42.6000;0.7993;-0.5147;
42.9000;0.7904;-0.5296;
43.2000;0.7904;-0.5420;
43.5000;0.7880;-0.5420;
43.8000;0.7896;-0.5420;
44.1000;0.7912;-0.5345;
44.4000;0.7928;-0.5345;
44.7000;0.7912;-0.5420;
45.0000;0.7912;-0.5444;
45.3000;0.7937;-0.5395;
45.6000;0.7937;-0.5469;
45.9000;0.7953;-0.5494;
46.2000;0.7945;-0.5494;
46.5000;0.7977;-0.5494;
46.8000;0.7920;-0.5716;
47.1000;0.7945;-0.5617;
47.4000;0.7961;-0.5568;
47.7000;0.7969;-0.5568;
48.0000;0.7961;-0.5617;
48.3000;0.7953;-0.5543;
48.6000;0.7961;-0.5469;
48.9000;0.7961;-0.5420;
49.2000;0.7969;-0.5444;
49.5000;0.7953;-0.5593;
49.8000;0.7977;-0.5667;
50.1000;0.7977;-0.5741;
50.4000;0.7977;-0.5815;
50.7000;0.7985;-0.5890;
51.0000;0.8067;-0.5617;
51.3000;0.8010;-0.5766;
51.6000;0.7977;-0.5890;
51.9000;0.7969;-0.5890;
52.2000;0.7985;-0.5865;
52.5000;0.8010;-0.5865;
52.8000;0.8002;-0.5914;
53.1000;0.8002;-0.5939;
53.4000;0.8034;-0.5815;
53.7000;0.8018;-0.5840;
54.0000;0.8010;-0.5890;
54.3000;0.8010;-0.5890;
54.6000;0.8075;-0.5716;
54.9000;0.8050;-0.5840;
55.2000;0.8026;-0.5791;
55.5000;0.8067;-0.5667;
55.8000;0.8042;-0.5741;
56.1000;0.8050;-0.5692;
56.4000;0.8018;-0.5766;
56.7000;0.7977;-0.5840;
57.0000;0.8050;-0.5692;
57.3000;0.8067;-0.5692;
57.6000;0.8059;-0.5741;
57.9000;0.8042;-0.5914;
58.2000;0.8067;-0.5865;
58.5000;0.8059;-0.5865;
58.8000;0.8075;-0.5964;
59.1000;0.8059;-0.5964;
59.4000;0.8067;-0.5989;
59.7000;0.8010;-0.6137;
60.0000;0.8083;-0.5890;
60.3000;0.8075;-0.5914;
60.6000;0.8075;-0.5989;
60.9000;0.8091;-0.6038;
61.2000;0.8107;-0.5964;
61.5000;0.8075;-0.5890;
61.8000;0.8099;-0.5840;
62.1000;0.8099;-0.5840;
62.4000;0.8116;-0.5890;
62.7000;0.8140;-0.5865;
63.0000;0.8124;-0.5939;
63.3000;0.8050;-0.6112;
63.6000;0.8124;-0.5939;
63.9000;0.8116;-0.6013;
64.2000;0.8132;-0.6063;
64.5000;0.8067;-0.6261;
64.8000;0.8124;-0.6261;
65.1000;0.8124;-0.6137;
65.4000;0.8124;-0.6187;
65.7000;0.8140;-0.6137;
66.0000;0.8148;-0.6112;
66.3000;0.8140;-0.6063;
66.6000;0.8140;-0.6088;
66.9000;0.8156;-0.6063;
67.2000;0.8132;-0.6088;
67.5000;0.8132;-0.6112;
67.8000;0.8156;-0.6038;
68.1000;0.8156;-0.6112;
68.4000;0.8164;-0.6162;
68.7000;0.8181;-0.6211;
69.0000;0.8156;-0.6360;
69.3000;0.8173;-0.6286;
69.6000;0.8181;-0.6261;
69.9000;0.8164;-0.6187;
70.2000;0.8230;-0.6063;
70.5000;0.8262;-0.6112;
70.8000;0.8189;-0.6335;
71.1000;0.8132;-0.6558;
71.4000;0.8140;-0.6508;
71.7000;0.8205;-0.6360;
72.0000;0.8295;-0.6162;
72.3000;0.8221;-0.6335;
72.6000;0.8164;-0.6484;
72.9000;0.8197;-0.6459;
73.2000;0.8213;-0.6335;
73.5000;0.8189;-0.6360;
73.8000;0.8197;-0.6360;
74.1000;0.8205;-0.6286;
74.4000;0.8197;-0.6261;
74.7000;0.8173;-0.6310;
75.0000;0.8205;-0.6187;
75.3000;0.8213;-0.6088;
75.6000;0.8205;-0.6088;
75.9000;0.8213;-0.6162;
76.2000;0.8213;-0.6137;
76.5000;0.8238;-0.6063;
76.8000;0.8221;-0.6088;
77.1000;0.8221;-0.6137;
77.4000;0.8213;-0.6162;
77.7000;0.8246;-0.6137;
78.0000;0.8230;-0.6162;
78.3000;0.8246;-0.6038;
78.6000;0.8230;-0.6088;
78.9000;0.8238;-0.6038;
79.2000;0.8254;-0.6013;
79.5000;0.8221;-0.6112;
79.8000;0.8230;-0.6137;
80.1000;0.8221;-0.6137;
80.4000;0.8254;-0.6112;
80.7000;0.8246;-0.6162;
81.0000;0.8230;-0.6261;
81.3000;0.8246;-0.6112;
81.6000;0.8287;-0.6013;
81.9000;0.8221;-0.6187;
82.2000;0.8262;-0.6088;
82.5000;0.8270;-0.6088;
82.8000;0.8238;-0.6137;
83.1000;0.8254;-0.6088;
83.4000;0.8278;-0.6013;
83.7000;0.8327;-0.5939;
84.0000;0.8262;-0.6137;
84.3000;0.8262;-0.6236;
84.6000;0.8278;-0.6187;
84.9000;0.8270;-0.6286;
85.2000;0.8262;-0.6310;
85.5000;0.8262;-0.6360;
85.8000;0.8262;-0.6261;
86.1000;0.8270;-0.6162;
86.4000;0.8278;-0.6162;
86.7000;0.8205;-0.6360;
87.0000;0.8278;-0.6236;
87.3000;0.8287;-0.6187;
87.6000;0.8278;-0.6261;
87.9000;0.8287;-0.6211;
88.2000;0.8287;-0.6211;
88.5000;0.8287;-0.6211;
88.8000;0.8213;-0.6360;
89.1000;0.8262;-0.6162;
89.4000;0.8287;-0.6187;
89.7000;0.8287;-0.6187;
90.0000;0.8278;-0.6112;
90.3000;0.8278;-0.6187;
90.6000;0.8303;-0.6112;
90.9000;0.8287;-0.6211;
91.2000;0.8319;-0.6112;
91.5000;0.8303;-0.6088;
91.8000;0.8311;-0.6063;
92.1000;0.8368;-0.5890;
92.4000;0.8344;-0.5939;
92.7000;0.8270;-0.6088;
93.0000;0.8303;-0.6063;
93.3000;0.8311;-0.6088;
93.6000;0.8319;-0.6187;
93.9000;0.8303;-0.6211;
94.2000;0.8295;-0.6310;
94.5000;0.8335;-0.6261;
94.8000;0.8311;-0.6310;
95.1000;0.8287;-0.6310;
95.4000;0.8352;-0.6261;
95.7000;0.8319;-0.6434;
96.0000;0.8344;-0.6484;
96.3000;0.8246;-0.6583;
96.6000;0.8327;-0.6385;
96.9000;0.8327;-0.6335;
97.2000;0.8311;-0.6385;
97.5000;0.8319;-0.6434;
97.8000;0.8303;-0.6484;
98.1000;0.8319;-0.6310;
98.4000;0.8327;-0.6236;
98.7000;0.8319;-0.6286;
99.0000;0.8319;-0.6236;
99.3000;0.8327;-0.6261;
99.6000;0.8327;-0.6360;
99.9000;0.8319;-0.6310;
100.2000;0.8327;-0.6434;
100.5000;0.8344;-0.6335;
100.8000;0.8319;-0.6409;
101.1000;0.8335;-0.6236;
101.4000;0.8327;-0.6286;
101.7000;0.8327;-0.6286;
102.0000;0.8344;-0.6286;
102.3000;0.8335;-0.6360;
102.6000;0.8327;-0.6360;
102.9000;0.8344;-0.6360;
103.2000;0.8335;-0.6360;
103.5000;0.8352;-0.6335;
103.8000;0.8335;-0.6434;
104.1000;0.8352;-0.6508;
104.4000;0.8311;-0.6508;
104.7000;0.8400;-0.6187;
105.0000;0.8335;-0.6360;
105.3000;0.8352;-0.6484;
105.6000;0.8417;-0.6335;
105.9000;0.8360;-0.6533;
106.2000;0.8335;-0.6558;
106.5000;0.8376;-0.6434;
106.8000;0.8311;-0.6558;
107.1000;0.8360;-0.6360;
107.4000;0.8335;-0.6335;
107.7000;0.8360;-0.6286;
108.0000;0.8384;-0.6261;
108.3000;0.8409;-0.6211;
108.6000;0.8360;-0.6360;
108.9000;0.8360;-0.6335;
109.2000;0.8352;-0.6335;
109.5000;0.8368;-0.6187;
109.8000;0.8352;-0.6236;
110.1000;0.8352;-0.6187;
110.4000;0.8344;-0.6261;
110.7000;0.8335;-0.6187;
111.0000;0.8344;-0.6137;
111.3000;0.8344;-0.6137;
111.6000;0.8303;-0.6137;
111.9000;0.8344;-0.6088;
112.2000;0.8335;-0.6211;
112.5000;0.8335;-0.6211;
112.8000;0.8352;-0.6261;
113.1000;0.8360;-0.6137;
113.4000;0.8368;-0.6137;
113.7000;0.8368;-0.6137;
114.0000;0.8335;-0.6236;
114.3000;0.8352;-0.6261;
114.6000;0.8360;-0.6211;
114.9000;0.8392;-0.6211;
115.2000;0.8352;-0.6261;
115.5000;0.8311;-0.6286;
115.8000;0.8352;-0.6187;
116.1000;0.8352;-0.6187;
116.4000;0.8376;-0.6112;
116.7000;0.8311;-0.6310;
117.0000;0.8368;-0.6187;
117.3000;0.8368;-0.6112;
117.6000;0.8344;-0.6187;
117.9000;0.8384;-0.6112;
118.2000;0.8392;-0.6013;
118.5000;0.8384;-0.6088;
118.8000;0.8376;-0.6137;
119.1000;0.8360;-0.6187;
119.4000;0.8400;-0.6088;
119.7000;0.8368;-0.6112;
120.0000;0.8368;-0.6112;
120.3000;0.8368;-0.6187;
120.6000;0.8376;-0.6112;
120.9000;0.8368;-0.6211;
121.2000;0.8376;-0.6261;
121.5000;0.8327;-0.6310;
121.8000;0.8376;-0.6211;
122.1000;0.8384;-0.6187;
122.4000;0.8376;-0.6261;
122.7000;0.8376;-0.6162;
123.0000;0.8368;-0.6137;
123.3000;0.8368;-0.6211;
123.6000;0.8352;-0.6385;
123.9000;0.8384;-0.6434;
124.2000;0.8376;-0.6434;
124.5000;0.8352;-0.6459;
124.8000;0.8368;-0.6459;
125.1000;0.8360;-0.6459;
125.4000;0.8368;-0.6409;
125.7000;0.8360;-0.6409;
126.0000;0.8384;-0.6409;
126.3000;0.8376;-0.6434;
126.6000;0.8311;-0.6607;
126.9000;0.8376;-0.6484;
127.2000;0.8376;-0.6459;
127.5000;0.8352;-0.6459;
127.8000;0.8360;-0.6409;
128.1000;0.8368;-0.6360;
128.4000;0.8368;-0.6508;
128.7000;0.8368;-0.6385;
129.0000;0.8384;-0.6310;
129.3000;0.8360;-0.6360;
129.6000;0.8384;-0.6310;
129.9000;0.8360;-0.6236;
130.2000;0.8392;-0.6211;
130.5000;0.8376;-0.6211;
130.8000;0.8392;-0.6162;
131.1000;0.8376;-0.6211;
131.4000;0.8368;-0.6137;
131.7000;0.8425;-0.6112;
132.0000;0.8368;-0.6286;
132.3000;0.8384;-0.6310;
132.6000;0.8400;-0.6236;
132.9000;0.8392;-0.6261;
133.2000;0.8392;-0.6211;
133.5000;0.8400;-0.6286;
133.8000;0.8417;-0.6187;
134.1000;0.8392;-0.6236;
134.4000;0.8368;-0.6286;
134.7000;0.8352;-0.6335;
135.0000;0.8392;-0.6335;
135.3000;0.8384;-0.6360;
135.6000;0.8311;-0.6409;
135.9000;0.8392;-0.6137;
136.2000;0.8376;-0.6112;
136.5000;0.8384;-0.6013;
136.8000;0.8384;-0.5989;
137.1000;0.8368;-0.6013;
137.4000;0.8303;-0.6211;
137.7000;0.8441;-0.5865;
138.0000;0.8392;-0.5964;
138.3000;0.8392;-0.5939;
138.6000;0.8376;-0.6013;
138.9000;0.8384;-0.6088;
139.2000;0.8392;-0.6162;
139.5000;0.8384;-0.6162;
139.8000;0.8376;-0.6162;
140.1000;0.8368;-0.6137;
140.4000;0.8311;-0.6286;
140.7000;0.8384;-0.6038;
141.0000;0.8368;-0.6162;
141.3000;0.8360;-0.6162;
141.6000;0.8384;-0.6137;
141.9000;0.8376;-0.6112;
142.2000;0.8368;-0.6187;
142.5000;0.8344;-0.6236;
142.8000;0.8360;-0.6112;
143.1000;0.8376;-0.6112;
143.4000;0.8376;-0.6112;
143.7000;0.8392;-0.6162;
144.0000;0.8368;-0.6286;
144.3000;0.8417;-0.6187;
144.6000;0.8400;-0.6211;
144.9000;0.8384;-0.6261;
145.2000;0.8400;-0.6211;
145.5000;0.8392;-0.6211;
145.8000;0.8384;-0.6187;
146.1000;0.8384;-0.6286;
146.4000;0.8384;-0.6286;
146.7000;0.8368;-0.6261;
147.0000;0.8384;-0.6211;
147.3000;0.8368;-0.6211;
147.6000;0.8368;-0.6187;
147.9000;0.8368;-0.6112;
148.2000;0.8376;-0.6137;
148.5000;0.8335;-0.6310;
148.8000;0.8368;-0.6187;
149.1000;0.8400;-0.6088;
149.4000;0.8400;-0.6088;
149.7000;0.8392;-0.6013;
150.0000;0.8376;-0.6088;
150.3000;0.8360;-0.6112;
150.6000;0.8441;-0.6038;
150.9000;0.8376;-0.6261;
151.2000;0.8368;-0.6211;
151.5000;0.8360;-0.6187;
151.8000;0.8392;-0.6162;
152.1000;0.8368;-0.6137;
152.4000;0.8360;-0.6236;
152.7000;0.8376;-0.6088;
153.0000;0.8392;-0.5964;
153.3000;0.8368;-0.5964;
153.6000;0.8376;-0.5989;
153.9000;0.8376;-0.6137;
154.2000;0.8368;-0.6236;
154.5000;0.8392;-0.6162;
154.8000;0.8384;-0.6112;
155.1000;0.8360;-0.6236;
155.4000;0.8368;-0.6211;
155.7000;0.8311;-0.6434;
156.0000;0.8360;-0.6286;
156.3000;0.8384;-0.6310;
156.6000;0.8441;-0.6112;
156.9000;0.8376;-0.6187;
157.2000;0.8376;-0.6162;
157.5000;0.8352;-0.6310;
157.8000;0.8376;-0.6310;
158.1000;0.8392;-0.6360;
158.4000;0.8392;-0.6434;
158.7000;0.8392;-0.6335;
159.0000;0.8368;-0.6335;
159.3000;0.8376;-0.6335;
159.6000;0.8392;-0.6211;
159.9000;0.8376;-0.6261;
160.2000;0.8368;-0.6310;
160.5000;0.8384;-0.6286;
160.8000;0.8360;-0.6310;
161.1000;0.8425;-0.6211;
161.4000;0.8368;-0.6211;
161.7000;0.8352;-0.6286;
162.0000;0.8352;-0.6286;
162.3000;0.8360;-0.6335;
162.6000;0.8376;-0.6211;
162.9000;0.8368;-0.6261;
163.2000;0.8384;-0.6236;
163.5000;0.8360;-0.6335;
163.8000;0.8368;-0.6409;
164.1000;0.8360;-0.6385;
164.4000;0.8368;-0.6310;
164.7000;0.8384;-0.6360;
165.0000;0.8368;-0.6310;
165.3000;0.8360;-0.6310;
165.6000;0.8425;-0.6112;
165.9000;0.8384;-0.6162;
166.2000;0.8376;-0.6187;
166.5000;0.8368;-0.6236;
166.8000;0.8384;-0.6211;
167.1000;0.8466;-0.5989;
167.4000;0.8376;-0.6335;
167.7000;0.8392;-0.6261;
168.0000;0.8376;-0.6335;
168.3000;0.8376;-0.6310;
168.6000;0.8392;-0.6360;
168.9000;0.8392;-0.6360;
169.2000;0.8303;-0.6459;
169.5000;0.8352;-0.6187;
169.8000;0.8400;-0.6088;
170.1000;0.8400;-0.6112;
170.4000;0.8376;-0.6236;
170.7000;0.8368;-0.6310;
171.0000;0.8368;-0.6286;
171.3000;0.8376;-0.6261;
171.6000;0.8368;-0.6286;
171.9000;0.8352;-0.6261;
172.2000;0.8327;-0.6409;
172.5000;0.8400;-0.6187;
172.8000;0.8344;-0.6211;
173.1000;0.8360;-0.6211;
173.4000;0.8352;-0.6236;
173.7000;0.8425;-0.6088;
174.0000;0.8368;-0.6088;
174.3000;0.8360;-0.6187;
174.6000;0.8368;-0.6211;
174.9000;0.8335;-0.6484;
175.2000;0.8368;-0.6360;
175.5000;0.8384;-0.6335;
175.8000;0.8392;-0.6236;
176.1000;0.8368;-0.6310;
176.4000;0.8368;-0.6236;
176.7000;0.8360;-0.6261;
177.0000;0.8360;-0.6236;
177.3000;0.8376;-0.6211;
177.6000;0.8311;-0.6360;
177.9000;0.8352;-0.6335;
178.2000;0.8360;-0.6261;
178.5000;0.8392;-0.6162;
178.8000;0.8360;-0.6211;
179.1000;0.8376;-0.6162;
179.4000;0.8344;-0.6187;
179.7000;0.8360;-0.6187;
180.0000;0.8360;-0.6236;
180.3000;0.8360;-0.6286;
180.6000;0.8360;-0.6261;
180.9000;0.8384;-0.6211;
181.2000;0.8335;-0.6286;
181.5000;0.8360;-0.6187;
181.8000;0.8352;-0.6236;
182.1000;0.8287;-0.6459;
182.4000;0.8368;-0.6211;
182.7000;0.8352;-0.6261;
183.0000;0.8360;-0.6187;
183.3000;0.8344;-0.6286;
183.6000;0.8368;-0.6236;
183.9000;0.8327;-0.6261;
184.2000;0.8352;-0.6236;
184.5000;0.8344;-0.6286;
184.8000;0.8344;-0.6310;
185.1000;0.8344;-0.6360;
185.4000;0.8376;-0.6187;
185.7000;0.8360;-0.6162;
186.0000;0.8335;-0.6162;
186.3000;0.8384;-0.6088;
186.6000;0.8327;-0.6310;
186.9000;0.8360;-0.6360;
187.2000;0.8449;-0.6187;
187.5000;0.8360;-0.6459;
187.8000;0.8384;-0.6360;
188.1000;0.8335;-0.6335;
188.4000;0.8360;-0.6286;
188.7000;0.8360;-0.6236;
189.0000;0.8368;-0.6211;
189.3000;0.8368;-0.6211;
189.6000;0.8344;-0.6286;
189.9000;0.8344;-0.6236;
190.2000;0.8433;-0.5914;
190.5000;0.8352;-0.6088;
190.8000;0.8352;-0.6162;
191.1000;0.8344;-0.6162;
191.4000;0.8352;-0.6211;
191.7000;0.8352;-0.6236;
192.0000;0.8392;-0.6063;
192.3000;0.8344;-0.6137;
192.6000;0.8352;-0.6112;
192.9000;0.8335;-0.6187;
193.2000;0.8344;-0.6236;
193.5000;0.8344;-0.6236;
193.8000;0.8327;-0.6236;
194.1000;0.8352;-0.6137;
194.4000;0.8344;-0.6063;
194.7000;0.8368;-0.6013;
195.0000;0.8352;-0.6063;
195.3000;0.8335;-0.6137;
195.6000;0.8368;-0.6063;
195.9000;0.8368;-0.6088;
196.2000;0.8360;-0.6088;
196.5000;0.8344;-0.6088;
196.8000;0.8352;-0.6063;
197.1000;0.8335;-0.6112;
197.4000;0.8319;-0.6211;
197.7000;0.8344;-0.6088;
198.0000;0.8335;-0.6112;
198.3000;0.8303;-0.6137;
198.6000;0.8319;-0.6162;
198.9000;0.8335;-0.6162;
199.2000;0.8335;-0.6187;
199.5000;0.8344;-0.6162;
199.8000;0.8303;-0.6236;
200.1000;0.8254;-0.6310;
200.4000;0.8344;-0.6038;
200.7000;0.8335;-0.5939;
201.0000;0.8352;-0.5890;
201.3000;0.8352;-0.5939;
201.6000;0.8409;-0.5766;
201.9000;0.8327;-0.6013;
202.2000;0.8327;-0.6112;
202.5000;0.8335;-0.6137;
202.8000;0.8368;-0.6187;
203.1000;0.8352;-0.6211;
203.4000;0.8344;-0.6162;
203.7000;0.8278;-0.6310;
204.0000;0.8344;-0.6038;
204.3000;0.8311;-0.6038;
204.6000;0.8352;-0.5914;
204.9000;0.8344;-0.5939;
205.2000;0.8327;-0.6088;
205.5000;0.8392;-0.5939;
205.8000;0.8344;-0.6038;
206.1000;0.8327;-0.6038;
206.4000;0.8344;-0.5989;
206.7000;0.8335;-0.5964;
207.0000;0.8344;-0.5914;
207.3000;0.8335;-0.5914;
207.6000;0.8327;-0.5890;
207.9000;0.8360;-0.5791;
208.2000;0.8360;-0.5791;
208.5000;0.8327;-0.5840;
208.8000;0.8344;-0.5791;
209.1000;0.8400;-0.5692;
209.4000;0.8392;-0.5716;
209.7000;0.8335;-0.5890;
210.0000;0.8335;-0.5939;
210.3000;0.8319;-0.5964;
210.6000;0.8327;-0.5914;
210.9000;0.8344;-0.5840;
211.2000;0.8352;-0.5890;
211.5000;0.8335;-0.5939;
211.8000;0.8335;-0.5989;
212.1000;0.8352;-0.5989;
212.4000;0.8327;-0.6038;
212.7000;0.8295;-0.6112;
213.0000;0.8335;-0.6112;
213.3000;0.8327;-0.6137;
213.6000;0.8319;-0.6137;
213.9000;0.8344;-0.6187;
214.2000;0.8360;-0.6112;
214.5000;0.8344;-0.6038;
214.8000;0.8344;-0.5939;
215.1000;0.8254;-0.6038;
215.4000;0.8319;-0.5815;
215.7000;0.8303;-0.5840;
216.0000;0.8344;-0.5815;
216.3000;0.8327;-0.5914;
216.6000;0.8335;-0.5914;
216.9000;0.8327;-0.5964;
217.2000;0.8344;-0.5914;
217.5000;0.8335;-0.5964;
217.8000;0.8319;-0.6013;
218.1000;0.8311;-0.5989;
218.4000;0.8335;-0.5964;
218.7000;0.8311;-0.5989;
219.0000;0.8319;-0.5964;
219.3000;0.8335;-0.5964;
219.6000;0.8311;-0.5939;
219.9000;0.8319;-0.5890;
220.2000;0.8319;-0.5939;
220.5000;0.8319;-0.5939;
220.8000;0.8335;-0.5914;
221.1000;0.8319;-0.5890;
221.4000;0.8303;-0.5964;
221.7000;0.8254;-0.6038;
222.0000;0.8319;-0.5939;
222.3000;0.8344;-0.5840;
222.6000;0.8327;-0.5791;
222.9000;0.8295;-0.5939;
223.2000;0.8287;-0.6013;
223.5000;0.8303;-0.5939;
223.8000;0.8303;-0.5939;
224.1000;0.8303;-0.6013;
224.4000;0.8295;-0.5914;
224.7000;0.8360;-0.5840;
225.0000;0.8335;-0.5989;
225.3000;0.8327;-0.5989;
225.6000;0.8344;-0.5914;
225.9000;0.8319;-0.5939;
226.2000;0.8319;-0.5989;
226.5000;0.8327;-0.6038;
226.8000;0.8327;-0.6013;
227.1000;0.8311;-0.5964;
227.4000;0.8319;-0.5939;
227.7000;0.8360;-0.5865;
228.0000;0.8295;-0.6038;
228.3000;0.8400;-0.5815;
228.6000;0.8303;-0.6038;
228.9000;0.8311;-0.6063;
229.2000;0.8287;-0.6088;
229.5000;0.8311;-0.6013;
229.8000;0.8303;-0.5989;
230.1000;0.8319;-0.5939;
230.4000;0.8327;-0.6013;
230.7000;0.8303;-0.6013;
231.0000;0.8311;-0.6038;
231.3000;0.8311;-0.6038;
231.6000;0.8303;-0.6013;
231.9000;0.8303;-0.5989;
232.2000;0.8311;-0.5964;
232.5000;0.8319;-0.5890;
232.8000;0.8327;-0.5890;
233.1000;0.8303;-0.5914;
233.4000;0.8327;-0.5939;
233.7000;0.8311;-0.5939;
234.0000;0.8295;-0.6063;
234.3000;0.8311;-0.6063;
234.6000;0.8319;-0.6063;
234.9000;0.8319;-0.6137;
235.2000;0.8311;-0.6162;
235.5000;0.8311;-0.6063;
235.8000;0.8295;-0.5964;
236.1000;0.8303;-0.5989;
236.4000;0.8311;-0.5890;
236.7000;0.8327;-0.5840;
237.0000;0.8319;-0.5939;
237.3000;0.8319;-0.5939;
237.6000;0.8344;-0.5964;
237.9000;0.8311;-0.6038;
238.2000;0.8303;-0.5989;
238.5000;0.8311;-0.6038;
238.8000;0.8319;-0.5989;
239.1000;0.8303;-0.5914;
239.4000;0.8295;-0.5939;
239.7000;0.8319;-0.5815;
240.0000;0.8319;-0.5815;
240.3000;0.8295;-0.5791;
240.6000;0.8303;-0.5741;
240.9000;0.8327;-0.5692;
241.2000;0.8311;-0.5741;
241.5000;0.8295;-0.5741;
241.8000;0.8287;-0.5840;
242.1000;0.8295;-0.5865;
242.4000;0.8311;-0.5890;
242.7000;0.8344;-0.5815;
243.0000;0.8303;-0.5989;
243.3000;0.8295;-0.6013;
243.6000;0.8295;-0.6038;
243.9000;0.8319;-0.6038;
244.2000;0.8311;-0.6038;
244.5000;0.8303;-0.6137;
244.8000;0.8311;-0.6112;
245.1000;0.8303;-0.6088;
245.4000;0.8295;-0.6038;
245.7000;0.8319;-0.5939;
246.0000;0.8303;-0.5865;
246.3000;0.8327;-0.5791;
246.6000;0.8319;-0.5791;
246.9000;0.8303;-0.5865;
247.2000;0.8311;-0.5865;
247.5000;0.8311;-0.5964;
247.8000;0.8278;-0.5890;
248.1000;0.8303;-0.5914;
248.4000;0.8303;-0.6013;
248.7000;0.8303;-0.6038;
249.0000;0.8319;-0.6038;
249.3000;0.8311;-0.5939;
249.6000;0.8376;-0.5840;
249.9000;0.8311;-0.6063;
250.2000;0.8311;-0.5989;
250.5000;0.8303;-0.5964;
250.8000;0.8287;-0.6013;
251.1000;0.8327;-0.5890;
251.4000;0.8327;-0.5840;
251.7000;0.8311;-0.5865;
252.0000;0.8295;-0.5989;
252.3000;0.8295;-0.5989;
252.6000;0.8295;-0.5989;
252.9000;0.8311;-0.5989;
253.2000;0.8287;-0.5964;
253.5000;0.8295;-0.5865;
253.8000;0.8303;-0.5840;
254.1000;0.8287;-0.5766;
254.4000;0.8295;-0.5667;
254.7000;0.8295;-0.5667;
255.0000;0.8295;-0.5667;
255.3000;0.8303;-0.5617;
255.6000;0.8295;-0.5617;
255.9000;0.8287;-0.5617;
256.2000;0.8303;-0.5667;
256.5000;0.8311;-0.5617;
256.8000;0.8295;-0.5593;
257.1000;0.8295;-0.5543;
257.4000;0.8295;-0.5543;
257.7000;0.8287;-0.5667;
258.0000;0.8287;-0.5667;
258.3000;0.8303;-0.5716;
258.6000;0.8295;-0.5741;
258.9000;0.8287;-0.5716;
259.2000;0.8311;-0.5642;
259.5000;0.8319;-0.5692;
259.8000;0.8287;-0.5716;
260.1000;0.8287;-0.5667;
260.4000;0.8278;-0.5865;
260.7000;0.8311;-0.5840;
261.0000;0.8287;-0.5865;
261.3000;0.8287;-0.5791;
261.6000;0.8295;-0.5914;
261.9000;0.8295;-0.5865;
262.2000;0.8278;-0.5939;
262.5000;0.8287;-0.5914;
262.8000;0.8270;-0.5939;
263.1000;0.8287;-0.5939;
263.4000;0.8287;-0.5989;
263.7000;0.8270;-0.5914;
264.0000;0.8278;-0.5840;
264.3000;0.8303;-0.5840;
264.6000;0.8352;-0.5593;
264.9000;0.8278;-0.5815;
265.2000;0.8278;-0.5840;
265.5000;0.8254;-0.5914;
265.8000;0.8287;-0.5840;
266.1000;0.8287;-0.5815;
266.4000;0.8270;-0.5865;
266.7000;0.8295;-0.5741;
267.0000;0.8278;-0.5865;
267.3000;0.8287;-0.5914;
267.6000;0.8270;-0.5865;
267.9000;0.8303;-0.5815;
268.2000;0.8303;-0.5766;
268.5000;0.8278;-0.5692;
268.8000;0.8287;-0.5716;
269.1000;0.8287;-0.5716;
269.4000;0.8278;-0.5840;
269.7000;0.8230;-0.5989;
270.0000;0.8270;-0.5890;
270.3000;0.8254;-0.5939;
270.6000;0.8278;-0.5890;
270.9000;0.8270;-0.5890;
271.2000;0.8270;-0.5840;
271.5000;0.8278;-0.5741;
271.8000;0.8287;-0.5716;
272.1000;0.8278;-0.5741;
272.4000;0.8295;-0.5840;
272.7000;0.8278;-0.5840;
273.0000;0.8270;-0.5865;
273.3000;0.8295;-0.5914;
273.6000;0.8287;-0.5914;
273.9000;0.8287;-0.5939;
274.2000;0.8278;-0.5964;
274.5000;0.8344;-0.5716;
274.8000;0.8213;-0.6013;
275.1000;0.8262;-0.5914;
275.4000;0.8278;-0.5840;
275.7000;0.8319;-0.5692;
276.0000;0.8278;-0.5741;
276.3000;0.8278;-0.5716;
276.6000;0.8254;-0.5791;
276.9000;0.8303;-0.5617;
277.2000;0.8278;-0.5617;
277.5000;0.8287;-0.5692;
277.8000;0.8270;-0.5741;
278.1000;0.8270;-0.5716;
278.4000;0.8262;-0.5865;
278.7000;0.8270;-0.5914;
279.0000;0.8238;-0.5989;
279.3000;0.8221;-0.6063;
279.6000;0.8246;-0.5989;
279.9000;0.8262;-0.5989;
280.2000;0.8335;-0.5840;
280.5000;0.8295;-0.5914;
280.8000;0.8287;-0.5914;
281.1000;0.8221;-0.5939;
281.4000;0.8278;-0.5791;
281.7000;0.8278;-0.5890;
282.0000;0.8238;-0.6112;
282.3000;0.8278;-0.5939;
282.6000;0.8287;-0.5865;
282.9000;0.8270;-0.5741;
283.2000;0.8246;-0.5667;
283.5000;0.8270;-0.5494;
283.8000;0.8270;-0.5568;
284.1000;0.8295;-0.5568;
284.4000;0.8278;-0.5766;
284.7000;0.8287;-0.5741;
285.0000;0.8278;-0.5890;
285.3000;0.8270;-0.5989;
285.6000;0.8278;-0.6013;
285.9000;0.8287;-0.5939;
286.2000;0.8238;-0.5964;
286.5000;0.8278;-0.5840;
286.8000;0.8254;-0.5865;
287.1000;0.8246;-0.5890;
287.4000;0.8246;-0.5939;
287.7000;0.8197;-0.6038;
288.0000;0.8262;-0.5939;
288.3000;0.8368;-0.5716;
288.6000;0.8270;-0.5890;
288.9000;0.8246;-0.5840;
289.2000;0.8270;-0.5865;
289.5000;0.8254;-0.5914;
289.8000;0.8262;-0.5890;
290.1000;0.8246;-0.5890;
290.4000;0.8221;-0.5890;
290.7000;0.8270;-0.5840;
291.0000;0.8254;-0.5865;
291.3000;0.8213;-0.5964;
291.6000;0.8254;-0.5766;
291.9000;0.8254;-0.5716;
292.2000;0.8270;-0.5716;
292.5000;0.8254;-0.5692;
292.8000;0.8246;-0.5766;
293.1000;0.8270;-0.5791;
293.4000;0.8287;-0.5791;
293.7000;0.8278;-0.5766;
294.0000;0.8262;-0.5791;
294.3000;0.8246;-0.5815;
294.6000;0.8262;-0.5766;
294.9000;0.8254;-0.5716;
295.2000;0.8262;-0.5741;
295.5000;0.8246;-0.5716;
295.8000;0.8254;-0.5766;
296.1000;0.8262;-0.5716;
296.4000;0.8262;-0.5692;
296.7000;0.8262;-0.5791;
297.0000;0.8262;-0.5741;
297.3000;0.8262;-0.5741;
297.6000;0.8311;-0.5617;
297.9000;0.8270;-0.5667;
298.2000;0.8246;-0.5692;
298.5000;0.8287;-0.5667;
298.8000;0.8164;-0.5939;
299.1000;0.8254;-0.5791;
299.4000;0.8262;-0.5914;
299.7000;0.8262;-0.6013;
300.0000;0.8254;-0.5964;
300.3000;0.8262;-0.5865;
300.6000;0.8254;-0.5914;
300.9000;0.8254;-0.5890;
301.2000;0.8270;-0.5766;
301.5000;0.8189;-0.5989;
301.8000;0.8238;-0.5766;
302.1000;0.8246;-0.5766;
302.4000;0.8278;-0.5766;
302.7000;0.8262;-0.5766;
303.0000;0.8287;-0.5593;
303.3000;0.8262;-0.5716;
303.6000;0.8368;-0.5469;
303.9000;0.8278;-0.5667;
304.2000;0.8278;-0.5617;
304.5000;0.8221;-0.5791;
304.8000;0.8262;-0.5692;
305.1000;0.8262;-0.5692;
305.4000;0.8254;-0.5692;
305.7000;0.8238;-0.5692;
306.0000;0.8221;-0.5766;
306.3000;0.8254;-0.5667;
306.6000;0.8230;-0.5667;
306.9000;0.8254;-0.5568;
307.2000;0.8295;-0.5543;
307.5000;0.8254;-0.5642;
307.8000;0.8254;-0.5667;
308.1000;0.8295;-0.5716;
308.4000;0.8246;-0.5815;
308.7000;0.8238;-0.5840;
309.0000;0.8254;-0.5692;
309.3000;0.8254;-0.5741;
309.6000;0.8230;-0.5791;
309.9000;0.8238;-0.5890;
310.2000;0.8238;-0.5939;
310.5000;0.8254;-0.5890;
310.8000;0.8230;-0.5914;
311.1000;0.8270;-0.5791;
311.4000;0.8246;-0.5815;
311.7000;0.8295;-0.5692;
312.0000;0.8262;-0.5791;
312.3000;0.8262;-0.5815;
312.6000;0.8205;-0.5840;
312.9000;0.8254;-0.5791;
313.2000;0.8262;-0.5791;
313.5000;0.8238;-0.5815;
313.8000;0.8213;-0.5890;
314.1000;0.8246;-0.5865;
314.4000;0.8254;-0.5914;
314.7000;0.8262;-0.5890;
315.0000;0.8238;-0.5939;
315.3000;0.8238;-0.5890;
315.6000;0.8238;-0.5890;
315.9000;0.8254;-0.5840;
316.2000;0.8254;-0.5815;
316.5000;0.8262;-0.5890;
316.8000;0.8254;-0.5865;
317.1000;0.8254;-0.5890;
317.4000;0.8262;-0.5815;
317.7000;0.8303;-0.5716;
318.0000;0.8262;-0.5716;
318.3000;0.8262;-0.5766;
318.6000;0.8311;-0.5642;
318.9000;0.8246;-0.5741;
319.2000;0.8262;-0.5716;
319.5000;0.8246;-0.5791;
319.8000;0.8246;-0.5791;
320.1000;0.8262;-0.5692;
320.4000;0.8278;-0.5716;
320.7000;0.8254;-0.5815;
321.0000;0.8246;-0.5865;
321.3000;0.8238;-0.5815;
321.6000;0.8221;-0.5890;
321.9000;0.8262;-0.5766;
322.2000;0.8254;-0.5815;
322.5000;0.8221;-0.5840;
322.8000;0.8246;-0.5741;
323.1000;0.8205;-0.5791;
323.4000;0.8230;-0.5716;
323.7000;0.8246;-0.5642;
324.0000;0.8238;-0.5667;
324.3000;0.8230;-0.5716;
324.6000;0.8230;-0.5791;
324.9000;0.8230;-0.5840;
325.2000;0.8246;-0.5865;
325.5000;0.8246;-0.5791;
325.8000;0.8238;-0.5741;
326.1000;0.8287;-0.5543;
326.4000;0.8254;-0.5593;
326.7000;0.8238;-0.5692;
327.0000;0.8246;-0.5642;
327.3000;0.8230;-0.5667;
327.6000;0.8246;-0.5741;
327.9000;0.8213;-0.5840;
328.2000;0.8238;-0.5791;
328.5000;0.8246;-0.5741;
328.8000;0.8246;-0.5766;
329.1000;0.8238;-0.5692;
329.4000;0.8230;-0.5716;
329.7000;0.8230;-0.5667;
330.0000;0.8246;-0.5617;
330.3000;0.8311;-0.5444;
330.6000;0.8246;-0.5667;
330.9000;0.8238;-0.5815;
331.2000;0.8230;-0.5791;
331.5000;0.8221;-0.5890;
331.8000;0.8254;-0.5766;
332.1000;0.8246;-0.5741;
332.4000;0.8238;-0.5741;
332.7000;0.8213;-0.5716;
333.0000;0.8205;-0.5716;
333.3000;0.8230;-0.5642;
333.6000;0.8246;-0.5617;
333.9000;0.8246;-0.5617;
334.2000;0.8254;-0.5617;
334.5000;0.8254;-0.5617;
334.8000;0.8246;-0.5593;
335.1000;0.8238;-0.5642;
335.4000;0.8238;-0.5667;
335.7000;0.8221;-0.5741;
336.0000;0.8230;-0.5716;
336.3000;0.8246;-0.5642;
336.6000;0.8262;-0.5568;
336.9000;0.8230;-0.5716;
337.2000;0.8221;-0.5865;
337.5000;0.8221;-0.5840;
337.8000;0.8213;-0.5815;
338.1000;0.8221;-0.5741;
338.4000;0.8230;-0.5716;
338.7000;0.8246;-0.5716;
339.0000;0.8213;-0.5840;
339.3000;0.8230;-0.5791;
339.6000;0.8262;-0.5667;
339.9000;0.8254;-0.5716;
340.2000;0.8213;-0.5791;
340.5000;0.8238;-0.5791;
340.8000;0.8254;-0.5716;
341.1000;0.8230;-0.5692;
341.4000;0.8221;-0.5692;
341.7000;0.8221;-0.5692;
342.0000;0.8238;-0.5766;
342.3000;0.8238;-0.5791;
342.6000;0.8213;-0.5914;
342.9000;0.8230;-0.5840;
343.2000;0.8254;-0.5791;
343.5000;0.8262;-0.5716;
343.8000;0.8230;-0.5741;
344.1000;0.8221;-0.5766;
344.4000;0.8230;-0.5716;
344.7000;0.8213;-0.5766;
345.0000;0.8238;-0.5692;
345.3000;0.8238;-0.5667;
345.6000;0.8230;-0.5791;
345.9000;0.8221;-0.5840;
346.2000;0.8230;-0.5791;
346.5000;0.8213;-0.5791;
346.8000;0.8221;-0.5865;
347.1000;0.8230;-0.5815;
347.4000;0.8254;-0.5741;
347.7000;0.8197;-0.5815;
348.0000;0.8221;-0.5716;
348.3000;0.8221;-0.5716;
348.6000;0.8221;-0.5766;
348.9000;0.8213;-0.5692;
349.2000;0.8238;-0.5617;
349.5000;0.8230;-0.5617;
349.8000;0.8246;-0.5494;
350.1000;0.8303;-0.5395;
350.4000;0.8246;-0.5420;
350.7000;0.8221;-0.5469;
351.0000;0.8230;-0.5518;
351.3000;0.8238;-0.5469;
351.6000;0.8213;-0.5543;
351.9000;0.8213;-0.5469;
352.2000;0.8230;-0.5518;
352.5000;0.8230;-0.5593;
352.8000;0.8213;-0.5617;
353.1000;0.8246;-0.5642;
353.4000;0.8278;-0.5642;
353.7000;0.8238;-0.5716;
354.0000;0.8230;-0.5667;
354.3000;0.8213;-0.5642;
354.6000;0.8238;-0.5568;
354.9000;0.8221;-0.5593;
355.2000;0.8230;-0.5568;
355.5000;0.8213;-0.5667;
355.8000;0.8205;-0.5642;
356.1000;0.8205;-0.5667;
356.4000;0.8205;-0.5667;
356.7000;0.8221;-0.5692;
357.0000;0.8197;-0.5667;
357.3000;0.8221;-0.5716;
357.6000;0.8278;-0.5593;
357.9000;0.8164;-0.5865;
358.2000;0.8197;-0.5766;
358.5000;0.8230;-0.5741;
358.8000;0.8230;-0.5766;
359.1000;0.8230;-0.5840;
359.4000;0.8238;-0.5815;
359.7000;0.8042;-0.6335;
360.0000;0.8205;-0.6038;
360.3000;0.8213;-0.5989;
360.6000;0.8254;-0.5939;
360.9000;0.8311;-0.5766;
361.2000;0.8205;-0.6013;
361.5000;0.8181;-0.6038;
361.8000;0.8197;-0.5939;
362.1000;0.8205;-0.5865;
362.4000;0.8213;-0.5865;
362.7000;0.8213;-0.5716;
363.0000;0.8213;-0.5667;
363.3000;0.8221;-0.5667;
363.6000;0.8221;-0.5741;
363.9000;0.8230;-0.5667;
364.2000;0.8221;-0.5642;
364.5000;0.8205;-0.5667;
364.8000;0.8205;-0.5716;
365.1000;0.8238;-0.5642;
365.4000;0.8221;-0.5667;
365.7000;0.8213;-0.5741;
366.0000;0.8213;-0.5716;
366.3000;0.8221;-0.5741;
366.6000;0.8230;-0.5692;
366.9000;0.8197;-0.5617;
367.2000;0.8205;-0.5642;
367.5000;0.8197;-0.5692;
367.8000;0.8173;-0.5766;
368.1000;0.8189;-0.5741;
368.4000;0.8173;-0.5890;
368.7000;0.8197;-0.5914;
369.0000;0.8230;-0.5840;
369.3000;0.8221;-0.5716;
369.6000;0.8205;-0.5741;
369.9000;0.8213;-0.5741;
370.2000;0.8221;-0.5791;
370.5000;0.8197;-0.5865;
370.8000;0.8213;-0.5815;
371.1000;0.8205;-0.5865;
371.4000;0.8213;-0.5791;
371.7000;0.8221;-0.5766;
372.0000;0.8205;-0.5840;
372.3000;0.8197;-0.5890;
372.6000;0.8189;-0.5865;
372.9000;0.8213;-0.5815;
373.2000;0.8197;-0.5914;
373.5000;0.8205;-0.5939;
373.8000;0.8181;-0.5939;
374.1000;0.8197;-0.5815;
374.4000;0.8246;-0.5692;
374.7000;0.8205;-0.5840;
375.0000;0.8221;-0.5741;
375.3000;0.8230;-0.5741;
375.6000;0.8287;-0.5518;
375.9000;0.8221;-0.5642;
376.2000;0.8181;-0.5766;
376.5000;0.8173;-0.5716;
376.8000;0.8205;-0.5543;
377.1000;0.8205;-0.5568;
377.4000;0.8205;-0.5494;
377.7000;0.8246;-0.5444;
378.0000;0.8230;-0.5543;
378.3000;0.8213;-0.5667;
378.6000;0.8230;-0.5741;
378.9000;0.8205;-0.5840;
379.2000;0.8213;-0.5865;
379.5000;0.8254;-0.5692;
379.8000;0.8221;-0.5741;
380.1000;0.8221;-0.5766;
380.4000;0.8213;-0.5840;
380.7000;0.8221;-0.5815;
381.0000;0.8205;-0.5791;
381.3000;0.8197;-0.5865;
381.6000;0.8221;-0.5766;
381.9000;0.8262;-0.5692;
382.2000;0.8197;-0.5840;
382.5000;0.8181;-0.5840;
382.8000;0.8213;-0.5766;
383.1000;0.8197;-0.5692;
383.4000;0.8197;-0.5741;
383.7000;0.8181;-0.5815;
384.0000;0.8197;-0.5815;
384.3000;0.8213;-0.5741;
384.6000;0.8205;-0.5716;
384.9000;0.8254;-0.5593;
385.2000;0.8205;-0.5815;
385.5000;0.8254;-0.5741;
385.8000;0.8205;-0.5815;
386.1000;0.8205;-0.5791;
386.4000;0.8189;-0.5815;
386.7000;0.8197;-0.5692;
387.0000;0.8197;-0.5667;
387.3000;0.8189;-0.5840;
387.6000;0.8213;-0.5716;
387.9000;0.8205;-0.5716;
388.2000;0.8205;-0.5716;
388.5000;0.8197;-0.5840;
388.8000;0.8205;-0.5791;
389.1000;0.8205;-0.5815;
389.4000;0.8197;-0.5766;
389.7000;0.8230;-0.5692;
390.0000;0.8197;-0.5667;
390.3000;0.8197;-0.5617;
390.6000;0.8197;-0.5667;
390.9000;0.8205;-0.5568;
391.2000;0.8197;-0.5543;
391.5000;0.8197;-0.5593;
391.8000;0.8189;-0.5617;
392.1000;0.8197;-0.5617;
392.4000;0.8181;-0.5741;
392.7000;0.8181;-0.5815;
393.0000;0.8189;-0.5766;
393.3000;0.8197;-0.5766;
393.6000;0.8189;-0.5791;
393.9000;0.8173;-0.5890;
394.2000;0.8140;-0.6063;
394.5000;0.8213;-0.5791;
394.8000;0.8197;-0.5716;
395.1000;0.8205;-0.5642;
395.4000;0.8189;-0.5667;
395.7000;0.8197;-0.5617;
396.0000;0.8205;-0.5617;
396.3000;0.8189;-0.5716;
396.6000;0.8132;-0.5964;
396.9000;0.8197;-0.5865;
397.2000;0.8254;-0.5667;
397.5000;0.8197;-0.5791;
397.8000;0.8189;-0.5815;
398.1000;0.8197;-0.5741;
398.4000;0.8205;-0.5617;
398.7000;0.8164;-0.5667;
399.0000;0.8181;-0.5593;
399.3000;0.8181;-0.5642;
399.6000;0.8156;-0.5692;
399.9000;0.8205;-0.5593;
400.2000;0.8197;-0.5568;
400.5000;0.8213;-0.5469;
400.8000;0.8205;-0.5469;
401.1000;0.8221;-0.5494;
401.4000;0.8254;-0.5395;
401.7000;0.8189;-0.5667;
402.0000;0.8189;-0.5667;
402.3000;0.8148;-0.5815;
402.6000;0.8156;-0.5840;
402.9000;0.8164;-0.5840;
403.2000;0.8173;-0.5840;
403.5000;0.8205;-0.5741;
403.8000;0.8197;-0.5815;
404.1000;0.8205;-0.5865;
404.4000;0.8189;-0.5766;
404.7000;0.8197;-0.5716;
405.0000;0.8189;-0.5716;
405.3000;0.8213;-0.5692;
405.6000;0.8189;-0.5840;
405.9000;0.8164;-0.5865;
406.2000;0.8124;-0.5914;
406.5000;0.8189;-0.5667;
406.8000;0.8181;-0.5741;
407.1000;0.8083;-0.5890;
407.4000;0.8181;-0.5692;
407.7000;0.8173;-0.5766;
408.0000;0.8181;-0.5815;
408.3000;0.8116;-0.5791;
408.6000;0.8230;-0.5469;
408.9000;0.8181;-0.5593;
409.2000;0.8189;-0.5543;
409.5000;0.8164;-0.5568;
409.8000;0.8197;-0.5617;
410.1000;0.8189;-0.5617;
410.4000;0.8181;-0.5642;
410.7000;0.8197;-0.5617;
411.0000;0.8189;-0.5667;
411.3000;0.8189;-0.5667;
411.6000;0.8173;-0.5716;
411.9000;0.8197;-0.5692;
412.2000;0.8262;-0.5543;
412.5000;0.8181;-0.5741;
412.8000;0.8140;-0.5890;
413.1000;0.8173;-0.5766;
413.4000;0.8213;-0.5716;
413.7000;0.8270;-0.5568;
414.0000;0.8181;-0.5840;
414.3000;0.8270;-0.5692;
414.6000;0.8164;-0.5914;
414.9000;0.8181;-0.5939;
415.2000;0.8213;-0.5865;
415.5000;0.8287;-0.5642;
415.8000;0.8181;-0.5865;
416.1000;0.8197;-0.5815;
416.4000;0.8197;-0.5840;
416.7000;0.8189;-0.5766;
417.0000;0.8181;-0.5692;
417.3000;0.8238;-0.5518;
417.6000;0.8205;-0.5642;
417.9000;0.8181;-0.5716;
418.2000;0.8189;-0.5716;
418.5000;0.8164;-0.5716;
418.8000;0.8164;-0.5617;
419.1000;0.8189;-0.5543;
419.4000;0.8148;-0.5543;
419.7000;0.8173;-0.5543;
420.0000;0.8091;-0.5865;
420.3000;0.8181;-0.5593;
420.6000;0.8213;-0.5518;
420.9000;0.8189;-0.5568;
421.2000;0.8230;-0.5420;
421.5000;0.8221;-0.5370;
421.8000;0.8189;-0.5518;
422.1000;0.8164;-0.5617;
422.4000;0.8181;-0.5568;
422.7000;0.8197;-0.5494;
423.0000;0.8124;-0.5741;
423.3000;0.8213;-0.5469;
423.6000;0.8213;-0.5370;
423.9000;0.8262;-0.5197;
424.2000;0.8189;-0.5395;
424.5000;0.8197;-0.5420;
424.8000;0.8173;-0.5370;
425.1000;0.8197;-0.5469;
425.4000;0.8181;-0.5469;
425.7000;0.8189;-0.5494;
426.0000;0.8173;-0.5494;
426.3000;0.8197;-0.5568;
426.6000;0.8189;-0.5593;
426.9000;0.8173;-0.5716;
427.2000;0.8173;-0.5667;
427.5000;0.8189;-0.5667;
427.8000;0.8189;-0.5642;
428.1000;0.8173;-0.5617;
428.4000;0.8173;-0.5716;
428.7000;0.8124;-0.5840;
429.0000;0.8197;-0.5667;
429.3000;0.8173;-0.5791;
429.6000;0.8197;-0.5667;
429.9000;0.8205;-0.5593;
430.2000;0.8173;-0.5642;
430.5000;0.8181;-0.5593;
430.8000;0.8189;-0.5568;
431.1000;0.8173;-0.5593;
431.4000;0.8189;-0.5692;
431.7000;0.8189;-0.5617;
432.0000;0.8181;-0.5617;
432.3000;0.8181;-0.5617;
432.6000;0.8205;-0.5518;
432.9000;0.8189;-0.5494;
433.2000;0.8189;-0.5469;
433.5000;0.8164;-0.5593;
433.8000;0.8173;-0.5543;
434.1000;0.8189;-0.5494;
434.4000;0.8181;-0.5593;
434.7000;0.8156;-0.5741;
435.0000;0.8189;-0.5815;
435.3000;0.8278;-0.5568;
435.6000;0.8181;-0.5791;
435.9000;0.8156;-0.5865;
436.2000;0.8181;-0.5865;
436.5000;0.8189;-0.5815;
436.8000;0.8156;-0.5890;
437.1000;0.8173;-0.5741;
437.4000;0.8164;-0.5741;
437.7000;0.8181;-0.5692;
438.0000;0.8189;-0.5642;
438.3000;0.8173;-0.5716;
438.6000;0.8189;-0.5716;
438.9000;0.8189;-0.5692;
439.2000;0.8197;-0.5642;
439.5000;0.8181;-0.5617;
439.8000;0.8156;-0.5543;
440.1000;0.8181;-0.5593;
440.4000;0.8189;-0.5642;
440.7000;0.8197;-0.5716;
441.0000;0.8181;-0.5815;
441.3000;0.8181;-0.5815;
441.6000;0.8189;-0.5914;
441.9000;0.8181;-0.5939;
442.2000;0.8181;-0.5914;
442.5000;0.8189;-0.5939;
442.8000;0.8189;-0.5890;
443.1000;0.8181;-0.5914;
443.4000;0.8205;-0.5840;
443.7000;0.8173;-0.5840;
444.0000;0.8173;-0.5791;
444.3000;0.8181;-0.5642;
444.6000;0.8148;-0.5741;
444.9000;0.8148;-0.5766;
445.2000;0.8156;-0.5815;
445.5000;0.8173;-0.5741;
445.8000;0.8173;-0.5815;
446.1000;0.8181;-0.5741;
446.4000;0.8164;-0.5642;
446.7000;0.8181;-0.5642;
447.0000;0.8189;-0.5593;
447.3000;0.8173;-0.5518;
447.6000;0.8181;-0.5568;
447.9000;0.8181;-0.5617;
448.2000;0.8173;-0.5692;
448.5000;0.8173;-0.5667;
448.8000;0.8173;-0.5741;
449.1000;0.8124;-0.5914;
449.4000;0.8173;-0.5890;
449.7000;0.8156;-0.5840;
450.0000;0.8189;-0.5766;
450.3000;0.8205;-0.5815;
450.6000;0.8164;-0.5890;
450.9000;0.8246;-0.5568;
451.2000;0.8164;-0.5741;
451.5000;0.8148;-0.5890;
451.8000;0.8181;-0.5766;
452.1000;0.8181;-0.5791;
452.4000;0.8156;-0.5815;
452.7000;0.8164;-0.5766;
453.0000;0.8156;-0.5840;
453.3000;0.8164;-0.5815;
453.6000;0.8164;-0.5766;
453.9000;0.8164;-0.5865;
454.2000;0.8164;-0.5890;
454.5000;0.8173;-0.5840;
454.8000;0.8164;-0.5791;
455.1000;0.8181;-0.5667;
455.4000;0.8156;-0.5716;
455.7000;0.8148;-0.5716;
456.0000;0.8181;-0.5667;
456.3000;0.8148;-0.5741;
456.6000;0.8156;-0.5840;
456.9000;0.8173;-0.5766;
457.2000;0.8173;-0.5766;
457.5000;0.8181;-0.5692;
457.8000;0.8173;-0.5791;
458.1000;0.8181;-0.5716;
458.4000;0.8132;-0.5791;
458.7000;0.8197;-0.5593;
459.0000;0.8148;-0.5766;
459.3000;0.8107;-0.5989;
459.6000;0.8213;-0.5791;
459.9000;0.8164;-0.5890;
460.2000;0.8173;-0.5989;
460.5000;0.8132;-0.6063;
460.8000;0.8156;-0.5989;
461.1000;0.8173;-0.5914;
461.4000;0.8148;-0.5989;
461.7000;0.8213;-0.5791;
462.0000;0.8173;-0.5791;
462.3000;0.8173;-0.5791;
462.6000;0.8156;-0.5815;
462.9000;0.8181;-0.5716;
463.2000;0.8164;-0.5617;
463.5000;0.8173;-0.5593;
463.8000;0.8173;-0.5617;
464.1000;0.8148;-0.5593;
464.4000;0.8164;-0.5617;
464.7000;0.8181;-0.5494;
465.0000;0.8156;-0.5518;
465.3000;0.8164;-0.5494;
465.6000;0.8156;-0.5518;
465.9000;0.8156;-0.5593;
466.2000;0.8156;-0.5543;
466.5000;0.8140;-0.5667;
466.8000;0.8164;-0.5741;
467.1000;0.8164;-0.5791;
467.4000;0.8181;-0.5766;
467.7000;0.8164;-0.5766;
468.0000;0.8205;-0.5667;
468.3000;0.8173;-0.5791;
468.6000;0.8181;-0.5766;
468.9000;0.8173;-0.5766;
469.2000;0.8140;-0.5815;
469.5000;0.8197;-0.5617;
469.8000;0.8173;-0.5716;
470.1000;0.8173;-0.5692;
470.4000;0.8148;-0.5840;
470.7000;0.8164;-0.5865;
471.0000;0.8156;-0.5840;
471.3000;0.8181;-0.5865;
471.6000;0.8164;-0.5989;
471.9000;0.8189;-0.5865;
472.2000;0.8189;-0.5865;
472.5000;0.8173;-0.5914;
472.8000;0.8181;-0.5865;
473.1000;0.8173;-0.5815;
473.4000;0.8132;-0.5939;
473.7000;0.8173;-0.5741;
474.0000;0.8156;-0.5716;
474.3000;0.8107;-0.5815;
474.6000;0.8173;-0.5667;
474.9000;0.8197;-0.5617;
475.2000;0.8221;-0.5568;
475.5000;0.8213;-0.5642;
475.8000;0.8148;-0.5741;
476.1000;0.8148;-0.5716;
476.4000;0.8156;-0.5692;
476.7000;0.8164;-0.5642;
477.0000;0.8164;-0.5593;
477.3000;0.8156;-0.5617;
477.6000;0.8164;-0.5593;
477.9000;0.8173;-0.5543;
478.2000;0.8213;-0.5494;
478.5000;0.8164;-0.5568;
478.8000;0.8156;-0.5518;
479.1000;0.8164;-0.5494;
479.4000;0.8132;-0.5543;
479.7000;0.8140;-0.5642;
480.0000;0.8148;-0.5667;
480.3000;0.8140;-0.5741;
480.6000;0.8148;-0.5667;
480.9000;0.8140;-0.5741;
481.2000;0.8205;-0.5617;
481.5000;0.8189;-0.5667;
481.8000;0.8173;-0.5716;
482.1000;0.8156;-0.5692;
482.4000;0.8156;-0.5692;
482.7000;0.8173;-0.5568;
483.0000;0.8164;-0.5741;
483.3000;0.8156;-0.5667;
483.6000;0.8132;-0.5692;
483.9000;0.8148;-0.5642;
484.2000;0.8156;-0.5667;
484.5000;0.8213;-0.5568;
484.8000;0.8164;-0.5766;
485.1000;0.8164;-0.5766;
485.4000;0.8124;-0.5791;
485.7000;0.8156;-0.5716;
486.0000;0.8156;-0.5716;
486.3000;0.8148;-0.5791;
486.6000;0.8140;-0.5791;
486.9000;0.8164;-0.5741;
487.2000;0.8132;-0.5865;
487.5000;0.8164;-0.5865;
487.8000;0.8164;-0.5815;
488.1000;0.8148;-0.5766;
488.4000;0.8173;-0.5642;
488.7000;0.8148;-0.5642;
489.0000;0.8164;-0.5617;
489.3000;0.8164;-0.5568;
489.6000;0.8148;-0.5568;
489.9000;0.8156;-0.5642;
490.2000;0.8164;-0.5667;
490.5000;0.8140;-0.5741;
490.8000;0.8164;-0.5692;
491.1000;0.8148;-0.5667;
491.4000;0.8132;-0.5716;
491.7000;0.8148;-0.5617;
492.0000;0.8156;-0.5494;
492.3000;0.8132;-0.5518;
492.6000;0.8034;-0.5815;
492.9000;0.8148;-0.5518;
493.2000;0.8156;-0.5518;
493.5000;0.8156;-0.5593;
493.8000;0.8148;-0.5692;
494.1000;0.8173;-0.5716;
494.4000;0.8238;-0.5568;
494.7000;0.8156;-0.5716;
495.0000;0.8205;-0.5667;
495.3000;0.8148;-0.5741;
495.6000;0.8156;-0.5692;
495.9000;0.8156;-0.5692;
496.2000;0.8213;-0.5395;
496.5000;0.8197;-0.5444;
496.8000;0.8189;-0.5568;
497.1000;0.8148;-0.5692;
497.4000;0.8173;-0.5617;
497.7000;0.8205;-0.5518;
498.0000;0.8156;-0.5741;
498.3000;0.8173;-0.5667;
498.6000;0.8197;-0.5568;
498.9000;0.8156;-0.5716;
499.2000;0.8164;-0.5667;
499.5000;0.8189;-0.5593;
499.8000;0.8140;-0.5692;
500.1000;0.8140;-0.5741;
500.4000;0.8140;-0.5766;
500.7000;0.8132;-0.5766;
501.0000;0.8124;-0.5692;
501.3000;0.8164;-0.5617;
501.6000;0.8140;-0.5716;
501.9000;0.8156;-0.5593;
502.2000;0.8140;-0.5593;
502.5000;0.8173;-0.5667;
502.8000;0.8140;-0.5766;
503.1000;0.8164;-0.5791;
503.4000;0.8173;-0.5840;
503.7000;0.8156;-0.5865;
504.0000;0.8148;-0.5890;
504.3000;0.8164;-0.5791;
504.6000;0.8148;-0.5692;
504.9000;0.8140;-0.5617;
505.2000;0.8132;-0.5568;
505.5000;0.8132;-0.5568;
505.8000;0.8140;-0.5543;
506.1000;0.8140;-0.5518;
506.4000;0.8140;-0.5593;
506.7000;0.8156;-0.5568;
507.0000;0.8156;-0.5642;
507.3000;0.8148;-0.5593;
507.6000;0.8148;-0.5494;
507.9000;0.8164;-0.5444;
508.2000;0.8173;-0.5444;
508.5000;0.8205;-0.5494;
508.8000;0.8156;-0.5518;
509.1000;0.8262;-0.5296;
509.4000;0.8221;-0.5321;
509.7000;0.8173;-0.5420;
510.0000;0.8148;-0.5370;
510.3000;0.8140;-0.5420;
510.6000;0.8148;-0.5469;
510.9000;0.8156;-0.5444;
511.2000;0.8148;-0.5469;
511.5000;0.8148;-0.5543;
511.8000;0.8140;-0.5568;
512.1000;0.8140;-0.5494;
512.4000;0.8156;-0.5494;
512.7000;0.8132;-0.5593;
513.0000;0.8140;-0.5593;
513.3000;0.8156;-0.5568;
513.6000;0.8156;-0.5543;
513.9000;0.8254;-0.5321;
514.2000;0.8148;-0.5642;
514.5000;0.8156;-0.5642;
514.8000;0.8156;-0.5593;
515.1000;0.8156;-0.5593;
515.4000;0.8067;-0.5791;
515.7000;0.8148;-0.5494;
516.0000;0.8148;-0.5518;
516.3000;0.8213;-0.5246;
516.6000;0.8140;-0.5420;
516.9000;0.8132;-0.5469;
517.2000;0.8148;-0.5494;
517.5000;0.8148;-0.5444;
517.8000;0.8148;-0.5395;
518.1000;0.8164;-0.5370;
518.4000;0.8156;-0.5395;
518.7000;0.8132;-0.5593;
519.0000;0.8132;-0.5568;
519.3000;0.8156;-0.5543;
519.6000;0.8164;-0.5518;
519.9000;0.8156;-0.5469;
520.2000;0.8164;-0.5469;
520.5000;0.8132;-0.5593;
520.8000;0.8132;-0.5568;
521.1000;0.8156;-0.5469;
521.4000;0.8148;-0.5494;
521.7000;0.8140;-0.5518;
522.0000;0.8107;-0.5617;
522.3000;0.8156;-0.5395;
522.6000;0.8124;-0.5469;
522.9000;0.8181;-0.5370;
523.2000;0.8156;-0.5420;
523.5000;0.8140;-0.5469;
523.8000;0.8107;-0.5568;
524.1000;0.8156;-0.5444;
524.4000;0.8140;-0.5469;
524.7000;0.8156;-0.5444;
525.0000;0.8156;-0.5518;
525.3000;0.8148;-0.5617;
525.6000;0.8164;-0.5568;
525.9000;0.8132;-0.5667;
526.2000;0.8140;-0.5568;
526.5000;0.8140;-0.5593;
526.8000;0.8148;-0.5642;
527.1000;0.8083;-0.5716;
527.4000;0.8140;-0.5593;
527.7000;0.8148;-0.5494;
528.0000;0.8140;-0.5593;
528.3000;0.8197;-0.5469;
528.6000;0.8099;-0.5815;
528.9000;0.8156;-0.5741;
529.2000;0.8164;-0.5815;
529.5000;0.8132;-0.5791;
529.8000;0.8205;-0.5692;
530.1000;0.8107;-0.5890;
530.4000;0.8140;-0.5766;
530.7000;0.8148;-0.5716;
531.0000;0.8124;-0.5741;
531.3000;0.8099;-0.5890;
531.6000;0.8140;-0.5791;
531.9000;0.8156;-0.5716;
532.2000;0.8205;-0.5642;
532.5000;0.8156;-0.5791;
532.8000;0.8156;-0.5840;
533.1000;0.8181;-0.5815;
533.4000;0.8189;-0.5716;
533.7000;0.8140;-0.5865;
534.0000;0.8124;-0.5840;
534.3000;0.8124;-0.5840;
534.6000;0.8124;-0.5766;
534.9000;0.8164;-0.5667;
535.2000;0.8132;-0.5815;
535.5000;0.8124;-0.5840;
535.8000;0.8124;-0.5791;
536.1000;0.8156;-0.5642;
536.4000;0.8148;-0.5642;
536.7000;0.8132;-0.5667;
537.0000;0.8140;-0.5741;
537.3000;0.8124;-0.5667;
537.6000;0.8132;-0.5692;
537.9000;0.8148;-0.5642;
538.2000;0.8075;-0.5791;
538.5000;0.8124;-0.5692;
538.8000;0.8124;-0.5741;
539.1000;0.8132;-0.5741;
539.4000;0.8148;-0.5741;
539.7000;0.8140;-0.5692;
540.0000;0.8132;-0.5692;
540.3000;0.8148;-0.5593;
540.6000;0.8140;-0.5593;
540.9000;0.8116;-0.5741;
541.2000;0.8124;-0.5741;
541.5000;0.8132;-0.5667;
541.8000;0.8034;-0.6013;
542.1000;0.8124;-0.5716;
542.4000;0.8132;-0.5617;
542.7000;0.8164;-0.5469;
543.0000;0.8140;-0.5617;
543.3000;0.8124;-0.5716;
543.6000;0.8116;-0.5741;
543.9000;0.8148;-0.5716;
544.2000;0.8132;-0.5741;
544.5000;0.8164;-0.5593;
544.8000;0.8164;-0.5593;
545.1000;0.8148;-0.5642;
545.4000;0.8132;-0.5667;
545.7000;0.8140;-0.5692;
546.0000;0.8197;-0.5568;
546.3000;0.8181;-0.5543;
546.6000;0.8140;-0.5667;
546.9000;0.8124;-0.5741;
547.2000;0.8132;-0.5766;
547.5000;0.8238;-0.5518;
547.8000;0.8148;-0.5791;
548.1000;0.8132;-0.5791;
548.4000;0.8132;-0.5791;
548.7000;0.8099;-0.5815;
549.0000;0.8148;-0.5667;
549.3000;0.8140;-0.5716;
549.6000;0.8140;-0.5617;
549.9000;0.8148;-0.5692;
550.2000;0.8156;-0.5692;
550.5000;0.8156;-0.5741;
550.8000;0.8124;-0.5815;
551.1000;0.8099;-0.5815;
551.4000;0.8132;-0.5716;
551.7000;0.8083;-0.5890;
552.0000;0.8132;-0.5716;
552.3000;0.8148;-0.5741;
552.6000;0.8197;-0.5617;
552.9000;0.8148;-0.5791;
553.2000;0.8140;-0.5840;
553.5000;0.8132;-0.5840;
553.8000;0.8197;-0.5692;
554.1000;0.8164;-0.5890;
554.4000;0.8148;-0.5914;
554.7000;0.8099;-0.5964;
555.0000;0.8205;-0.5593;
555.3000;0.8156;-0.5642;
555.6000;0.8189;-0.5642;
555.9000;0.8148;-0.5716;
556.2000;0.8140;-0.5667;
556.5000;0.8148;-0.5741;
556.8000;0.8140;-0.5716;
557.1000;0.8148;-0.5642;
557.4000;0.8124;-0.5667;
557.7000;0.8140;-0.5642;
558.0000;0.8140;-0.5593;
558.3000;0.8164;-0.5617;
558.6000;0.8124;-0.5716;
558.9000;0.8132;-0.5617;
559.2000;0.8116;-0.5518;
559.5000;0.8140;-0.5543;
559.8000;0.8140;-0.5568;
560.1000;0.8132;-0.5518;
560.4000;0.8107;-0.5543;
560.7000;0.8140;-0.5494;
561.0000;0.8124;-0.5494;
561.3000;0.8132;-0.5494;
561.6000;0.8124;-0.5469;
561.9000;0.8124;-0.5617;
562.2000;0.8107;-0.5716;
562.5000;0.8124;-0.5642;
562.8000;0.8124;-0.5667;
563.1000;0.8181;-0.5568;
563.4000;0.8124;-0.5667;
563.7000;0.8116;-0.5667;
564.0000;0.8099;-0.5766;
564.3000;0.8124;-0.5667;
564.6000;0.8124;-0.5766;
564.9000;0.8132;-0.5766;
565.2000;0.8140;-0.5741;
565.5000;0.8116;-0.5716;
565.8000;0.8132;-0.5741;
566.1000;0.8173;-0.5642;
566.4000;0.8132;-0.5667;
566.7000;0.8124;-0.5766;
567.0000;0.8140;-0.5716;
567.3000;0.8213;-0.5518;
567.6000;0.8059;-0.5939;
567.9000;0.8148;-0.5667;
568.2000;0.8156;-0.5642;
568.5000;0.8132;-0.5642;
568.8000;0.8140;-0.5667;
569.1000;0.8132;-0.5692;
569.4000;0.8067;-0.5791;
569.7000;0.8148;-0.5593;
570.0000;0.8140;-0.5543;
570.3000;0.8124;-0.5617;
570.6000;0.8107;-0.5617;
570.9000;0.8124;-0.5469;
571.2000;0.8140;-0.5420;
571.5000;0.8116;-0.5494;
571.8000;0.8124;-0.5395;
572.1000;0.8116;-0.5494;
572.4000;0.8140;-0.5593;
572.7000;0.8140;-0.5642;
573.0000;0.8107;-0.5716;
573.3000;0.8099;-0.5617;
573.6000;0.8140;-0.5617;
573.9000;0.8107;-0.5766;
574.2000;0.8124;-0.5741;
574.5000;0.8148;-0.5692;
574.8000;0.8140;-0.5617;
575.1000;0.8132;-0.5642;
575.4000;0.8067;-0.5815;
575.7000;0.8148;-0.5568;
576.0000;0.8140;-0.5642;
576.3000;0.8181;-0.5568;
576.6000;0.8124;-0.5642;
576.9000;0.8148;-0.5766;
577.2000;0.8140;-0.5766;
577.5000;0.8132;-0.5716;
577.8000;0.8116;-0.5716;
578.1000;0.8116;-0.5667;
578.4000;0.8181;-0.5469;
578.7000;0.8132;-0.5716;
579.0000;0.8124;-0.5716;
579.3000;0.8132;-0.5642;
579.6000;0.8116;-0.5692;
579.9000;0.8140;-0.5568;
580.2000;0.8140;-0.5469;
580.5000;0.8164;-0.5345;
580.8000;0.8140;-0.5494;
581.1000;0.8124;-0.5568;
581.4000;0.8148;-0.5518;
581.7000;0.8107;-0.5568;
582.0000;0.8132;-0.5543;
582.3000;0.8124;-0.5593;
582.6000;0.8124;-0.5593;
582.9000;0.8116;-0.5642;
583.2000;0.8107;-0.5667;
583.5000;0.8107;-0.5642;
583.8000;0.8148;-0.5692;
584.1000;0.8116;-0.5716;
584.4000;0.8116;-0.5766;
584.7000;0.8132;-0.5692;
585.0000;0.8148;-0.5692;
585.3000;0.8132;-0.5741;
585.6000;0.8116;-0.5716;
585.9000;0.8140;-0.5692;
586.2000;0.8132;-0.5716;
586.5000;0.8132;-0.5766;
586.8000;0.8124;-0.5741;
587.1000;0.8132;-0.5741;
587.4000;0.8148;-0.5741;
587.7000;0.8107;-0.5840;
588.0000;0.8124;-0.5840;
588.3000;0.8140;-0.5766;
588.6000;0.8140;-0.5840;
588.9000;0.8140;-0.5815;
589.2000;0.8132;-0.5791;
589.5000;0.8116;-0.5791;
589.8000;0.8124;-0.5815;
590.1000;0.8116;-0.5766;
590.4000;0.8116;-0.5766;
590.7000;0.8173;-0.5667;
591.0000;0.8107;-0.5840;
591.3000;0.8173;-0.5716;
591.6000;0.8124;-0.5865;
591.9000;0.8140;-0.5766;
592.2000;0.8156;-0.5766;
592.5000;0.8124;-0.5791;
592.8000;0.8132;-0.5741;
593.1000;0.8091;-0.5791;
593.4000;0.8091;-0.5791;
593.7000;0.8132;-0.5741;
594.0000;0.8124;-0.5692;
594.3000;0.8124;-0.5716;
594.6000;0.8116;-0.5741;
594.9000;0.8116;-0.5716;
595.2000;0.8124;-0.5766;
595.5000;0.8132;-0.5716;
595.8000;0.8124;-0.5766;
596.1000;0.8132;-0.5791;
596.4000;0.8140;-0.5716;
596.7000;0.8124;-0.5766;
597.0000;0.8140;-0.5815;
597.3000;0.8107;-0.5865;
597.6000;0.8140;-0.5791;
597.9000;0.8124;-0.5815;
598.2000;0.8116;-0.5791;
598.5000;0.8181;-0.5642;
598.8000;0.8124;-0.5766;
599.1000;0.8132;-0.5741;
599.4000;0.8132;-0.5716;
599.7000;0.8140;-0.5642;
600.0000;0.8132;-0.5568;
600.3000;0.8107;-0.5741;
600.6000;0.8026;-0.6038;
600.9000;0.7871;-0.6310;
601.2000;0.7717;-0.6558;
601.5000;0.7521;-0.6805;
601.8000;0.7367;-0.6954;
602.1000;0.7196;-0.7152;
602.4000;0.7041;-0.7424;
602.7000;0.6911;-0.7523;
603.0000;0.6764;-0.7746;
603.3000;0.6650;-0.7944;
603.6000;0.6528;-0.8117;
603.9000;0.6447;-0.8265;
604.2000;0.6349;-0.8414;
604.5000;0.6260;-0.8612;
604.8000;0.6162;-0.8637;
605.1000;0.6097;-0.8686;
605.4000;0.6064;-0.8810;
605.7000;0.5958;-0.8958;
606.0000;0.5910;-0.9082;
606.3000;0.5877;-0.9255;
606.6000;0.5820;-0.9305;
606.9000;0.5771;-0.9280;
607.2000;0.5747;-0.9280;
607.5000;0.5682;-0.9379;
607.8000;0.5641;-0.9428;
608.1000;0.5625;-0.9503;
608.4000;0.5633;-0.9404;
608.7000;0.5535;-0.9527;
609.0000;0.5511;-0.9527;
609.3000;0.5478;-0.9577;
609.6000;0.5429;-0.9626;
609.9000;0.5421;-0.9602;
610.2000;0.5389;-0.9626;
610.5000;0.5381;-0.9626;
610.8000;0.5364;-0.9552;
611.1000;0.5381;-0.9478;
611.4000;0.5299;-0.9775;
611.7000;0.5307;-0.9725;
612.0000;0.5267;-0.9824;
612.3000;0.5234;-0.9725;
612.6000;0.5250;-0.9725;
612.9000;0.5201;-0.9800;
613.2000;0.5210;-0.9775;
613.5000;0.5169;-0.9800;
613.8000;0.5153;-0.9775;
614.1000;0.5144;-0.9750;
614.4000;0.5128;-0.9725;
614.7000;0.5136;-0.9626;
615.0000;0.5079;-0.9800;
615.3000;0.5120;-0.9725;
615.6000;0.5079;-0.9800;
615.9000;0.5055;-0.9824;
616.2000;0.5039;-0.9899;
616.5000;0.5006;-0.9948;
616.8000;0.5031;-0.9874;
617.1000;0.5006;-0.9899;
617.4000;0.4965;-0.9973;
617.7000;0.4974;-0.9948;
618.0000;0.4957;-1.0022;
618.3000;0.4965;-0.9899;
618.6000;0.4949;-0.9948;
618.9000;0.4941;-1.0022;
619.2000;0.4933;-1.0072;
619.5000;0.4925;-1.0022;
619.8000;0.4908;-1.0196;
620.1000;0.4892;-1.0220;
620.4000;0.4884;-1.0171;
620.7000;0.4892;-1.0047;
621.0000;0.4876;-1.0121;
621.3000;0.4868;-1.0121;
621.6000;0.4860;-1.0072;
621.9000;0.4860;-0.9923;
622.2000;0.4851;-1.0022;
622.5000;0.4835;-1.0022;
622.8000;0.4843;-1.0072;
623.1000;0.4835;-1.0047;
623.4000;0.4786;-1.0245;
623.7000;0.4811;-1.0146;
624.0000;0.4811;-1.0171;
624.3000;0.4811;-1.0146;
624.6000;0.4803;-1.0121;
624.9000;0.4786;-1.0097;
625.2000;0.4778;-1.0022;
625.5000;0.4754;-1.0146;
625.8000;0.4778;-1.0196;
626.1000;0.4762;-1.0245;
626.4000;0.4794;-1.0146;
626.7000;0.4762;-1.0196;
627.0000;0.4770;-1.0146;
627.3000;0.4746;-1.0196;
627.6000;0.4770;-1.0121;
627.9000;0.4737;-1.0220;
628.2000;0.4778;-1.0047;
628.5000;0.4729;-1.0220;
628.8000;0.4721;-1.0295;
629.1000;0.4705;-1.0295;
629.4000;0.4713;-1.0245;
629.7000;0.4729;-1.0270;
630.0000;0.4705;-1.0245;
630.3000;0.4697;-1.0245;
630.6000;0.4656;-1.0319;
630.9000;0.4689;-1.0196;
631.2000;0.4697;-1.0097;
631.5000;0.4697;-1.0097;
631.8000;0.4689;-1.0171;
632.1000;0.4689;-1.0121;
632.4000;0.4648;-1.0121;
632.7000;0.4681;-1.0097;
633.0000;0.4672;-1.0196;
633.3000;0.4672;-1.0196;
633.6000;0.4664;-1.0171;
633.9000;0.4656;-1.0196;
634.2000;0.4672;-1.0146;
634.5000;0.4656;-1.0196;
634.8000;0.4656;-1.0196;
635.1000;0.4640;-1.0146;
635.4000;0.4656;-1.0097;
635.7000;0.4607;-1.0196;
636.0000;0.4664;-0.9948;
636.3000;0.4656;-0.9874;
636.6000;0.4624;-0.9948;
636.9000;0.4664;-0.9800;
637.2000;0.4640;-0.9948;
637.5000;0.4640;-0.9948;
637.8000;0.4624;-0.9923;
638.1000;0.4615;-0.9998;
638.4000;0.4672;-0.9824;
638.7000;0.4632;-0.9874;
639.0000;0.4607;-0.9849;
639.3000;0.4607;-0.9874;
639.6000;0.4599;-0.9824;
639.9000;0.4591;-0.9849;
640.2000;0.4567;-0.9973;
640.5000;0.4591;-0.9874;
640.8000;0.4599;-0.9824;
641.1000;0.4575;-0.9824;
641.4000;0.4575;-0.9824;
641.7000;0.4599;-0.9775;
642.0000;0.4591;-0.9849;
642.3000;0.4567;-0.9874;
642.6000;0.4567;-0.9899;
642.9000;0.4558;-0.9923;
643.2000;0.4550;-0.9899;
643.5000;0.4599;-0.9800;
643.8000;0.4567;-0.9849;
644.1000;0.4575;-0.9800;
644.4000;0.4526;-0.9899;
644.7000;0.4575;-0.9849;
645.0000;0.4558;-0.9849;
645.3000;0.4542;-0.9874;
645.6000;0.4542;-0.9998;
645.9000;0.4640;-0.9701;
646.2000;0.4558;-0.9923;
646.5000;0.4550;-0.9948;
646.8000;0.4542;-0.9998;
647.1000;0.4526;-0.9973;
647.4000;0.4542;-1.0047;
647.7000;0.4542;-1.0047;
648.0000;0.4526;-1.0022;
648.3000;0.4542;-0.9973;
648.6000;0.4542;-0.9824;
648.9000;0.4542;-0.9849;
649.2000;0.4526;-0.9899;
649.5000;0.4542;-0.9948;
649.8000;0.4518;-1.0022;
650.1000;0.4518;-1.0121;
650.4000;0.4518;-1.0047;
650.7000;0.4485;-1.0047;
651.0000;0.4501;-1.0097;
651.3000;0.4493;-1.0022;
651.6000;0.4510;-0.9874;
651.9000;0.4485;-0.9923;
652.2000;0.4493;-0.9824;
652.5000;0.4485;-0.9800;
652.8000;0.4485;-0.9725;
653.1000;0.4469;-0.9775;
653.4000;0.4461;-0.9775;
653.7000;0.4477;-0.9725;
654.0000;0.4477;-0.9701;
654.3000;0.4493;-0.9725;
654.6000;0.4469;-0.9701;
654.9000;0.4453;-0.9725;
655.2000;0.4469;-0.9725;
655.5000;0.4436;-0.9874;
655.8000;0.4469;-0.9775;
656.1000;0.4461;-0.9775;
656.4000;0.4461;-0.9849;
656.7000;0.4477;-0.9849;
657.0000;0.4461;-0.9874;
657.3000;0.4412;-0.9998;
657.6000;0.4461;-0.9824;
657.9000;0.4461;-0.9874;
658.2000;0.4526;-0.9725;
658.5000;0.4469;-0.9973;
658.8000;0.4453;-0.9899;
659.1000;0.4469;-0.9923;
659.4000;0.4444;-0.9923;
659.7000;0.4412;-0.9973;
660.0000;0.4461;-0.9874;
660.3000;0.4461;-0.9849;
660.6000;0.4436;-0.9874;
660.9000;0.4396;-0.9998;
661.2000;0.4453;-0.9899;
661.5000;0.4444;-0.9899;
661.8000;0.4444;-0.9973;
662.1000;0.4428;-0.9948;
662.4000;0.4420;-0.9948;
662.7000;0.4387;-1.0022;
663.0000;0.4387;-0.9998;
663.3000;0.4444;-0.9824;
663.6000;0.4420;-0.9824;
663.9000;0.4436;-0.9824;
664.2000;0.4444;-0.9775;
664.5000;0.4436;-0.9923;
664.8000;0.4428;-0.9948;
665.1000;0.4412;-0.9923;
665.4000;0.4420;-0.9824;
665.7000;0.4444;-0.9800;
666.0000;0.4404;-0.9874;
666.3000;0.4396;-0.9899;
666.6000;0.4355;-0.9998;
666.9000;0.4404;-0.9948;
667.2000;0.4444;-0.9923;
667.5000;0.4371;-1.0146;
667.8000;0.4404;-1.0121;
668.1000;0.4363;-1.0220;
668.4000;0.4412;-1.0146;
668.7000;0.4371;-1.0295;
669.0000;0.4379;-1.0270;
669.3000;0.4404;-1.0171;
669.6000;0.4396;-1.0196;
669.9000;0.4387;-1.0295;
670.2000;0.4396;-1.0245;
670.5000;0.4396;-1.0270;
670.8000;0.4379;-1.0245;
671.1000;0.4355;-1.0220;
671.4000;0.4347;-1.0220;
671.7000;0.4412;-0.9998;
672.0000;0.4396;-0.9973;
672.3000;0.4436;-0.9948;
672.6000;0.4371;-1.0047;
672.9000;0.4379;-1.0047;
673.2000;0.4363;-1.0097;
673.5000;0.4371;-1.0121;
673.8000;0.4363;-1.0171;
674.1000;0.4363;-1.0196;
674.4000;0.4339;-1.0146;
674.7000;0.4387;-0.9948;
675.0000;0.4347;-1.0047;
675.3000;0.4330;-1.0196;
675.6000;0.4355;-1.0220;
675.9000;0.4347;-1.0245;
676.2000;0.4355;-1.0171;
676.5000;0.4355;-1.0196;
676.8000;0.4347;-1.0146;
677.1000;0.4347;-1.0072;
677.4000;0.4347;-1.0097;
677.7000;0.4347;-1.0121;
678.0000;0.4339;-1.0220;
678.3000;0.4355;-1.0072;
678.6000;0.4347;-1.0146;
678.9000;0.4355;-1.0146;
679.2000;0.4379;-1.0047;
679.5000;0.4363;-1.0121;
679.8000;0.4396;-1.0121;
680.1000;0.4282;-1.0344;
680.4000;0.4322;-1.0171;
680.7000;0.4371;-1.0022;
681.0000;0.4322;-1.0121;
681.3000;0.4298;-1.0245;
681.6000;0.4347;-1.0146;
681.9000;0.4355;-1.0146;
682.2000;0.4355;-1.0121;
682.5000;0.4306;-1.0245;
682.8000;0.4298;-1.0196;
683.1000;0.4200;-1.0369;
683.4000;0.4314;-1.0047;
683.7000;0.4314;-1.0072;
684.0000;0.4314;-1.0047;
684.3000;0.4314;-1.0022;
684.6000;0.4339;-0.9923;
684.9000;0.4322;-0.9998;
685.2000;0.4322;-0.9998;
685.5000;0.4347;-0.9800;
685.8000;0.4306;-0.9874;
686.1000;0.4306;-0.9874;
686.4000;0.4282;-0.9973;
686.7000;0.4257;-0.9948;
687.0000;0.4306;-0.9899;
687.3000;0.4298;-0.9899;
687.6000;0.4290;-0.9948;
687.9000;0.4298;-0.9948;
688.2000;0.4298;-0.9874;
688.5000;0.4314;-0.9750;
688.8000;0.4322;-0.9750;
689.1000;0.4298;-0.9824;
689.4000;0.4290;-0.9824;
689.7000;0.4298;-0.9849;
690.0000;0.4298;-0.9899;
690.3000;0.4298;-0.9923;
690.6000;0.4298;-1.0072;
690.9000;0.4290;-1.0121;
691.2000;0.4330;-0.9998;
691.5000;0.4290;-1.0220;
691.8000;0.4298;-1.0146;
692.1000;0.4274;-1.0121;
692.4000;0.4298;-1.0072;
692.7000;0.4282;-1.0022;
693.0000;0.4282;-1.0022;
693.3000;0.4290;-1.0047;
693.6000;0.4265;-1.0047;
693.9000;0.4265;-1.0022;
694.2000;0.4257;-0.9998;
694.5000;0.4274;-1.0047;
694.8000;0.4282;-0.9923;
695.1000;0.4282;-0.9998;
695.4000;0.4257;-1.0072;
695.7000;0.4298;-0.9948;
696.0000;0.4265;-0.9998;
696.3000;0.4274;-0.9998;
696.6000;0.4257;-0.9948;
696.9000;0.4306;-0.9874;
697.2000;0.4265;-1.0022;
697.5000;0.4184;-1.0295;
697.8000;0.4249;-1.0097;
698.1000;0.4257;-1.0121;
698.4000;0.4265;-1.0047;
698.7000;0.4257;-1.0022;
699.0000;0.4241;-1.0022;
699.3000;0.4241;-1.0072;
699.6000;0.4306;-0.9899;
699.9000;0.4241;-1.0146;
700.2000;0.4257;-0.9973;
700.5000;0.4208;-1.0121;
700.8000;0.4233;-1.0047;
701.1000;0.4257;-1.0047;
701.4000;0.4225;-1.0121;
701.7000;0.4249;-1.0072;
702.0000;0.4249;-1.0121;
702.3000;0.4241;-1.0097;
702.6000;0.4233;-1.0072;
702.9000;0.4233;-1.0097;
703.2000;0.4249;-0.9998;
703.5000;0.4241;-0.9899;
703.8000;0.4249;-0.9899;
704.1000;0.4184;-1.0072;
704.4000;0.4233;-1.0047;
704.7000;0.4249;-0.9948;
705.0000;0.4257;-0.9998;
705.3000;0.4257;-1.0047;
705.6000;0.4306;-0.9874;
705.9000;0.4249;-0.9973;
706.2000;0.4249;-0.9899;
706.5000;0.4265;-0.9899;
706.8000;0.4208;-1.0097;
707.1000;0.4200;-1.0072;
707.4000;0.4233;-0.9973;
707.7000;0.4241;-0.9923;
708.0000;0.4233;-0.9923;
708.3000;0.4233;-0.9948;
708.6000;0.4233;-0.9874;
708.9000;0.4225;-0.9849;
709.2000;0.4225;-0.9899;
709.5000;0.4241;-0.9923;
709.8000;0.4233;-0.9899;
710.1000;0.4241;-0.9874;
710.4000;0.4233;-1.0022;
710.7000;0.4217;-1.0097;
711.0000;0.4217;-0.9998;
711.3000;0.4225;-0.9948;
711.6000;0.4225;-0.9874;
711.9000;0.4225;-0.9973;
712.2000;0.4225;-0.9923;
712.5000;0.4225;-0.9948;
712.8000;0.4208;-0.9998;
713.1000;0.4225;-0.9948;
713.4000;0.4217;-0.9998;
713.7000;0.4217;-0.9998;
714.0000;0.4233;-0.9874;
714.3000;0.4184;-0.9948;
714.6000;0.4184;-0.9923;
714.9000;0.4225;-0.9874;
715.2000;0.4225;-0.9824;
715.5000;0.4217;-0.9923;
715.8000;0.4208;-0.9899;
716.1000;0.4225;-0.9923;
716.4000;0.4225;-0.9874;
716.7000;0.4225;-0.9948;
717.0000;0.4200;-0.9973;
717.3000;0.4176;-1.0022;
717.6000;0.4192;-1.0022;
717.9000;0.4208;-0.9948;
718.2000;0.4208;-0.9800;
718.5000;0.4135;-0.9973;
718.8000;0.4200;-0.9948;
719.1000;0.4200;-0.9849;
719.4000;0.4192;-0.9849;
719.7000;0.4200;-0.9874;
720.0000;0.4208;-0.9824;
720.3000;0.4217;-0.9824;
720.6000;0.4184;-0.9923;
720.9000;0.4208;-0.9923;
721.2000;0.4200;-0.9923;
721.5000;0.4217;-0.9948;
721.8000;0.4200;-0.9948;
722.1000;0.4192;-1.0022;
722.4000;0.4208;-0.9824;
722.7000;0.4192;-0.9899;
723.0000;0.4200;-0.9899;
723.3000;0.4168;-0.9948;
723.6000;0.4225;-0.9750;
723.9000;0.4192;-0.9824;
724.2000;0.4176;-0.9874;
724.5000;0.4208;-0.9800;
724.8000;0.4160;-0.9899;
725.1000;0.4192;-0.9948;
725.4000;0.4135;-1.0121;
725.7000;0.4184;-1.0097;
726.0000;0.4184;-1.0072;
726.3000;0.4176;-1.0072;
726.6000;0.4233;-0.9998;
726.9000;0.4176;-1.0097;
727.2000;0.4168;-1.0072;
727.5000;0.4176;-1.0047;
727.8000;0.4176;-1.0146;
728.1000;0.4160;-1.0245;
728.4000;0.4176;-1.0121;
728.7000;0.4176;-1.0047;
729.0000;0.4176;-0.9948;
729.3000;0.4208;-0.9973;
729.6000;0.4200;-1.0022;
729.9000;0.4176;-1.0072;
730.2000;0.4127;-1.0146;
730.5000;0.4168;-1.0022;
730.8000;0.4168;-0.9973;
731.1000;0.4176;-0.9973;
731.4000;0.4192;-1.0022;
731.7000;0.4143;-1.0245;
732.0000;0.4192;-1.0047;
732.3000;0.4168;-1.0146;
732.6000;0.4160;-1.0146;
732.9000;0.4151;-0.9998;
733.2000;0.4119;-1.0097;
733.5000;0.4160;-0.9973;
733.8000;0.4127;-1.0097;
734.1000;0.4119;-1.0097;
734.4000;0.4184;-0.9973;
734.7000;0.4160;-1.0072;
735.0000;0.4176;-1.0047;
735.3000;0.4176;-1.0097;
735.6000;0.4176;-1.0097;
735.9000;0.4168;-1.0097;
736.2000;0.4176;-0.9998;
736.5000;0.4160;-1.0072;
736.8000;0.4151;-1.0097;
737.1000;0.4192;-1.0022;
737.4000;0.4160;-1.0072;
737.7000;0.4176;-1.0022;
738.0000;0.4135;-1.0072;
738.3000;0.4151;-0.9899;
738.6000;0.4143;-0.9923;
738.9000;0.4151;-1.0047;
739.2000;0.4151;-0.9973;
739.5000;0.4184;-0.9899;
739.8000;0.4160;-0.9973;
740.1000;0.4151;-0.9998;
740.4000;0.4151;-1.0022;
740.7000;0.4151;-0.9998;
741.0000;0.4160;-1.0072;
741.3000;0.4086;-1.0220;
741.6000;0.4160;-1.0072;
741.9000;0.4160;-0.9998;
742.2000;0.4143;-0.9923;
742.5000;0.4143;-0.9824;
742.8000;0.4143;-0.9800;
743.1000;0.4127;-0.9824;
743.4000;0.4160;-0.9750;
743.7000;0.4135;-0.9849;
744.0000;0.4135;-0.9849;
744.3000;0.4119;-0.9899;
744.6000;0.4143;-0.9775;
744.9000;0.4143;-0.9849;
745.2000;0.4119;-0.9998;
745.5000;0.4160;-0.9948;
745.8000;0.4143;-0.9874;
746.1000;0.4135;-0.9824;
746.4000;0.4143;-0.9874;
746.7000;0.4143;-0.9824;
747.0000;0.4160;-0.9775;
747.3000;0.4168;-0.9651;
747.6000;0.4127;-0.9750;
747.9000;0.4119;-0.9824;
748.2000;0.4103;-0.9899;
748.5000;0.4119;-0.9998;
748.8000;0.4151;-0.9973;
749.1000;0.4160;-1.0022;
749.4000;0.4135;-1.0022;
749.7000;0.4135;-0.9948;
750.0000;0.4119;-0.9948;
750.3000;0.4143;-0.9775;
750.6000;0.4127;-0.9775;
750.9000;0.4143;-0.9725;
751.2000;0.4135;-0.9602;
751.5000;0.4127;-0.9552;
751.8000;0.4127;-0.9552;
752.1000;0.4119;-0.9527;
752.4000;0.4135;-0.9577;
752.7000;0.4094;-0.9602;
753.0000;0.4119;-0.9503;
753.3000;0.4143;-0.9503;
753.6000;0.4135;-0.9676;
753.9000;0.4127;-0.9775;
754.2000;0.4135;-0.9775;
754.5000;0.4127;-0.9849;
754.8000;0.4135;-0.9775;
755.1000;0.4127;-0.9899;
755.4000;0.4111;-0.9874;
755.7000;0.4046;-0.9998;
756.0000;0.4151;-0.9750;
756.3000;0.4127;-0.9775;
756.6000;0.4119;-0.9750;
756.9000;0.4119;-0.9750;
757.2000;0.4103;-0.9824;
757.5000;0.4143;-0.9651;
757.8000;0.4103;-0.9725;
758.1000;0.4111;-0.9676;
758.4000;0.4160;-0.9503;
758.7000;0.4143;-0.9602;
759.0000;0.4111;-0.9701;
759.3000;0.4103;-0.9750;
759.6000;0.4119;-0.9750;
759.9000;0.4103;-0.9824;
760.2000;0.4062;-1.0022;
760.5000;0.4127;-0.9874;
760.8000;0.4119;-0.9849;
761.1000;0.4119;-0.9824;
761.4000;0.4111;-0.9775;
761.7000;0.4086;-0.9775;
762.0000;0.4094;-0.9923;
762.3000;0.4094;-0.9948;
762.6000;0.4111;-0.9874;
762.9000;0.4078;-0.9973;
763.2000;0.4160;-0.9750;
763.5000;0.4111;-0.9775;
763.8000;0.4111;-0.9750;
764.1000;0.4094;-0.9725;
764.4000;0.4037;-0.9874;
764.7000;0.4103;-0.9800;
765.0000;0.4103;-0.9849;
765.3000;0.4103;-0.9874;
765.6000;0.4103;-0.9849;
765.9000;0.4094;-0.9998;
766.2000;0.4119;-0.9849;
766.5000;0.4103;-0.9824;
766.8000;0.4086;-0.9948;
767.1000;0.4111;-0.9899;
767.4000;0.4094;-0.9824;
767.7000;0.4078;-0.9701;
768.0000;0.4094;-0.9701;
768.3000;0.4086;-0.9701;
768.6000;0.4086;-0.9725;
768.9000;0.4111;-0.9701;
769.2000;0.4086;-0.9775;
769.5000;0.4078;-0.9800;
769.8000;0.4094;-0.9800;
770.1000;0.4111;-0.9725;
770.4000;0.4094;-0.9775;
770.7000;0.4111;-0.9626;
771.0000;0.4086;-0.9602;
771.3000;0.4094;-0.9651;
771.6000;0.4086;-0.9651;
771.9000;0.4062;-0.9676;
772.2000;0.4094;-0.9676;
772.5000;0.4078;-0.9725;
772.8000;0.4094;-0.9651;
773.1000;0.4119;-0.9602;
773.4000;0.4168;-0.9478;
773.7000;0.4127;-0.9577;
774.0000;0.4078;-0.9725;
774.3000;0.4070;-0.9750;
774.6000;0.4086;-0.9676;
774.9000;0.4094;-0.9750;
775.2000;0.4119;-0.9676;
775.5000;0.4111;-0.9725;
775.8000;0.4119;-0.9800;
776.1000;0.4111;-0.9775;
776.4000;0.4127;-0.9750;
776.7000;0.4078;-0.9874;
777.0000;0.4094;-0.9800;
777.3000;0.4103;-0.9800;
777.6000;0.4078;-0.9849;
777.9000;0.4103;-0.9775;
778.2000;0.4078;-0.9750;
778.5000;0.4086;-0.9676;
778.8000;0.4086;-0.9750;
779.1000;0.4103;-0.9775;
779.4000;0.4094;-0.9824;
779.7000;0.4037;-0.9923;
780.0000;0.4070;-0.9874;
780.3000;0.4103;-0.9750;
780.6000;0.4168;-0.9552;
780.9000;0.4135;-0.9552;
781.2000;0.4103;-0.9651;
781.5000;0.4103;-0.9626;
781.8000;0.4086;-0.9701;
782.1000;0.4127;-0.9651;
782.4000;0.4070;-0.9775;
782.7000;0.4086;-0.9725;
783.0000;0.4070;-0.9701;
783.3000;0.4070;-0.9701;
783.6000;0.4070;-0.9701;
783.9000;0.4070;-0.9750;
784.2000;0.4078;-0.9725;
784.5000;0.4070;-0.9750;
784.8000;0.4086;-0.9750;
785.1000;0.4070;-0.9800;
785.4000;0.4062;-0.9800;
785.7000;0.4078;-0.9676;
786.0000;0.4078;-0.9775;
786.3000;0.4078;-0.9701;
786.6000;0.4078;-0.9750;
786.9000;0.4078;-0.9775;
787.2000;0.4062;-0.9775;
787.5000;0.3948;-1.0022;
787.8000;0.4062;-0.9701;
788.1000;0.4062;-0.9750;
788.4000;0.4054;-0.9899;
788.7000;0.4094;-0.9824;
789.0000;0.4070;-0.9849;
789.3000;0.4078;-0.9750;
789.6000;0.4054;-0.9750;
789.9000;0.4062;-0.9725;
790.2000;0.4062;-0.9725;
790.5000;0.4078;-0.9676;
790.8000;0.4111;-0.9651;
791.1000;0.4062;-0.9824;
791.4000;0.4062;-0.9725;
791.7000;0.4054;-0.9676;
792.0000;0.4078;-0.9701;
792.3000;0.4062;-0.9800;
792.6000;0.3989;-0.9998;
792.9000;0.4037;-0.9849;
793.2000;0.4070;-0.9800;
793.5000;0.4046;-0.9849;
793.8000;0.4037;-0.9874;
794.1000;0.4070;-0.9874;
794.4000;0.4054;-0.9800;
794.7000;0.3964;-0.9973;
795.0000;0.4037;-0.9824;
795.3000;0.4046;-0.9775;
795.6000;0.3923;-1.0022;
795.9000;0.4054;-0.9676;
796.2000;0.4151;-0.9453;
796.5000;0.4037;-0.9676;
796.8000;0.4054;-0.9651;
797.1000;0.4054;-0.9626;
797.4000;0.4037;-0.9626;
797.7000;0.4054;-0.9651;
798.0000;0.4054;-0.9701;
798.3000;0.4054;-0.9750;
798.6000;0.4029;-0.9923;
798.9000;0.4046;-0.9899;
799.2000;0.4029;-0.9923;
799.5000;0.4013;-0.9973;
799.8000;0.4062;-0.9849;
800.1000;0.4021;-0.9923;
800.4000;0.4086;-0.9775;
800.7000;0.4046;-0.9824;
801.0000;0.4070;-0.9849;
801.3000;0.4054;-0.9824;
801.6000;0.4054;-0.9800;
801.9000;0.4070;-0.9676;
802.2000;0.4119;-0.9527;
802.5000;0.4062;-0.9676;
802.8000;0.4046;-0.9701;
803.1000;0.4054;-0.9651;
803.4000;0.4046;-0.9725;
803.7000;0.4021;-0.9775;
804.0000;0.4046;-0.9725;
804.3000;0.4054;-0.9800;
804.6000;0.4029;-0.9899;
804.9000;0.4046;-0.9899;
805.2000;0.4029;-0.9923;
805.5000;0.4054;-0.9874;
805.8000;0.4046;-0.9800;
806.1000;0.4037;-0.9775;
806.4000;0.4029;-0.9775;
806.7000;0.4046;-0.9824;
807.0000;0.4037;-0.9874;
807.3000;0.4062;-0.9824;
807.6000;0.4046;-0.9874;
807.9000;0.4062;-0.9874;
808.2000;0.4029;-0.9874;
808.5000;0.4013;-0.9874;
808.8000;0.4005;-0.9874;
809.1000;0.4046;-0.9750;
809.4000;0.4046;-0.9725;
809.7000;0.4062;-0.9775;
810.0000;0.4029;-0.9849;
810.3000;0.4029;-0.9899;
810.6000;0.4013;-0.9923;
810.9000;0.4054;-0.9824;
811.2000;0.4029;-0.9874;
811.5000;0.4029;-0.9874;
811.8000;0.4029;-0.9775;
812.1000;0.4054;-0.9800;
812.4000;0.4054;-0.9874;
812.7000;0.4021;-0.9899;
813.0000;0.4029;-0.9923;
813.3000;0.4037;-0.9948;
813.6000;0.4029;-0.9923;
813.9000;0.4029;-0.9874;
814.2000;0.4046;-0.9849;
814.5000;0.4054;-0.9874;
814.8000;0.4037;-0.9899;
815.1000;0.4029;-0.9824;
815.4000;0.4021;-0.9824;
815.7000;0.4013;-0.9800;
816.0000;0.4037;-0.9676;
816.3000;0.4046;-0.9651;
816.6000;0.4054;-0.9651;
816.9000;0.3980;-0.9874;
817.2000;0.4021;-0.9849;
817.5000;0.4037;-0.9973;
817.8000;0.4021;-1.0047;
818.1000;0.4013;-1.0022;
818.4000;0.4029;-1.0047;
818.7000;0.4054;-0.9973;
819.0000;0.4029;-0.9948;
819.3000;0.4029;-0.9998;
819.6000;0.3997;-0.9998;
819.9000;0.4029;-1.0047;
820.2000;0.4013;-1.0097;
820.5000;0.4021;-1.0072;
820.8000;0.4013;-1.0097;
821.1000;0.3989;-1.0196;
821.4000;0.4029;-1.0171;
821.7000;0.4021;-1.0072;
822.0000;0.4005;-1.0022;
822.3000;0.4021;-0.9973;
822.6000;0.4046;-0.9948;
822.9000;0.4029;-1.0022;
823.2000;0.3980;-1.0171;
823.5000;0.4037;-0.9998;
823.8000;0.4037;-1.0047;
824.1000;0.3940;-1.0295;
824.4000;0.4021;-1.0047;
824.7000;0.4029;-1.0022;
825.0000;0.4013;-0.9948;
825.3000;0.4021;-0.9948;
825.6000;0.4021;-0.9973;
825.9000;0.4005;-0.9899;
826.2000;0.4029;-0.9849;
826.5000;0.4013;-0.9923;
826.8000;0.4021;-0.9874;
827.1000;0.4029;-0.9874;
827.4000;0.4013;-0.9874;
827.7000;0.4013;-0.9923;
828.0000;0.4037;-0.9923;
828.3000;0.4046;-0.9849;
828.6000;0.4029;-0.9800;
828.9000;0.4029;-0.9849;
829.2000;0.3907;-1.0171;
829.5000;0.4013;-0.9874;
829.8000;0.4021;-0.9874;
830.1000;0.4021;-0.9824;
830.4000;0.4046;-0.9676;
830.7000;0.4029;-0.9651;
831.0000;0.4005;-0.9676;
831.3000;0.4046;-0.9676;
831.6000;0.4021;-0.9775;
831.9000;0.4054;-0.9701;
832.2000;0.4021;-0.9750;
832.5000;0.4046;-0.9750;
832.8000;0.4029;-0.9874;
833.1000;0.4005;-0.9948;
833.4000;0.4013;-0.9948;
833.7000;0.4029;-0.9923;
834.0000;0.4029;-0.9874;
834.3000;0.3989;-0.9923;
834.6000;0.4013;-0.9824;
834.9000;0.3997;-0.9750;
835.2000;0.3980;-0.9725;
835.5000;0.4046;-0.9602;
835.8000;0.3997;-0.9849;
836.1000;0.4005;-0.9824;
836.4000;0.4037;-0.9725;
836.7000;0.3980;-0.9824;
837.0000;0.3989;-0.9775;
837.3000;0.4005;-0.9651;
837.6000;0.4029;-0.9651;
837.9000;0.4005;-0.9701;
838.2000;0.3997;-0.9725;
838.5000;0.4013;-0.9701;
838.8000;0.4029;-0.9701;
839.1000;0.4005;-0.9701;
839.4000;0.4021;-0.9701;
839.7000;0.3964;-0.9750;
840.0000;0.4013;-0.9602;
840.3000;0.4005;-0.9527;
840.6000;0.4029;-0.9478;
840.9000;0.3989;-0.9527;
841.2000;0.4005;-0.9527;
841.5000;0.3989;-0.9577;
841.8000;0.4013;-0.9651;
842.1000;0.3956;-0.9701;
842.4000;0.3980;-0.9676;
842.7000;0.3989;-0.9701;
843.0000;0.3997;-0.9725;
843.3000;0.4029;-0.9651;
843.6000;0.4046;-0.9602;
843.9000;0.3972;-0.9676;
844.2000;0.3997;-0.9577;
844.5000;0.3989;-0.9676;
844.8000;0.3989;-0.9725;
845.1000;0.3997;-0.9725;
845.4000;0.3972;-0.9800;
845.7000;0.3997;-0.9651;
846.0000;0.3989;-0.9676;
846.3000;0.4005;-0.9676;
846.6000;0.4005;-0.9676;
846.9000;0.3989;-0.9800;
847.2000;0.4094;-0.9626;
847.5000;0.4005;-0.9849;
847.8000;0.4005;-0.9948;
848.1000;0.4005;-0.9899;
848.4000;0.4013;-1.0072;
848.7000;0.3997;-0.9973;
849.0000;0.3972;-0.9923;
849.3000;0.3997;-0.9899;
849.6000;0.3980;-0.9923;
849.9000;0.3997;-0.9775;
850.2000;0.3997;-0.9800;
850.5000;0.4005;-0.9701;
850.8000;0.3989;-0.9676;
851.1000;0.3997;-0.9676;
851.4000;0.4013;-0.9602;
851.7000;0.4013;-0.9404;
852.0000;0.3948;-0.9577;
852.3000;0.3989;-0.9428;
852.6000;0.3997;-0.9428;
852.9000;0.3972;-0.9552;
853.2000;0.4078;-0.9329;
853.5000;0.3932;-0.9725;
853.8000;0.4005;-0.9527;
854.1000;0.3915;-0.9676;
854.4000;0.4029;-0.9354;
854.7000;0.3997;-0.9478;
855.0000;0.3964;-0.9577;
855.3000;0.3980;-0.9626;
855.6000;0.3980;-0.9602;
855.9000;0.3980;-0.9577;
856.2000;0.3989;-0.9626;
856.5000;0.4054;-0.9503;
856.8000;0.3972;-0.9602;
857.1000;0.4005;-0.9503;
857.4000;0.3972;-0.9651;
857.7000;0.3980;-0.9602;
858.0000;0.3989;-0.9552;
858.3000;0.4013;-0.9453;
858.6000;0.3997;-0.9527;
858.9000;0.4005;-0.9503;
859.2000;0.3989;-0.9552;
859.5000;0.3997;-0.9503;
859.8000;0.3989;-0.9676;
860.1000;0.3989;-0.9750;
860.4000;0.3980;-0.9775;
860.7000;0.4005;-0.9775;
861.0000;0.3997;-0.9750;
861.3000;0.3972;-0.9750;
861.6000;0.3964;-0.9725;
861.9000;0.3948;-0.9676;
862.2000;0.3980;-0.9577;
862.5000;0.3989;-0.9676;
862.8000;0.3980;-0.9824;
863.1000;0.4005;-0.9701;
863.4000;0.3989;-0.9775;
863.7000;0.3980;-0.9800;
864.0000;0.3980;-0.9775;
864.3000;0.3972;-0.9725;
864.6000;0.3980;-0.9701;
864.9000;0.3972;-0.9651;
865.2000;0.3915;-0.9775;
865.5000;0.3997;-0.9602;
865.8000;0.3964;-0.9676;
866.1000;0.3980;-0.9577;
866.4000;0.3940;-0.9676;
866.7000;0.3980;-0.9651;
867.0000;0.3964;-0.9676;
867.3000;0.3956;-0.9775;
867.6000;0.3989;-0.9725;
867.9000;0.3980;-0.9676;
868.2000;0.3980;-0.9676;
868.5000;0.3989;-0.9626;
868.8000;0.3948;-0.9651;
869.1000;0.3948;-0.9750;
869.4000;0.3989;-0.9676;
869.7000;0.3989;-0.9577;
870.0000;0.4005;-0.9552;
870.3000;0.4013;-0.9503;
870.6000;0.3932;-0.9824;
870.9000;0.3980;-0.9651;
871.2000;0.3964;-0.9701;
871.5000;0.3989;-0.9725;
871.8000;0.4005;-0.9725;
872.1000;0.3980;-0.9800;
872.4000;0.3989;-0.9800;
872.7000;0.3964;-0.9874;
873.0000;0.3980;-0.9800;
873.3000;0.3915;-0.9874;
873.6000;0.3997;-0.9651;
873.9000;0.3989;-0.9527;
874.2000;0.3956;-0.9552;
874.5000;0.3989;-0.9478;
874.8000;0.3915;-0.9626;
875.1000;0.3997;-0.9527;
875.4000;0.3964;-0.9626;
875.7000;0.3980;-0.9701;
876.0000;0.3997;-0.9626;
876.3000;0.3997;-0.9725;
876.6000;0.3989;-0.9725;
876.9000;0.3989;-0.9750;
877.2000;0.3964;-0.9775;
877.5000;0.4005;-0.9725;
877.8000;0.3980;-0.9750;
878.1000;0.3923;-0.9824;
878.4000;0.3989;-0.9577;
878.7000;0.3989;-0.9676;
879.0000;0.4078;-0.9404;
879.3000;0.3972;-0.9750;
879.6000;0.3972;-0.9651;
879.9000;0.4062;-0.9453;
880.2000;0.3980;-0.9676;
880.5000;0.3980;-0.9725;
880.8000;0.3997;-0.9775;
881.1000;0.3989;-0.9701;
881.4000;0.3948;-0.9750;
881.7000;0.3997;-0.9676;
882.0000;0.3989;-0.9725;
882.3000;0.3972;-0.9750;
882.6000;0.3980;-0.9725;
882.9000;0.3964;-0.9775;
883.2000;0.3972;-0.9725;
883.5000;0.3980;-0.9701;
883.8000;0.3972;-0.9775;
884.1000;0.3907;-1.0022;
884.4000;0.3980;-0.9899;
884.7000;0.3972;-0.9775;
885.0000;0.3972;-0.9750;
885.3000;0.3932;-0.9849;
885.6000;0.3972;-0.9750;
885.9000;0.3875;-1.0022;
886.2000;0.3980;-0.9701;
886.5000;0.4054;-0.9478;
886.8000;0.3980;-0.9701;
887.1000;0.3980;-0.9750;
887.4000;0.3972;-0.9651;
887.7000;0.3956;-0.9651;
888.0000;0.3964;-0.9651;
888.3000;0.3989;-0.9577;
888.6000;0.4062;-0.9305;
888.9000;0.3964;-0.9725;
889.2000;0.3997;-0.9701;
889.5000;0.3964;-0.9775;
889.8000;0.3964;-0.9800;
890.1000;0.3989;-0.9725;
890.4000;0.3989;-0.9750;
890.7000;0.3972;-0.9725;
891.0000;0.3858;-0.9973;
891.3000;0.3989;-0.9626;
891.6000;0.3997;-0.9701;
891.9000;0.3964;-0.9725;
892.2000;0.3972;-0.9701;
892.5000;0.3956;-0.9750;
892.8000;0.3997;-0.9651;
893.1000;0.3980;-0.9750;
893.4000;0.3972;-0.9725;
893.7000;0.3989;-0.9577;
894.0000;0.3956;-0.9701;
894.3000;0.3997;-0.9701;
894.6000;0.4005;-0.9701;
894.9000;0.3940;-0.9899;
895.2000;0.3972;-0.9849;
895.5000;0.3964;-0.9701;
895.8000;0.3923;-0.9800;
896.1000;0.3980;-0.9676;
896.4000;0.3964;-0.9701;
896.7000;0.3932;-0.9800;
897.0000;0.3948;-0.9800;
897.3000;0.3972;-0.9824;
897.6000;0.3972;-0.9775;
897.9000;0.3948;-0.9775;
898.2000;0.3972;-0.9701;
898.5000;0.3956;-0.9701;
898.8000;0.3964;-0.9750;
899.1000;0.3972;-0.9725;
899.4000;0.3964;-0.9775;
899.7000;0.3972;-0.9676;
900.0000;0.3867;-0.9948;
900.3000;0.3923;-0.9800;
900.6000;0.3972;-0.9676;
900.9000;0.3972;-0.9725;
901.2000;0.3964;-0.9775;
901.5000;0.3972;-0.9800;
901.8000;0.3948;-0.9824;
902.1000;0.3980;-0.9651;
902.4000;0.3964;-0.9577;
902.7000;0.3972;-0.9527;
903.0000;0.3964;-0.9453;
903.3000;0.3948;-0.9478;
903.6000;0.3956;-0.9478;
903.9000;0.3972;-0.9527;
904.2000;0.3964;-0.9503;
904.5000;0.3989;-0.9602;
904.8000;0.3964;-0.9651;
905.1000;0.3964;-0.9651;
905.4000;0.4013;-0.9503;
905.7000;0.3964;-0.9626;
906.0000;0.3972;-0.9577;
906.3000;0.3964;-0.9503;
906.6000;0.3940;-0.9503;
906.9000;0.3972;-0.9453;
907.2000;0.3948;-0.9552;
907.5000;0.3948;-0.9602;
907.8000;0.3932;-0.9701;
908.1000;0.3932;-0.9701;
908.4000;0.3932;-0.9701;
908.7000;0.3948;-0.9602;
909.0000;0.3923;-0.9676;
909.3000;0.3964;-0.9676;
909.6000;0.3948;-0.9775;
909.9000;0.3980;-0.9676;
910.2000;0.3948;-0.9750;
910.5000;0.3989;-0.9701;
910.8000;0.3964;-0.9874;
911.1000;0.3899;-0.9973;
911.4000;0.3932;-0.9849;
911.7000;0.3940;-0.9800;
912.0000;0.3989;-0.9725;
912.3000;0.3956;-0.9676;
912.6000;0.3956;-0.9626;
912.9000;0.3915;-0.9651;
913.2000;0.4021;-0.9478;
913.5000;0.3932;-0.9725;
913.8000;0.3940;-0.9800;
914.1000;0.3932;-0.9750;
914.4000;0.3948;-0.9651;
914.7000;0.3923;-0.9750;
915.0000;0.3948;-0.9701;
915.3000;0.3948;-0.9750;
915.6000;0.3956;-0.9701;
915.9000;0.3964;-0.9626;
916.2000;0.3948;-0.9676;
916.5000;0.3948;-0.9725;
916.8000;0.3956;-0.9701;
917.1000;0.3972;-0.9602;
917.4000;0.3940;-0.9651;
917.7000;0.3932;-0.9725;
918.0000;0.3964;-0.9577;
918.3000;0.3940;-0.9676;
918.6000;0.3956;-0.9602;
918.9000;0.3948;-0.9701;
919.2000;0.3948;-0.9750;
919.5000;0.3948;-0.9849;
919.8000;0.3972;-0.9750;
920.1000;0.3956;-0.9750;
920.4000;0.3980;-0.9651;
920.7000;0.3940;-0.9676;
921.0000;0.3980;-0.9602;
921.3000;0.3972;-0.9626;
921.6000;0.3956;-0.9602;
921.9000;0.4013;-0.9428;
922.2000;0.3956;-0.9676;
922.5000;0.3940;-0.9824;
922.8000;0.3948;-0.9849;
923.1000;0.3948;-0.9824;
923.4000;0.3956;-0.9800;
923.7000;0.3948;-0.9800;
924.0000;0.3956;-0.9725;
924.3000;0.3948;-0.9775;
924.6000;0.3940;-0.9800;
924.9000;0.3956;-0.9701;
925.2000;0.3940;-0.9676;
925.5000;0.3964;-0.9676;
925.8000;0.3964;-0.9503;
926.1000;0.3972;-0.9503;
926.4000;0.3956;-0.9527;
926.7000;0.3948;-0.9552;
927.0000;0.3956;-0.9577;
927.3000;0.3858;-0.9824;
927.6000;0.3956;-0.9651;
927.9000;0.3940;-0.9651;
928.2000;0.3948;-0.9602;
928.5000;0.3964;-0.9527;
928.8000;0.3948;-0.9527;
929.1000;0.3932;-0.9577;
929.4000;0.3940;-0.9651;
929.7000;0.3948;-0.9626;
930.0000;0.3956;-0.9676;
930.3000;0.3940;-0.9725;
930.6000;0.3915;-0.9849;
930.9000;0.3964;-0.9651;
931.2000;0.3964;-0.9527;
931.5000;0.3940;-0.9626;
931.8000;0.3940;-0.9676;
932.1000;0.3956;-0.9676;
932.4000;0.3932;-0.9725;
932.7000;0.3948;-0.9602;
933.0000;0.3948;-0.9453;
933.3000;0.3948;-0.9453;
933.6000;0.3964;-0.9527;
933.9000;0.3948;-0.9626;
934.2000;0.3932;-0.9651;
934.5000;0.3956;-0.9577;
934.8000;0.3899;-0.9775;
935.1000;0.3956;-0.9552;
935.4000;0.3907;-0.9577;
935.7000;0.3932;-0.9577;
936.0000;0.3940;-0.9478;
936.3000;0.3964;-0.9453;
936.6000;0.3964;-0.9428;
936.9000;0.3818;-0.9824;
937.2000;0.3940;-0.9527;
937.5000;0.3956;-0.9503;
937.8000;0.3850;-0.9800;
938.1000;0.3956;-0.9651;
938.4000;0.3932;-0.9750;
938.7000;0.3948;-0.9676;
939.0000;0.3964;-0.9626;
939.3000;0.3932;-0.9626;
939.6000;0.3948;-0.9651;
939.9000;0.3932;-0.9676;
940.2000;0.3972;-0.9503;
940.5000;0.3956;-0.9527;
940.8000;0.3948;-0.9577;
941.1000;0.3948;-0.9626;
941.4000;0.3948;-0.9527;
941.7000;0.3948;-0.9503;
942.0000;0.3940;-0.9552;
942.3000;0.3964;-0.9453;
942.6000;0.3948;-0.9527;
942.9000;0.3940;-0.9503;
943.2000;0.3940;-0.9552;
943.5000;0.3948;-0.9577;
943.8000;0.3940;-0.9577;
944.1000;0.3940;-0.9527;
944.4000;0.3915;-0.9651;
944.7000;0.3932;-0.9651;
945.0000;0.3956;-0.9626;
945.3000;0.4005;-0.9453;
945.6000;0.3948;-0.9577;
945.9000;0.3940;-0.9527;
946.2000;0.3915;-0.9577;
946.5000;0.3964;-0.9404;
946.8000;0.3956;-0.9404;
947.1000;0.3932;-0.9453;
947.4000;0.3940;-0.9503;
947.7000;0.3948;-0.9527;
948.0000;0.3940;-0.9577;
948.3000;0.3956;-0.9552;
948.6000;0.3956;-0.9478;
948.9000;0.3956;-0.9478;
949.2000;0.3932;-0.9527;
949.5000;0.3940;-0.9478;
949.8000;0.3964;-0.9503;
950.1000;0.3940;-0.9651;
950.4000;0.3940;-0.9725;
950.7000;0.3940;-0.9701;
951.0000;0.3964;-0.9602;
951.3000;0.3956;-0.9478;
951.6000;0.3956;-0.9527;
951.9000;0.3948;-0.9577;
952.2000;0.3964;-0.9676;
952.5000;0.3972;-0.9577;
952.8000;0.3956;-0.9626;
953.1000;0.3956;-0.9577;
953.4000;0.3932;-0.9725;
953.7000;0.3932;-0.9775;
954.0000;0.3932;-0.9725;
954.3000;0.3956;-0.9651;
954.6000;0.3940;-0.9701;
954.9000;0.3980;-0.9527;
955.2000;0.3932;-0.9651;
955.5000;0.3923;-0.9552;
955.8000;0.3899;-0.9552;
956.1000;0.3923;-0.9527;
956.4000;0.3980;-0.9379;
956.7000;0.4062;-0.9057;
957.0000;0.3932;-0.9453;
957.3000;0.3940;-0.9527;
957.6000;0.3923;-0.9651;
957.9000;0.3948;-0.9626;
958.2000;0.3932;-0.9676;
958.5000;0.3923;-0.9750;
958.8000;0.3932;-0.9676;
959.1000;0.3940;-0.9676;
959.4000;0.3940;-0.9577;
959.7000;0.3923;-0.9651;
960.0000;0.3932;-0.9651;
960.3000;0.3923;-0.9651;
960.6000;0.3940;-0.9552;
960.9000;0.3972;-0.9503;
961.2000;0.3940;-0.9552;
961.5000;0.3948;-0.9602;
961.8000;0.3891;-0.9775;
962.1000;0.3956;-0.9676;
962.4000;0.3923;-0.9725;
962.7000;0.3948;-0.9602;
963.0000;0.3948;-0.9478;
963.3000;0.3948;-0.9478;
963.6000;0.3948;-0.9428;
963.9000;0.3948;-0.9404;
964.2000;0.3997;-0.9305;
964.5000;0.3948;-0.9354;
964.8000;0.3956;-0.9329;
965.1000;0.3948;-0.9305;
965.4000;0.3940;-0.9255;
965.7000;0.3956;-0.9305;
966.0000;0.3948;-0.9354;
966.3000;0.3948;-0.9329;
966.6000;0.3940;-0.9305;
966.9000;0.3956;-0.9379;
967.2000;0.3923;-0.9404;
967.5000;0.3940;-0.9379;
967.8000;0.3948;-0.9404;
968.1000;0.3923;-0.9453;
968.4000;0.3932;-0.9428;
968.7000;0.3915;-0.9428;
969.0000;0.3980;-0.9329;
969.3000;0.3915;-0.9527;
969.6000;0.3932;-0.9503;
969.9000;0.3932;-0.9503;
970.2000;0.3923;-0.9503;
970.5000;0.3948;-0.9478;
970.8000;0.3932;-0.9577;
971.1000;0.3932;-0.9626;
971.4000;0.3980;-0.9503;
971.7000;0.3940;-0.9478;
972.0000;0.3940;-0.9503;
972.3000;0.3940;-0.9478;
972.6000;0.3915;-0.9428;
972.9000;0.3915;-0.9404;
973.2000;0.3948;-0.9305;
973.5000;0.3980;-0.9280;
973.8000;0.3948;-0.9354;
974.1000;0.3948;-0.9379;
974.4000;0.4005;-0.9280;
974.7000;0.3948;-0.9428;
975.0000;0.3940;-0.9354;
975.3000;0.3923;-0.9305;
975.6000;0.3948;-0.9181;
975.9000;0.3940;-0.9230;
976.2000;0.3923;-0.9354;
976.5000;0.3932;-0.9305;
976.8000;0.3940;-0.9329;
977.1000;0.3923;-0.9379;
977.4000;0.3940;-0.9329;
977.7000;0.3932;-0.9379;
978.0000;0.3932;-0.9428;
978.3000;0.3940;-0.9478;
978.6000;0.3932;-0.9577;
978.9000;0.3948;-0.9602;
979.2000;0.3932;-0.9552;
979.5000;0.3923;-0.9602;
979.8000;0.3980;-0.9503;
980.1000;0.3940;-0.9577;
980.4000;0.3923;-0.9626;
980.7000;0.3923;-0.9577;
981.0000;0.3989;-0.9503;
981.3000;0.3915;-0.9651;
981.6000;0.3915;-0.9626;
981.9000;0.3932;-0.9602;
982.2000;0.3940;-0.9503;
982.5000;0.3923;-0.9503;
982.8000;0.3915;-0.9428;
983.1000;0.3940;-0.9305;
983.4000;0.3923;-0.9255;
983.7000;0.3932;-0.9329;
984.0000;0.3940;-0.9305;
984.3000;0.3907;-0.9478;
984.6000;0.3940;-0.9453;
984.9000;0.3948;-0.9453;
985.2000;0.3834;-0.9676;
985.5000;0.3940;-0.9379;
985.8000;0.3915;-0.9354;
986.1000;0.3932;-0.9354;
986.4000;0.3915;-0.9428;
986.7000;0.3940;-0.9354;
987.0000;0.3923;-0.9329;
987.3000;0.3948;-0.9206;
987.6000;0.3923;-0.9181;
987.9000;0.3932;-0.9156;
988.2000;0.3972;-0.9107;
988.5000;0.3940;-0.9156;
988.8000;0.3964;-0.9181;
989.1000;0.3932;-0.9181;
989.4000;0.3907;-0.9280;
989.7000;0.3940;-0.9206;
990.0000;0.3923;-0.9305;
990.3000;0.3915;-0.9329;
990.6000;0.3932;-0.9206;
990.9000;0.3923;-0.9230;
991.2000;0.3915;-0.9230;
991.5000;0.3940;-0.9255;
991.8000;0.3923;-0.9255;
992.1000;0.3915;-0.9379;
992.4000;0.3932;-0.9379;
992.7000;0.3891;-0.9453;
993.0000;0.3923;-0.9404;
993.3000;0.3932;-0.9428;
993.6000;0.3972;-0.9428;
993.9000;0.3932;-0.9503;
994.2000;0.3923;-0.9428;
994.5000;0.3964;-0.9404;
994.8000;0.3923;-0.9577;
995.1000;0.3932;-0.9602;
995.4000;0.3932;-0.9651;
995.7000;0.3923;-0.9552;
996.0000;0.3932;-0.9552;
996.3000;0.3948;-0.9602;
996.6000;0.3932;-0.9552;
996.9000;0.3923;-0.9527;
997.2000;0.3923;-0.9552;
997.5000;0.3907;-0.9527;
997.8000;0.3915;-0.9379;
998.1000;0.3948;-0.9255;
998.4000;0.3964;-0.9255;
998.7000;0.3915;-0.9478;
999.0000;0.3964;-0.9354;
999.3000;0.3932;-0.9453;
999.6000;0.3915;-0.9453;
999.9000;0.3932;-0.9379;
1000.2000;0.3923;-0.9354;
1000.5000;0.3948;-0.9230;
1000.8000;0.3899;-0.9379;
1001.1000;0.3915;-0.9354;
1001.4000;0.3940;-0.9255;
1001.7000;0.3923;-0.9354;
1002.0000;0.3891;-0.9428;
1002.3000;0.3932;-0.9280;
1002.6000;0.3980;-0.9156;
1002.9000;0.3867;-0.9354;
1003.2000;0.3891;-0.9230;
1003.5000;0.3972;-0.9082;
1003.8000;0.3932;-0.9206;
1004.1000;0.3980;-0.9107;
1004.4000;0.3883;-0.9329;
1004.7000;0.3867;-0.9379;
1005.0000;0.3923;-0.9230;
1005.3000;0.3915;-0.9181;
1005.6000;0.3932;-0.9329;
1005.9000;0.3923;-0.9404;
1006.2000;0.3842;-0.9651;
1006.5000;0.3915;-0.9453;
1006.8000;0.3915;-0.9478;
1007.1000;0.3899;-0.9428;
1007.4000;0.3915;-0.9379;
1007.7000;0.3923;-0.9379;
1008.0000;0.3907;-0.9404;
1008.3000;0.3923;-0.9354;
1008.6000;0.3940;-0.9354;
1008.9000;0.3932;-0.9453;
1009.2000;0.3915;-0.9453;
1009.5000;0.3923;-0.9428;
1009.8000;0.3932;-0.9428;
1010.1000;0.3923;-0.9404;
1010.4000;0.3915;-0.9404;
1010.7000;0.3915;-0.9478;
1011.0000;0.3923;-0.9478;
1011.3000;0.3923;-0.9478;
1011.6000;0.3923;-0.9453;
1011.9000;0.3923;-0.9503;
1012.2000;0.3932;-0.9478;
1012.5000;0.3940;-0.9503;
1012.8000;0.3940;-0.9453;
1013.1000;0.3915;-0.9602;
1013.4000;0.3948;-0.9577;
1013.7000;0.3940;-0.9478;
1014.0000;0.3923;-0.9453;
1014.3000;0.3907;-0.9503;
1014.6000;0.3923;-0.9453;
1014.9000;0.3932;-0.9404;
1015.2000;0.3923;-0.9478;
1015.5000;0.3923;-0.9503;
1015.8000;0.3932;-0.9478;
1016.1000;0.3923;-0.9428;
1016.4000;0.3891;-0.9552;
1016.7000;0.3923;-0.9478;
1017.0000;0.3923;-0.9503;
1017.3000;0.3932;-0.9503;
1017.6000;0.3907;-0.9404;
1017.9000;0.3923;-0.9305;
1018.2000;0.3932;-0.9305;
1018.5000;0.3883;-0.9354;
1018.8000;0.3940;-0.9255;
1019.1000;0.3899;-0.9280;
1019.4000;0.3915;-0.9230;
1019.7000;0.3932;-0.9156;
1020.0000;0.3891;-0.9329;
1020.3000;0.3932;-0.9329;
1020.6000;0.3907;-0.9379;
1020.9000;0.3907;-0.9478;
1021.2000;0.3907;-0.9527;
1021.5000;0.3948;-0.9503;
1021.8000;0.3915;-0.9503;
1022.1000;0.3923;-0.9503;
1022.4000;0.3923;-0.9577;
1022.7000;0.3923;-0.9651;
1023.0000;0.3956;-0.9552;
1023.3000;0.3940;-0.9626;
1023.6000;0.3915;-0.9750;
1023.9000;0.3923;-0.9775;
1024.2000;0.3899;-0.9800;
1024.5000;0.3948;-0.9701;
1024.8000;0.3915;-0.9552;
1025.1000;0.3915;-0.9503;
1025.4000;0.3915;-0.9453;
1025.7000;0.3923;-0.9404;
1026.0000;0.3883;-0.9552;
1026.3000;0.3899;-0.9527;
1026.6000;0.3948;-0.9379;
1026.9000;0.3891;-0.9527;
1027.2000;0.3932;-0.9354;
1027.5000;0.3915;-0.9478;
1027.8000;0.3915;-0.9379;
1028.1000;0.3907;-0.9354;
1028.4000;0.3867;-0.9428;
1028.7000;0.3923;-0.9305;
1029.0000;0.3932;-0.9230;
1029.3000;0.3923;-0.9305;
1029.6000;0.3956;-0.9305;
1029.9000;0.3915;-0.9428;
1030.2000;0.3940;-0.9379;
1030.5000;0.3948;-0.9354;
1030.8000;0.3915;-0.9453;
1031.1000;0.3915;-0.9552;
1031.4000;0.3891;-0.9626;
1031.7000;0.3923;-0.9701;
1032.0000;0.3907;-0.9725;
1032.3000;0.3891;-0.9750;
1032.6000;0.3907;-0.9824;
1032.9000;0.3907;-0.9800;
1033.2000;0.3923;-0.9701;
1033.5000;0.3915;-0.9676;
1033.8000;0.3923;-0.9676;
1034.1000;0.3940;-0.9478;
1034.4000;0.3932;-0.9453;
1034.7000;0.3940;-0.9404;
1035.0000;0.3923;-0.9428;
1035.3000;0.3923;-0.9428;
1035.6000;0.3948;-0.9329;
1035.9000;0.3899;-0.9478;
1036.2000;0.3915;-0.9453;
1036.5000;0.3907;-0.9404;
1036.8000;0.3899;-0.9354;
1037.1000;0.3907;-0.9230;
1037.4000;0.3867;-0.9329;
1037.7000;0.3899;-0.9305;
1038.0000;0.3940;-0.9206;
1038.3000;0.3923;-0.9329;
1038.6000;0.3940;-0.9206;
1038.9000;0.3923;-0.9206;
1039.2000;0.3915;-0.9206;
1039.5000;0.3972;-0.9181;
1039.8000;0.3923;-0.9280;
1040.1000;0.3891;-0.9280;
1040.4000;0.3899;-0.9230;
1040.7000;0.3923;-0.9107;
1041.0000;0.3923;-0.9033;
1041.3000;0.3907;-0.9107;
1041.6000;0.3891;-0.9156;
1041.9000;0.3907;-0.9181;
1042.2000;0.3915;-0.9280;
1042.5000;0.3785;-0.9602;
1042.8000;0.3899;-0.9280;
1043.1000;0.3915;-0.9255;
1043.4000;0.3883;-0.9305;
1043.7000;0.3923;-0.9255;
1044.0000;0.3932;-0.9206;
1044.3000;0.3923;-0.9107;
1044.6000;0.3940;-0.9082;
1044.9000;0.3923;-0.9082;
1045.2000;0.3915;-0.9181;
1045.5000;0.3883;-0.9181;
1045.8000;0.3850;-0.9230;
1046.1000;0.3899;-0.9156;
1046.4000;0.3932;-0.9132;
1046.7000;0.3907;-0.9206;
1047.0000;0.3907;-0.9255;
1047.3000;0.3923;-0.9156;
1047.6000;0.3915;-0.9230;
1047.9000;0.3899;-0.9230;
1048.2000;0.3907;-0.9230;
1048.5000;0.3932;-0.9132;
1048.8000;0.3875;-0.9230;
1049.1000;0.3956;-0.9082;
1049.4000;0.3907;-0.9206;
1049.7000;0.3923;-0.9033;
1050.0000;0.3858;-0.9230;
1050.3000;0.3899;-0.9082;
1050.6000;0.3899;-0.8958;
1050.9000;0.3899;-0.8934;
1051.2000;0.3891;-0.9033;
1051.5000;0.3891;-0.9107;
1051.8000;0.3899;-0.9181;
1052.1000;0.3932;-0.9132;
1052.4000;0.3923;-0.9181;
1052.7000;0.3907;-0.9181;
1053.0000;0.3907;-0.9181;
1053.3000;0.3948;-0.9033;
1053.6000;0.3932;-0.9156;
1053.9000;0.3940;-0.9132;
1054.2000;0.3891;-0.9255;
1054.5000;0.3899;-0.9280;
1054.8000;0.3899;-0.9329;
1055.1000;0.3907;-0.9305;
1055.4000;0.3923;-0.9354;
1055.7000;0.3899;-0.9354;
1056.0000;0.3940;-0.9305;
1056.3000;0.3899;-0.9354;
1056.6000;0.3923;-0.9255;
1056.9000;0.3883;-0.9354;
1057.2000;0.3932;-0.9280;
1057.5000;0.3907;-0.9181;
1057.8000;0.3915;-0.9181;
1058.1000;0.3867;-0.9354;
1058.4000;0.3915;-0.9206;
1058.7000;0.3923;-0.9181;
1059.0000;0.3915;-0.9379;
1059.3000;0.3891;-0.9478;
1059.6000;0.3932;-0.9379;
1059.9000;0.3923;-0.9379;
1060.2000;0.3932;-0.9379;
1060.5000;0.3923;-0.9379;
1060.8000;0.3907;-0.9428;
1061.1000;0.3899;-0.9404;
1061.4000;0.3915;-0.9453;
1061.7000;0.3842;-0.9626;
1062.0000;0.3915;-0.9503;
1062.3000;0.3891;-0.9552;
1062.6000;0.3923;-0.9527;
1062.9000;0.3907;-0.9602;
1063.2000;0.3899;-0.9676;
1063.5000;0.3875;-0.9701;
1063.8000;0.3915;-0.9626;
1064.1000;0.3932;-0.9527;
1064.4000;0.3907;-0.9552;
1064.7000;0.3915;-0.9527;
1065.0000;0.3899;-0.9577;
1065.3000;0.3923;-0.9527;
1065.6000;0.3875;-0.9824;
1065.9000;0.3907;-0.9824;
1066.2000;0.3923;-0.9701;
1066.5000;0.3923;-0.9651;
1066.8000;0.3891;-0.9676;
1067.1000;0.3834;-0.9874;
1067.4000;0.3923;-0.9701;
1067.7000;0.3915;-0.9626;
1068.0000;0.3899;-0.9676;
1068.3000;0.4005;-0.9503;
1068.6000;0.3907;-0.9626;
1068.9000;0.3923;-0.9577;
1069.2000;0.3923;-0.9527;
1069.5000;0.3883;-0.9577;
1069.8000;0.3915;-0.9453;
1070.1000;0.3932;-0.9280;
1070.4000;0.3923;-0.9230;
1070.7000;0.3972;-0.9107;
1071.0000;0.3899;-0.9329;
1071.3000;0.3907;-0.9329;
1071.6000;0.3907;-0.9329;
1071.9000;0.3915;-0.9404;
1072.2000;0.3891;-0.9404;
1072.5000;0.3915;-0.9428;
1072.8000;0.3915;-0.9453;
1073.1000;0.3899;-0.9478;
1073.4000;0.3899;-0.9527;
1073.7000;0.3923;-0.9428;
1074.0000;0.3923;-0.9478;
1074.3000;0.3923;-0.9428;
1074.6000;0.3932;-0.9354;
1074.9000;0.3915;-0.9280;
1075.2000;0.3956;-0.9181;
1075.5000;0.3915;-0.9305;
1075.8000;0.3923;-0.9280;
1076.1000;0.3907;-0.9305;
1076.4000;0.3923;-0.9354;
1076.7000;0.3915;-0.9404;
1077.0000;0.3915;-0.9404;
1077.3000;0.3891;-0.9527;
1077.6000;0.3907;-0.9478;
1077.9000;0.3907;-0.9329;
1078.2000;0.3915;-0.9329;
1078.5000;0.3915;-0.9404;
1078.8000;0.3875;-0.9552;
1079.1000;0.3915;-0.9428;
1079.4000;0.3915;-0.9404;
1079.7000;0.3899;-0.9428;
1080.0000;0.3915;-0.9453;
1080.3000;0.3907;-0.9453;
1080.6000;0.3915;-0.9478;
1080.9000;0.3923;-0.9404;
1081.2000;0.3907;-0.9428;
1081.5000;0.3932;-0.9354;
1081.8000;0.3907;-0.9404;
1082.1000;0.3923;-0.9329;
1082.4000;0.3891;-0.9354;
1082.7000;0.3907;-0.9379;
1083.0000;0.3923;-0.9379;
1083.3000;0.3923;-0.9379;
1083.6000;0.3915;-0.9329;
1083.9000;0.3907;-0.9404;
1084.2000;0.3923;-0.9305;
1084.5000;0.3923;-0.9305;
1084.8000;0.3907;-0.9305;
1085.1000;0.3899;-0.9428;
1085.4000;0.3915;-0.9329;
1085.7000;0.3915;-0.9404;
1086.0000;0.3923;-0.9453;
1086.3000;0.3915;-0.9379;
1086.6000;0.3923;-0.9404;
1086.9000;0.3915;-0.9329;
1087.2000;0.3907;-0.9478;
1087.5000;0.3948;-0.9305;
1087.8000;0.3915;-0.9305;
1088.1000;0.3923;-0.9305;
1088.4000;0.3940;-0.9329;
1088.7000;0.3899;-0.9453;
1089.0000;0.3907;-0.9428;
1089.3000;0.3915;-0.9404;
1089.6000;0.3915;-0.9404;
1089.9000;0.3899;-0.9354;
1090.2000;0.3891;-0.9453;
1090.5000;0.3915;-0.9354;
1090.8000;0.3907;-0.9206;
1091.1000;0.3907;-0.9181;
1091.4000;0.3915;-0.9206;
1091.7000;0.3915;-0.9354;
1092.0000;0.3899;-0.9428;
1092.3000;0.3915;-0.9354;
1092.6000;0.3915;-0.9354;
1092.9000;0.3891;-0.9404;
1093.2000;0.3907;-0.9329;
1093.5000;0.3915;-0.9379;
1093.8000;0.3883;-0.9453;
1094.1000;0.3891;-0.9503;
1094.4000;0.3915;-0.9428;
1094.7000;0.3907;-0.9404;
1095.0000;0.3842;-0.9527;
1095.3000;0.3907;-0.9379;
1095.6000;0.3883;-0.9503;
1095.9000;0.3915;-0.9354;
1096.2000;0.3907;-0.9354;
1096.5000;0.3907;-0.9527;
1096.8000;0.3826;-0.9775;
1097.1000;0.3899;-0.9602;
1097.4000;0.3923;-0.9453;
1097.7000;0.3891;-0.9478;
1098.0000;0.3891;-0.9453;
1098.3000;0.3899;-0.9453;
1098.6000;0.3883;-0.9329;
1098.9000;0.3940;-0.9255;
1099.2000;0.3891;-0.9255;
1099.5000;0.3899;-0.9305;
1099.8000;0.3923;-0.9181;
1100.1000;0.3891;-0.9255;
1100.4000;0.3891;-0.9379;
1100.7000;0.3899;-0.9329;
1101.0000;0.3923;-0.9280;
1101.3000;0.3923;-0.9230;
1101.6000;0.3980;-0.9033;
1101.9000;0.3915;-0.9280;
1102.2000;0.3932;-0.9305;
1102.5000;0.3923;-0.9379;
1102.8000;0.3907;-0.9428;
1103.1000;0.3907;-0.9404;
1103.4000;0.3891;-0.9329;
1103.7000;0.3923;-0.9305;
1104.0000;0.3907;-0.9379;
1104.3000;0.3875;-0.9478;
1104.6000;0.3932;-0.9255;
1104.9000;0.3923;-0.9255;
1105.2000;0.3907;-0.9305;
1105.5000;0.3907;-0.9354;
1105.8000;0.3940;-0.9354;
1106.1000;0.3940;-0.9329;
1106.4000;0.3932;-0.9379;
1106.7000;0.3923;-0.9453;
1107.0000;0.3915;-0.9503;
1107.3000;0.3907;-0.9503;
1107.6000;0.3899;-0.9577;
1107.9000;0.3891;-0.9602;
1108.2000;0.3923;-0.9527;
1108.5000;0.3907;-0.9527;
1108.8000;0.3932;-0.9527;
1109.1000;0.3915;-0.9626;
1109.4000;0.3899;-0.9602;
1109.7000;0.3801;-0.9899;
1110.0000;0.3915;-0.9552;
1110.3000;0.3899;-0.9527;
1110.6000;0.3899;-0.9602;
1110.9000;0.3940;-0.9552;
1111.2000;0.3923;-0.9577;
1111.5000;0.3915;-0.9626;
1111.8000;0.3915;-0.9626;
1112.1000;0.3923;-0.9676;
1112.4000;0.3891;-0.9725;
1112.7000;0.3883;-0.9750;
1113.0000;0.3915;-0.9651;
1113.3000;0.3891;-0.9701;
1113.6000;0.3899;-0.9701;
1113.9000;0.3907;-0.9626;
1114.2000;0.3842;-0.9775;
1114.5000;0.3948;-0.9453;
1114.8000;0.3907;-0.9503;
1115.1000;0.3923;-0.9453;
1115.4000;0.3907;-0.9404;
1115.7000;0.3907;-0.9478;
1116.0000;0.3915;-0.9503;
1116.3000;0.3923;-0.9478;
1116.6000;0.3883;-0.9676;
1116.9000;0.3907;-0.9577;
1117.2000;0.3891;-0.9602;
1117.5000;0.3842;-0.9725;
1117.8000;0.3915;-0.9577;
1118.1000;0.3891;-0.9577;
1118.4000;0.3850;-0.9676;
1118.7000;0.3875;-0.9676;
1119.0000;0.3883;-0.9676;
1119.3000;0.3899;-0.9701;
1119.6000;0.3826;-0.9874;
1119.9000;0.3980;-0.9453;
1120.2000;0.3899;-0.9651;
1120.5000;0.3883;-0.9725;
1120.8000;0.3915;-0.9651;
1121.1000;0.3940;-0.9453;
1121.4000;0.3923;-0.9453;
1121.7000;0.3940;-0.9329;
1122.0000;0.3907;-0.9379;
1122.3000;0.3883;-0.9428;
1122.6000;0.3850;-0.9577;
1122.9000;0.3858;-0.9602;
1123.2000;0.3899;-0.9428;
1123.5000;0.3875;-0.9503;
1123.8000;0.3923;-0.9354;
1124.1000;0.4021;-0.9181;
1124.4000;0.3899;-0.9478;
1124.7000;0.3899;-0.9527;
1125.0000;0.3875;-0.9651;
1125.3000;0.3907;-0.9577;
1125.6000;0.3899;-0.9602;
1125.9000;0.3891;-0.9602;
1126.2000;0.3907;-0.9552;
1126.5000;0.3891;-0.9577;
1126.8000;0.3907;-0.9552;
1127.1000;0.3907;-0.9527;
1127.4000;0.3915;-0.9527;
1127.7000;0.3915;-0.9552;
1128.0000;0.3842;-0.9701;
1128.3000;0.3899;-0.9478;
1128.6000;0.3899;-0.9453;
1128.9000;0.3907;-0.9428;
1129.2000;0.3940;-0.9305;
1129.5000;0.3899;-0.9404;
1129.8000;0.3899;-0.9404;
1130.1000;0.3907;-0.9305;
1130.4000;0.3899;-0.9379;
1130.7000;0.3899;-0.9404;
1131.0000;0.3915;-0.9280;
1131.3000;0.3907;-0.9255;
1131.6000;0.3923;-0.9255;
1131.9000;0.3915;-0.9379;
1132.2000;0.3915;-0.9404;
1132.5000;0.3907;-0.9404;
1132.8000;0.3932;-0.9379;
1133.1000;0.3923;-0.9354;
1133.4000;0.3907;-0.9255;
1133.7000;0.3907;-0.9280;
1134.0000;0.3915;-0.9255;
1134.3000;0.3899;-0.9428;
1134.6000;0.3989;-0.9206;
1134.9000;0.3915;-0.9478;
1135.2000;0.3891;-0.9478;
1135.5000;0.3915;-0.9329;
1135.8000;0.3915;-0.9354;
1136.1000;0.3858;-0.9602;
1136.4000;0.3907;-0.9354;
1136.7000;0.3915;-0.9305;
1137.0000;0.3842;-0.9503;
1137.3000;0.3842;-0.9577;
1137.6000;0.3923;-0.9379;
1137.9000;0.3923;-0.9354;
1138.2000;0.3923;-0.9404;
1138.5000;0.3899;-0.9428;
1138.8000;0.3899;-0.9527;
1139.1000;0.3891;-0.9577;
1139.4000;0.3948;-0.9453;
1139.7000;0.3899;-0.9527;
1140.0000;0.3932;-0.9453;
1140.3000;0.3923;-0.9404;
1140.6000;0.3867;-0.9626;
1140.9000;0.3907;-0.9478;
1141.2000;0.3907;-0.9453;
1141.5000;0.3932;-0.9329;
1141.8000;0.3907;-0.9478;
1142.1000;0.3899;-0.9453;
1142.4000;0.3899;-0.9428;
1142.7000;0.3899;-0.9379;
1143.0000;0.3932;-0.9255;
1143.3000;0.3915;-0.9305;
1143.6000;0.3915;-0.9354;
1143.9000;0.3891;-0.9379;
1144.2000;0.3915;-0.9379;
1144.5000;0.3891;-0.9379;
1144.8000;0.3907;-0.9379;
1145.1000;0.3932;-0.9305;
1145.4000;0.3883;-0.9404;
1145.7000;0.3899;-0.9379;
1146.0000;0.3915;-0.9404;
1146.3000;0.3907;-0.9503;
1146.6000;0.3891;-0.9602;
1146.9000;0.3907;-0.9577;
1147.2000;0.3899;-0.9552;
1147.5000;0.3907;-0.9552;
1147.8000;0.3907;-0.9602;
1148.1000;0.3915;-0.9651;
1148.4000;0.3858;-0.9775;
1148.7000;0.3923;-0.9651;
1149.0000;0.3940;-0.9626;
1149.3000;0.3907;-0.9701;
1149.6000;0.3907;-0.9626;
1149.9000;0.3899;-0.9577;
1150.2000;0.3867;-0.9602;
1150.5000;0.3915;-0.9478;
1150.8000;0.3964;-0.9428;
1151.1000;0.3907;-0.9651;
1151.4000;0.3907;-0.9552;
1151.7000;0.3915;-0.9478;
1152.0000;0.3915;-0.9478;
1152.3000;0.3915;-0.9552;
1152.6000;0.3923;-0.9527;
1152.9000;0.3899;-0.9602;
1153.2000;0.3858;-0.9626;
1153.5000;0.3899;-0.9453;
1153.8000;0.3923;-0.9354;
1154.1000;0.3907;-0.9404;
1154.4000;0.3883;-0.9503;
1154.7000;0.3907;-0.9428;
1155.0000;0.3899;-0.9503;
1155.3000;0.3883;-0.9453;
1155.6000;0.3907;-0.9280;
1155.9000;0.3907;-0.9404;
1156.2000;0.3915;-0.9404;
1156.5000;0.3907;-0.9527;
1156.8000;0.3915;-0.9453;
1157.1000;0.3907;-0.9453;
1157.4000;0.3891;-0.9503;
1157.7000;0.3907;-0.9552;
1158.0000;0.3883;-0.9651;
1158.3000;0.3964;-0.9478;
1158.6000;0.3858;-0.9800;
1158.9000;0.3899;-0.9577;
1159.2000;0.3915;-0.9602;
1159.5000;0.3907;-0.9651;
1159.8000;0.3907;-0.9676;
1160.1000;0.3915;-0.9602;
1160.4000;0.3899;-0.9651;
1160.7000;0.3915;-0.9577;
1161.0000;0.3907;-0.9602;
1161.3000;0.3899;-0.9577;
1161.6000;0.3899;-0.9552;
1161.9000;0.3883;-0.9577;
1162.2000;0.3915;-0.9626;
1162.5000;0.3907;-0.9676;
1162.8000;0.3907;-0.9750;
1163.1000;0.3915;-0.9701;
1163.4000;0.3923;-0.9676;
1163.7000;0.3899;-0.9651;
1164.0000;0.3907;-0.9676;
1164.3000;0.3907;-0.9577;
1164.6000;0.3915;-0.9602;
1164.9000;0.3907;-0.9626;
1165.2000;0.3891;-0.9577;
1165.5000;0.3907;-0.9577;
1165.8000;0.3842;-0.9775;
1166.1000;0.3907;-0.9725;
1166.4000;0.3940;-0.9651;
1166.7000;0.3850;-0.9849;
1167.0000;0.3883;-0.9849;
1167.3000;0.3915;-0.9750;
1167.6000;0.3948;-0.9725;
1167.9000;0.3915;-0.9725;
1168.2000;0.3923;-0.9701;
1168.5000;0.3923;-0.9651;
1168.8000;0.3907;-0.9775;
1169.1000;0.3932;-0.9750;
1169.4000;0.3891;-0.9824;
1169.7000;0.3915;-0.9651;
1170.0000;0.3915;-0.9651;
1170.3000;0.3907;-0.9701;
1170.6000;0.3891;-0.9750;
1170.9000;0.3907;-0.9676;
1171.2000;0.3891;-0.9676;
1171.5000;0.3899;-0.9626;
1171.8000;0.3899;-0.9577;
1172.1000;0.3818;-0.9800;
1172.4000;0.3891;-0.9527;
1172.7000;0.3907;-0.9478;
1173.0000;0.3899;-0.9527;
1173.3000;0.3907;-0.9577;
1173.6000;0.3899;-0.9651;
1173.9000;0.3891;-0.9676;
1174.2000;0.3915;-0.9626;
1174.5000;0.3907;-0.9527;
1174.8000;0.3883;-0.9577;
1175.1000;0.3907;-0.9478;
1175.4000;0.3818;-0.9651;
1175.7000;0.3899;-0.9404;
1176.0000;0.3907;-0.9478;
1176.3000;0.3899;-0.9552;
1176.6000;0.3907;-0.9503;
1176.9000;0.3891;-0.9503;
1177.2000;0.3891;-0.9478;
1177.5000;0.3883;-0.9503;
1177.8000;0.3899;-0.9453;
1178.1000;0.3899;-0.9453;
1178.4000;0.3899;-0.9527;
1178.7000;0.3923;-0.9453;
1179.0000;0.3923;-0.9453;
1179.3000;0.3891;-0.9552;
1179.6000;0.3907;-0.9552;
1179.9000;0.3915;-0.9552;
1180.2000;0.3891;-0.9577;
1180.5000;0.3932;-0.9503;
1180.8000;0.3907;-0.9602;
1181.1000;0.3907;-0.9478;
1181.4000;0.3923;-0.9404;
1181.7000;0.3899;-0.9453;
1182.0000;0.3948;-0.9329;
1182.3000;0.3932;-0.9428;
1182.6000;0.3907;-0.9453;
1182.9000;0.3899;-0.9503;
1183.2000;0.3899;-0.9478;
1183.5000;0.3883;-0.9527;
1183.8000;0.3915;-0.9527;
1184.1000;0.3915;-0.9478;
1184.4000;0.3899;-0.9478;
1184.7000;0.3915;-0.9428;
1185.0000;0.3948;-0.9230;
1185.3000;0.3899;-0.9404;
1185.6000;0.3883;-0.9354;
1185.9000;0.3883;-0.9379;
1186.2000;0.3891;-0.9428;
1186.5000;0.3907;-0.9453;
1186.8000;0.3907;-0.9404;
1187.1000;0.3899;-0.9379;
1187.4000;0.3907;-0.9379;
1187.7000;0.3899;-0.9379;
1188.0000;0.3948;-0.9255;
1188.3000;0.3915;-0.9230;
1188.6000;0.3907;-0.9280;
1188.9000;0.3915;-0.9305;
1189.2000;0.3948;-0.9156;
1189.5000;0.3915;-0.9156;
1189.8000;0.3964;-0.9057;
1190.1000;0.3891;-0.9206;
1190.4000;0.3891;-0.9206;
1190.7000;0.3980;-0.9082;
1191.0000;0.3907;-0.9255;
1191.3000;0.3891;-0.9305;
1191.6000;0.3923;-0.9280;
1191.9000;0.3810;-0.9602;
1192.2000;0.3907;-0.9354;
1192.5000;0.3899;-0.9379;
1192.8000;0.3899;-0.9428;
1193.1000;0.3907;-0.9428;
1193.4000;0.3867;-0.9428;
1193.7000;0.3858;-0.9552;
1194.0000;0.3915;-0.9379;
1194.3000;0.3948;-0.9305;
1194.6000;0.3907;-0.9428;
1194.9000;0.3907;-0.9527;
1195.2000;0.3899;-0.9428;
1195.5000;0.3899;-0.9428;
1195.8000;0.3891;-0.9428;
1196.1000;0.3867;-0.9478;
1196.4000;0.3899;-0.9478;
1196.7000;0.3899;-0.9503;
1197.0000;0.3907;-0.9503;
1197.3000;0.3907;-0.9503;
1197.6000;0.3907;-0.9453;
1197.9000;0.3899;-0.9503;
1198.2000;0.3923;-0.9404;
1198.5000;0.3907;-0.9577;
1198.8000;0.3899;-0.9552;
1199.1000;0.3907;-0.9503;
1199.4000;0.3883;-0.9577;
1199.7000;0.3899;-0.9428;
1200.0000;0.3891;-0.9527;
1200.3000;0.3915;-0.9503;
1200.6000;0.3907;-0.9577;
1200.9000;0.3899;-0.9577;
1201.2000;0.3915;-0.9527;
1201.5000;0.3956;-0.9428;
1201.8000;0.3915;-0.9503;
1202.1000;0.3899;-0.9577;
1202.4000;0.3883;-0.9651;
1202.7000;0.3907;-0.9552;
1203.0000;0.3907;-0.9503;
1203.3000;0.3907;-0.9527;
1203.6000;0.3891;-0.9626;
1203.9000;0.3891;-0.9651;
1204.2000;0.3891;-0.9602;
1204.5000;0.3948;-0.9428;
1204.8000;0.3907;-0.9527;
1205.1000;0.3907;-0.9552;
1205.4000;0.3915;-0.9503;
1205.7000;0.3899;-0.9478;
1206.0000;0.3899;-0.9552;
1206.3000;0.3907;-0.9651;
1206.6000;0.3899;-0.9701;
1206.9000;0.3907;-0.9701;
1207.2000;0.3907;-0.9701;
1207.5000;0.3907;-0.9725;
1207.8000;0.3923;-0.9725;
1208.1000;0.3891;-0.9725;
1208.4000;0.3883;-0.9824;
1208.7000;0.3899;-0.9899;
1209.0000;0.3891;-0.9874;
1209.3000;0.3875;-0.9874;
1209.6000;0.3932;-0.9725;
1209.9000;0.3899;-0.9676;
1210.2000;0.3915;-0.9725;
1210.5000;0.3883;-0.9750;
1210.8000;0.3891;-0.9750;
1211.1000;0.3891;-0.9775;
1211.4000;0.3899;-0.9725;
1211.7000;0.3907;-0.9725;
1212.0000;0.3923;-0.9701;
1212.3000;0.3907;-0.9701;
1212.6000;0.3891;-0.9750;
1212.9000;0.3899;-0.9676;
1213.2000;0.3923;-0.9602;
1213.5000;0.3948;-0.9527;
1213.8000;0.3899;-0.9676;
1214.1000;0.3940;-0.9552;
1214.4000;0.3875;-0.9725;
1214.7000;0.3834;-0.9800;
1215.0000;0.3940;-0.9552;
1215.3000;0.3883;-0.9552;
1215.6000;0.3964;-0.9379;
1215.9000;0.3883;-0.9478;
1216.2000;0.3899;-0.9354;
1216.5000;0.3883;-0.9527;
1216.8000;0.3899;-0.9552;
1217.1000;0.3810;-0.9676;
1217.4000;0.3810;-0.9676;
1217.7000;0.3793;-0.9874;
1218.0000;0.3956;-0.9379;
1218.3000;0.3964;-0.9379;
1218.6000;0.3923;-0.9428;
1218.9000;0.3964;-0.9305;
1219.2000;0.3777;-0.9775;
1219.5000;0.3915;-0.9404;
1219.8000;0.3899;-0.9404;
1220.1000;0.3907;-0.9428;
1220.4000;0.3883;-0.9602;
1220.7000;0.3923;-0.9527;
1221.0000;0.3899;-0.9602;
1221.3000;0.3891;-0.9577;
1221.6000;0.3915;-0.9602;
1221.9000;0.3907;-0.9527;
1222.2000;0.3850;-0.9626;
1222.5000;0.3899;-0.9478;
1222.8000;0.3891;-0.9354;
1223.1000;0.3923;-0.9354;
1223.4000;0.3915;-0.9329;
1223.7000;0.3891;-0.9478;
1224.0000;0.3923;-0.9428;
1224.3000;0.3907;-0.9305;
1224.6000;0.3899;-0.9255;
1224.9000;0.3907;-0.9280;
1225.2000;0.3891;-0.9354;
1225.5000;0.3891;-0.9255;
1225.8000;0.3899;-0.9255;
1226.1000;0.3891;-0.9379;
1226.4000;0.3915;-0.9404;
1226.7000;0.3875;-0.9478;
1227.0000;0.3883;-0.9527;
1227.3000;0.3842;-0.9701;
1227.6000;0.3883;-0.9503;
1227.9000;0.3907;-0.9503;
1228.2000;0.3956;-0.9404;
1228.5000;0.3932;-0.9552;
1228.8000;0.3907;-0.9651;
1229.1000;0.3907;-0.9602;
1229.4000;0.3875;-0.9676;
1229.7000;0.3899;-0.9626;
1230.0000;0.3907;-0.9552;
1230.3000;0.3842;-0.9725;
1230.6000;0.3923;-0.9552;
1230.9000;0.3899;-0.9527;
1231.2000;0.3891;-0.9577;
1231.5000;0.3891;-0.9577;
1231.8000;0.3923;-0.9527;
1232.1000;0.3964;-0.9379;
1232.4000;0.3932;-0.9404;
1232.7000;0.3915;-0.9428;
1233.0000;0.3883;-0.9503;
1233.3000;0.3891;-0.9527;
1233.6000;0.3899;-0.9577;
1233.9000;0.3915;-0.9602;
1234.2000;0.3883;-0.9676;
1234.5000;0.3899;-0.9577;
1234.8000;0.3850;-0.9725;
1235.1000;0.3899;-0.9602;
1235.4000;0.3907;-0.9577;
1235.7000;0.3932;-0.9527;
1236.0000;0.3899;-0.9552;
1236.3000;0.3915;-0.9503;
1236.6000;0.3923;-0.9527;
1236.9000;0.3907;-0.9651;
1237.2000;0.3899;-0.9676;
1237.5000;0.3891;-0.9651;
1237.8000;0.3972;-0.9404;
1238.1000;0.3899;-0.9651;
1238.4000;0.3891;-0.9651;
1238.7000;0.3940;-0.9527;
1239.0000;0.3907;-0.9676;
1239.3000;0.3915;-0.9701;
1239.6000;0.3899;-0.9775;
1239.9000;0.3907;-0.9725;
1240.2000;0.3915;-0.9800;
1240.5000;0.3891;-0.9800;
1240.8000;0.3875;-0.9849;
1241.1000;0.3891;-0.9824;
1241.4000;0.3907;-0.9800;
1241.7000;0.3915;-0.9800;
1242.0000;0.3923;-0.9701;
1242.3000;0.3899;-0.9701;
1242.6000;0.3891;-0.9775;
1242.9000;0.3907;-0.9725;
1243.2000;0.3891;-0.9775;
1243.5000;0.3915;-0.9725;
1243.8000;0.3923;-0.9725;
1244.1000;0.3923;-0.9750;
1244.4000;0.3907;-0.9701;
1244.7000;0.3899;-0.9676;
1245.0000;0.3907;-0.9676;
1245.3000;0.3964;-0.9602;
1245.6000;0.3907;-0.9701;
1245.9000;0.3907;-0.9651;
1246.2000;0.3940;-0.9478;
1246.5000;0.3907;-0.9602;
1246.8000;0.3915;-0.9602;
1247.1000;0.3891;-0.9651;
1247.4000;0.3907;-0.9602;
1247.7000;0.3875;-0.9725;
1248.0000;0.3899;-0.9676;
1248.3000;0.3899;-0.9626;
1248.6000;0.3891;-0.9725;
1248.9000;0.3932;-0.9602;
1249.2000;0.3899;-0.9651;
1249.5000;0.3875;-0.9725;
1249.8000;0.3891;-0.9701;
1250.1000;0.3875;-0.9750;
1250.4000;0.3964;-0.9577;
1250.7000;0.3883;-0.9750;
1251.0000;0.3907;-0.9750;
1251.3000;0.3867;-0.9973;
1251.6000;0.3891;-0.9899;
1251.9000;0.3899;-0.9750;
1252.2000;0.3915;-0.9651;
1252.5000;0.3956;-0.9577;
1252.8000;0.3915;-0.9676;
1253.1000;0.3907;-0.9676;
1253.4000;0.3907;-0.9676;
1253.7000;0.3899;-0.9750;
1254.0000;0.3883;-0.9849;
1254.3000;0.3899;-0.9824;
1254.6000;0.3899;-0.9824;
1254.9000;0.3883;-0.9874;
1255.2000;0.3964;-0.9725;
1255.5000;0.3915;-0.9750;
1255.8000;0.3899;-0.9750;
1256.1000;0.3899;-0.9725;
1256.4000;0.3883;-0.9626;
1256.7000;0.3899;-0.9651;
1257.0000;0.3932;-0.9651;
1257.3000;0.3907;-0.9750;
1257.6000;0.3899;-0.9725;
1257.9000;0.3875;-0.9725;
1258.2000;0.3891;-0.9651;
1258.5000;0.3891;-0.9552;
1258.8000;0.3891;-0.9503;
1259.1000;0.3907;-0.9478;
1259.4000;0.3907;-0.9552;
1259.7000;0.3858;-0.9602;
1260.0000;0.3907;-0.9453;
1260.3000;0.3891;-0.9552;
1260.6000;0.3915;-0.9626;
1260.9000;0.3899;-0.9676;
1261.2000;0.3899;-0.9701;
1261.5000;0.3899;-0.9701;
1261.8000;0.3932;-0.9676;
1262.1000;0.3907;-0.9750;
1262.4000;0.3907;-0.9800;
1262.7000;0.3964;-0.9701;
1263.0000;0.3907;-0.9948;
1263.3000;0.3899;-0.9923;
1263.6000;0.3899;-0.9874;
1263.9000;0.3899;-0.9874;
1264.2000;0.3883;-0.9899;
1264.5000;0.3923;-0.9800;
1264.8000;0.3899;-0.9750;
1265.1000;0.3907;-0.9676;
1265.4000;0.3899;-0.9701;
1265.7000;0.3915;-0.9676;
1266.0000;0.3899;-0.9849;
1266.3000;0.3915;-0.9874;
1266.6000;0.3899;-0.9923;
1266.9000;0.3899;-0.9775;
1267.2000;0.3907;-0.9800;
1267.5000;0.3932;-0.9701;
1267.8000;0.3899;-0.9750;
1268.1000;0.3899;-0.9725;
1268.4000;0.3899;-0.9775;
1268.7000;0.3883;-0.9849;
1269.0000;0.3899;-0.9750;
1269.3000;0.3907;-0.9626;
1269.6000;0.3891;-0.9626;
1269.9000;0.3875;-0.9626;
1270.2000;0.3891;-0.9602;
1270.5000;0.3923;-0.9626;
1270.8000;0.3899;-0.9676;
1271.1000;0.3899;-0.9651;
1271.4000;0.3899;-0.9602;
1271.7000;0.3923;-0.9701;
1272.0000;0.3940;-0.9602;
1272.3000;0.3932;-0.9552;
1272.6000;0.3915;-0.9602;
1272.9000;0.3883;-0.9676;
1273.2000;0.3964;-0.9478;
1273.5000;0.3867;-0.9725;
1273.8000;0.3899;-0.9701;
1274.1000;0.3850;-0.9824;
1274.4000;0.3923;-0.9676;
1274.7000;0.3923;-0.9626;
1275.0000;0.3932;-0.9478;
1275.3000;0.3932;-0.9503;
1275.6000;0.3980;-0.9329;
1275.9000;0.3883;-0.9577;
1276.2000;0.3842;-0.9626;
1276.5000;0.3883;-0.9478;
1276.8000;0.3980;-0.9255;
1277.1000;0.3907;-0.9453;
1277.4000;0.3923;-0.9478;
1277.7000;0.3907;-0.9503;
1278.0000;0.3899;-0.9552;
1278.3000;0.3883;-0.9725;
1278.6000;0.3940;-0.9602;
1278.9000;0.3875;-0.9725;
1279.2000;0.3891;-0.9651;
1279.5000;0.3883;-0.9626;
1279.8000;0.3883;-0.9577;
1280.1000;0.3891;-0.9552;
1280.4000;0.3899;-0.9478;
1280.7000;0.3915;-0.9527;
1281.0000;0.3907;-0.9552;
1281.3000;0.3875;-0.9701;
1281.6000;0.3891;-0.9750;
1281.9000;0.3891;-0.9899;
1282.2000;0.3899;-0.9849;
1282.5000;0.3915;-0.9824;
1282.8000;0.3899;-0.9849;
1283.1000;0.3891;-0.9824;
1283.4000;0.3915;-0.9725;
1283.7000;0.3891;-0.9849;
1284.0000;0.3915;-0.9750;
1284.3000;0.3899;-0.9701;
1284.6000;0.3907;-0.9701;
1284.9000;0.3899;-0.9725;
1285.2000;0.3915;-0.9676;
1285.5000;0.3907;-0.9775;
1285.8000;0.3915;-0.9750;
1286.1000;0.3891;-0.9725;
1286.4000;0.3899;-0.9750;
1286.7000;0.3915;-0.9775;
1287.0000;0.3923;-0.9701;
1287.3000;0.3932;-0.9676;
1287.6000;0.3899;-0.9701;
1287.9000;0.3932;-0.9676;
1288.2000;0.3867;-0.9849;
1288.5000;0.3915;-0.9800;
1288.8000;0.3907;-0.9849;
1289.1000;0.3899;-0.9874;
1289.4000;0.3883;-0.9824;
1289.7000;0.3907;-0.9750;
1290.0000;0.3899;-0.9750;
1290.3000;0.3907;-0.9750;
1290.6000;0.3907;-0.9800;
1290.9000;0.3907;-0.9775;
1291.2000;0.3818;-0.9948;
1291.5000;0.3907;-0.9824;
1291.8000;0.3907;-0.9750;
1292.1000;0.3907;-0.9800;
1292.4000;0.3907;-0.9725;
1292.7000;0.3899;-0.9701;
1293.0000;0.3891;-0.9849;
1293.3000;0.3899;-0.9824;
1293.6000;0.3907;-0.9849;
1293.9000;0.3932;-0.9849;
1294.2000;0.3899;-0.9874;
1294.5000;0.3883;-0.9775;
1294.8000;0.3891;-0.9651;
1295.1000;0.3883;-0.9527;
1295.4000;0.3891;-0.9552;
1295.7000;0.3899;-0.9651;
1296.0000;0.3891;-0.9626;
1296.3000;0.3915;-0.9676;
1296.6000;0.3875;-0.9750;
1296.9000;0.3899;-0.9701;
1297.2000;0.3899;-0.9676;
1297.5000;0.3907;-0.9626;
1297.8000;0.3891;-0.9701;
1298.1000;0.3899;-0.9701;
1298.4000;0.3932;-0.9577;
1298.7000;0.3899;-0.9676;
1299.0000;0.3932;-0.9552;
1299.3000;0.3915;-0.9701;
1299.6000;0.3883;-0.9651;
1299.9000;0.3932;-0.9552;
1300.2000;0.3899;-0.9577;
1300.5000;0.3964;-0.9404;
1300.8000;0.3891;-0.9602;
1301.1000;0.3940;-0.9577;
1301.4000;0.3989;-0.9552;
1301.7000;0.3907;-0.9775;
1302.0000;0.3810;-0.9973;
1302.3000;0.3891;-0.9725;
1302.6000;0.3907;-0.9676;
1302.9000;0.3940;-0.9577;
1303.2000;0.3891;-0.9651;
1303.5000;0.3891;-0.9651;
1303.8000;0.3899;-0.9676;
1304.1000;0.3932;-0.9626;
1304.4000;0.3883;-0.9676;
1304.7000;0.3907;-0.9503;
1305.0000;0.3972;-0.9379;
1305.3000;0.3899;-0.9602;
1305.6000;0.3932;-0.9577;
1305.9000;0.3932;-0.9676;
1306.2000;0.3899;-0.9676;
1306.5000;0.3907;-0.9527;
1306.8000;0.3875;-0.9527;
1307.1000;0.3907;-0.9478;
1307.4000;0.3907;-0.9577;
1307.7000;0.3891;-0.9602;
1308.0000;0.3907;-0.9577;
1308.3000;0.3883;-0.9651;
1308.6000;0.3899;-0.9626;
1308.9000;0.3891;-0.9552;
1309.2000;0.3883;-0.9602;
1309.5000;0.3891;-0.9552;
1309.8000;0.3932;-0.9453;
1310.1000;0.3875;-0.9626;
1310.4000;0.3915;-0.9602;
1310.7000;0.3923;-0.9676;
1311.0000;0.3932;-0.9701;
1311.3000;0.3948;-0.9552;
1311.6000;0.3907;-0.9651;
1311.9000;0.3891;-0.9602;
1312.2000;0.3923;-0.9626;
1312.5000;0.3891;-0.9800;
1312.8000;0.3899;-0.9824;
1313.1000;0.3907;-0.9701;
1313.4000;0.3891;-0.9701;
1313.7000;0.3891;-0.9676;
1314.0000;0.3907;-0.9626;
1314.3000;0.3915;-0.9552;
1314.6000;0.3915;-0.9577;
1314.9000;0.3899;-0.9577;
1315.2000;0.3923;-0.9626;
1315.5000;0.3915;-0.9701;
1315.8000;0.3891;-0.9676;
1316.1000;0.3899;-0.9701;
1316.4000;0.3891;-0.9750;
1316.7000;0.3932;-0.9602;
1317.0000;0.3907;-0.9626;
1317.3000;0.3891;-0.9676;
1317.6000;0.3891;-0.9651;
1317.9000;0.3907;-0.9527;
1318.2000;0.3899;-0.9577;
1318.5000;0.3891;-0.9602;
1318.8000;0.3891;-0.9626;
1319.1000;0.3883;-0.9552;
1319.4000;0.3923;-0.9354;
1319.7000;0.3883;-0.9428;
1320.0000;0.3932;-0.9404;
1320.3000;0.3907;-0.9428;
1320.6000;0.3907;-0.9428;
1320.9000;0.3899;-0.9404;
1321.2000;0.3899;-0.9478;
1321.5000;0.3915;-0.9428;
1321.8000;0.3907;-0.9404;
1322.1000;0.3907;-0.9379;
1322.4000;0.3883;-0.9453;
1322.7000;0.3883;-0.9503;
1323.0000;0.3850;-0.9676;
1323.3000;0.3907;-0.9552;
1323.6000;0.3883;-0.9577;
1323.9000;0.3883;-0.9651;
1324.2000;0.3915;-0.9626;
1324.5000;0.3899;-0.9552;
1324.8000;0.3899;-0.9552;
1325.1000;0.3915;-0.9527;
1325.4000;0.3883;-0.9577;
1325.7000;0.3899;-0.9478;
1326.0000;0.3980;-0.9230;
1326.3000;0.3923;-0.9305;
1326.6000;0.3899;-0.9379;
1326.9000;0.3972;-0.9156;
1327.2000;0.3907;-0.9305;
1327.5000;0.3899;-0.9329;
1327.8000;0.3842;-0.9527;
1328.1000;0.3907;-0.9428;
1328.4000;0.3907;-0.9404;
1328.7000;0.3899;-0.9453;
1329.0000;0.3899;-0.9503;
1329.3000;0.3915;-0.9404;
1329.6000;0.3907;-0.9453;
1329.9000;0.3899;-0.9527;
1330.2000;0.3940;-0.9453;
1330.5000;0.3899;-0.9503;
1330.8000;0.3867;-0.9626;
1331.1000;0.3915;-0.9527;
1331.4000;0.3923;-0.9503;
1331.7000;0.3842;-0.9577;
1332.0000;0.3932;-0.9428;
1332.3000;0.3899;-0.9379;
1332.6000;0.3899;-0.9329;
1332.9000;0.3850;-0.9503;
1333.2000;0.3907;-0.9379;
1333.5000;0.3891;-0.9329;
1333.8000;0.3907;-0.9379;
1334.1000;0.3899;-0.9453;
1334.4000;0.3891;-0.9404;
1334.7000;0.3899;-0.9453;
1335.0000;0.3915;-0.9527;
1335.3000;0.3858;-0.9577;
1335.6000;0.3891;-0.9527;
1335.9000;0.3915;-0.9478;
1336.2000;0.3907;-0.9478;
1336.5000;0.3915;-0.9503;
1336.8000;0.3972;-0.9354;
1337.1000;0.3891;-0.9626;
1337.4000;0.3883;-0.9676;
1337.7000;0.3899;-0.9602;
1338.0000;0.3915;-0.9552;
1338.3000;0.3899;-0.9503;
1338.6000;0.3907;-0.9527;
1338.9000;0.3891;-0.9503;
1339.2000;0.3883;-0.9577;
1339.5000;0.3850;-0.9701;
1339.8000;0.3915;-0.9552;
1340.1000;0.3891;-0.9651;
1340.4000;0.3891;-0.9602;
1340.7000;0.3899;-0.9503;
1341.0000;0.3915;-0.9527;
1341.3000;0.3891;-0.9602;
1341.6000;0.3907;-0.9626;
1341.9000;0.3899;-0.9577;
1342.2000;0.3932;-0.9552;
1342.5000;0.3907;-0.9626;
1342.8000;0.3915;-0.9701;
1343.1000;0.3899;-0.9824;
1343.4000;0.3915;-0.9874;
1343.7000;0.3891;-0.9750;
1344.0000;0.3875;-0.9775;
1344.3000;0.3891;-0.9701;
1344.6000;0.3883;-0.9701;
1344.9000;0.3915;-0.9676;
1345.2000;0.3932;-0.9626;
1345.5000;0.3875;-0.9775;
1345.8000;0.3907;-0.9824;
1346.1000;0.3956;-0.9750;
1346.4000;0.3883;-0.9899;
1346.7000;0.3907;-0.9775;
1347.0000;0.3891;-0.9725;
1347.3000;0.3891;-0.9701;
1347.6000;0.3907;-0.9527;
1347.9000;0.3891;-0.9503;
1348.2000;0.3907;-0.9354;
1348.5000;0.3883;-0.9354;
1348.8000;0.3899;-0.9230;
1349.1000;0.3875;-0.9379;
1349.4000;0.3867;-0.9503;
1349.7000;0.3915;-0.9404;
1350.0000;0.3907;-0.9478;
1350.3000;0.3915;-0.9404;
1350.6000;0.3899;-0.9428;
1350.9000;0.3907;-0.9453;
1351.2000;0.3891;-0.9478;
1351.5000;0.3899;-0.9428;
1351.8000;0.3907;-0.9354;
1352.1000;0.3907;-0.9379;
1352.4000;0.3923;-0.9280;
1352.7000;0.3907;-0.9255;
1353.0000;0.3915;-0.9230;
1353.3000;0.3915;-0.9305;
1353.6000;0.3923;-0.9305;
1353.9000;0.3923;-0.9354;
1354.2000;0.3899;-0.9379;
1354.5000;0.3899;-0.9379;
1354.8000;0.3907;-0.9379;
1355.1000;0.3915;-0.9453;
1355.4000;0.3907;-0.9478;
1355.7000;0.3915;-0.9428;
1356.0000;0.3907;-0.9428;
1356.3000;0.3907;-0.9305;
1356.6000;0.3915;-0.9280;
1356.9000;0.3907;-0.9428;
1357.2000;0.3834;-0.9503;
1357.5000;0.3932;-0.9230;
1357.8000;0.3907;-0.9230;
1358.1000;0.3907;-0.9156;
1358.4000;0.3940;-0.9082;
1358.7000;0.3899;-0.9181;
1359.0000;0.3907;-0.9206;
1359.3000;0.3891;-0.9156;
1359.6000;0.3875;-0.9230;
1359.9000;0.3883;-0.9181;
1360.2000;0.3899;-0.9082;
1360.5000;0.3899;-0.9082;
1360.8000;0.3858;-0.9181;
1361.1000;0.3891;-0.9057;
1361.4000;0.3899;-0.9057;
1361.7000;0.3891;-0.9156;
1362.0000;0.3891;-0.9230;
1362.3000;0.3915;-0.9206;
1362.6000;0.3891;-0.9255;
1362.9000;0.3883;-0.9181;
1363.2000;0.3907;-0.9206;
1363.5000;0.3907;-0.9255;
1363.8000;0.3810;-0.9428;
1364.1000;0.3899;-0.9230;
1364.4000;0.3891;-0.9329;
1364.7000;0.3923;-0.9255;
1365.0000;0.3891;-0.9280;
1365.3000;0.3915;-0.9206;
1365.6000;0.3907;-0.9280;
1365.9000;0.3899;-0.9280;
1366.2000;0.3875;-0.9379;
1366.5000;0.3899;-0.9379;
1366.8000;0.3915;-0.9354;
1367.1000;0.3923;-0.9280;
1367.4000;0.3907;-0.9305;
1367.7000;0.3891;-0.9280;
1368.0000;0.3899;-0.9255;
1368.3000;0.3923;-0.9132;
1368.6000;0.3883;-0.9206;
1368.9000;0.3907;-0.9206;
1369.2000;0.3923;-0.9280;
1369.5000;0.3867;-0.9503;
1369.8000;0.3891;-0.9428;
1370.1000;0.3883;-0.9379;
1370.4000;0.3899;-0.9428;
1370.7000;0.3915;-0.9379;
1371.0000;0.3932;-0.9329;
1371.3000;0.3915;-0.9404;
1371.6000;0.3915;-0.9404;
1371.9000;0.3915;-0.9478;
1372.2000;0.3899;-0.9428;
1372.5000;0.3940;-0.9329;
1372.8000;0.3907;-0.9428;
1373.1000;0.3907;-0.9354;
1373.4000;0.3907;-0.9379;
1373.7000;0.3883;-0.9453;
1374.0000;0.3899;-0.9428;
1374.3000;0.3899;-0.9453;
1374.6000;0.3891;-0.9428;
1374.9000;0.3907;-0.9404;
1375.2000;0.3907;-0.9404;
1375.5000;0.3899;-0.9404;
1375.8000;0.3915;-0.9379;
1376.1000;0.3907;-0.9379;
1376.4000;0.3891;-0.9280;
1376.7000;0.3915;-0.9255;
1377.0000;0.3891;-0.9329;
1377.3000;0.3883;-0.9305;
1377.6000;0.3875;-0.9428;
1377.9000;0.3915;-0.9280;
1378.2000;0.3915;-0.9280;
1378.5000;0.3923;-0.9255;
1378.8000;0.3907;-0.9428;
1379.1000;0.3899;-0.9453;
1379.4000;0.3883;-0.9527;
1379.7000;0.3923;-0.9404;
1380.0000;0.3907;-0.9503;
1380.3000;0.3858;-0.9602;
1380.6000;0.3891;-0.9577;
1380.9000;0.3899;-0.9577;
1381.2000;0.3915;-0.9503;
1381.5000;0.3907;-0.9503;
1381.8000;0.3989;-0.9305;
1382.1000;0.3899;-0.9478;
1382.4000;0.3964;-0.9206;
1382.7000;0.3883;-0.9354;
1383.0000;0.3915;-0.9329;
1383.3000;0.3907;-0.9329;
1383.6000;0.3923;-0.9379;
1383.9000;0.3907;-0.9428;
1384.2000;0.3907;-0.9428;
1384.5000;0.3964;-0.9305;
1384.8000;0.3899;-0.9552;
1385.1000;0.3875;-0.9651;
1385.4000;0.3891;-0.9651;
1385.7000;0.3899;-0.9701;
1386.0000;0.3940;-0.9577;
1386.3000;0.3899;-0.9527;
1386.6000;0.3907;-0.9527;
1386.9000;0.3907;-0.9503;
1387.2000;0.3907;-0.9478;
1387.5000;0.3899;-0.9453;
1387.8000;0.3899;-0.9453;
1388.1000;0.3907;-0.9404;
1388.4000;0.3907;-0.9379;
1388.7000;0.3858;-0.9453;
1389.0000;0.3923;-0.9379;
1389.3000;0.3907;-0.9404;
1389.6000;0.3923;-0.9255;
1389.9000;0.3915;-0.9280;
1390.2000;0.3907;-0.9379;
1390.5000;0.3907;-0.9428;
1390.8000;0.3923;-0.9404;
1391.1000;0.3923;-0.9404;
1391.4000;0.3915;-0.9428;
1391.7000;0.3932;-0.9428;
1392.0000;0.3915;-0.9453;
1392.3000;0.3850;-0.9676;
1392.6000;0.3810;-0.9701;
1392.9000;0.3932;-0.9329;
1393.2000;0.3883;-0.9428;
1393.5000;0.3972;-0.9230;
1393.8000;0.3915;-0.9329;
1394.1000;0.3915;-0.9329;
1394.4000;0.3891;-0.9354;
1394.7000;0.3932;-0.9280;
1395.0000;0.3907;-0.9354;
1395.3000;0.3907;-0.9280;
1395.6000;0.3940;-0.9230;
1395.9000;0.3907;-0.9354;
1396.2000;0.3923;-0.9280;
1396.5000;0.3899;-0.9255;
1396.8000;0.3891;-0.9230;
1397.1000;0.3907;-0.9255;
1397.4000;0.3948;-0.9181;
1397.7000;0.3932;-0.9255;
1398.0000;0.3891;-0.9280;
1398.3000;0.3899;-0.9354;
1398.6000;0.3932;-0.9379;
1398.9000;0.3915;-0.9478;
1399.2000;0.3899;-0.9428;
1399.5000;0.3818;-0.9503;
1399.8000;0.3907;-0.9305;
