time/ms;Fluo/V;P700 deltaI/I x10³;
-199.8000;0.4217;-0.9329;
-199.5000;0.4217;-0.9379;
-199.2000;0.4217;-0.9354;
-198.9000;0.4200;-0.9503;
-198.6000;0.4217;-0.9428;
-198.3000;0.4225;-0.9404;
-198.0000;0.4217;-0.9329;
-197.7000;0.4225;-0.9354;
-197.4000;0.4225;-0.9305;
-197.1000;0.4233;-0.9329;
-196.8000;0.4241;-0.9379;
-196.5000;0.4160;-0.9651;
-196.2000;0.4233;-0.9428;
-195.9000;0.4225;-0.9379;
-195.6000;0.4217;-0.9379;
-195.3000;0.4241;-0.9354;
-195.0000;0.4192;-0.9552;
-194.7000;0.4217;-0.9354;
-194.4000;0.4241;-0.9428;
-194.1000;0.4217;-0.9453;
-193.8000;0.4241;-0.9404;
-193.5000;0.4225;-0.9428;
-193.2000;0.4217;-0.9503;
-192.9000;0.4241;-0.9453;
-192.6000;0.4249;-0.9379;
-192.3000;0.4233;-0.9379;
-192.0000;0.4200;-0.9404;
-191.7000;0.4217;-0.9379;
-191.4000;0.4225;-0.9379;
-191.1000;0.4233;-0.9453;
-190.8000;0.4241;-0.9527;
-190.5000;0.4225;-0.9552;
-190.2000;0.4233;-0.9503;
-189.9000;0.4217;-0.9478;
-189.6000;0.4217;-0.9478;
-189.3000;0.4225;-0.9354;
-189.0000;0.4208;-0.9379;
-188.7000;0.4217;-0.9379;
-188.4000;0.4200;-0.9379;
-188.1000;0.4257;-0.9329;
-187.8000;0.4249;-0.9453;
-187.5000;0.4233;-0.9503;
-187.2000;0.4176;-0.9676;
-186.9000;0.4200;-0.9651;
-186.6000;0.4208;-0.9602;
-186.3000;0.4225;-0.9478;
-186.0000;0.4225;-0.9577;
-185.7000;0.4217;-0.9503;
-185.4000;0.4233;-0.9527;
-185.1000;0.4241;-0.9379;
-184.8000;0.4282;-0.9255;
-184.5000;0.4233;-0.9379;
-184.2000;0.4225;-0.9428;
-183.9000;0.4233;-0.9453;
-183.6000;0.4192;-0.9626;
-183.3000;0.4233;-0.9626;
-183.0000;0.4200;-0.9651;
-182.7000;0.4184;-0.9626;
-182.4000;0.4233;-0.9453;
-182.1000;0.4241;-0.9478;
-181.8000;0.4225;-0.9428;
-181.5000;0.4265;-0.9329;
-181.2000;0.4233;-0.9453;
-180.9000;0.4208;-0.9577;
-180.6000;0.4217;-0.9527;
-180.3000;0.4225;-0.9478;
-180.0000;0.4233;-0.9428;
-179.7000;0.4241;-0.9428;
-179.4000;0.4282;-0.9280;
-179.1000;0.4249;-0.9354;
-178.8000;0.4241;-0.9354;
-178.5000;0.4233;-0.9354;
-178.2000;0.4127;-0.9626;
-177.9000;0.4192;-0.9453;
-177.6000;0.4225;-0.9503;
-177.3000;0.4233;-0.9478;
-177.0000;0.4249;-0.9503;
-176.7000;0.4225;-0.9478;
-176.4000;0.4208;-0.9404;
-176.1000;0.4217;-0.9329;
-175.8000;0.4241;-0.9379;
-175.5000;0.4225;-0.9404;
-175.2000;0.4225;-0.9428;
-174.9000;0.4225;-0.9453;
-174.6000;0.4233;-0.9503;
-174.3000;0.4241;-0.9552;
-174.0000;0.4233;-0.9478;
-173.7000;0.4233;-0.9453;
-173.4000;0.4225;-0.9428;
-173.1000;0.4217;-0.9453;
-172.8000;0.4217;-0.9428;
-172.5000;0.4233;-0.9329;
-172.2000;0.4241;-0.9354;
-171.9000;0.4225;-0.9428;
-171.6000;0.4225;-0.9428;
-171.3000;0.4225;-0.9428;
-171.0000;0.4184;-0.9527;
-170.7000;0.4225;-0.9478;
-170.4000;0.4217;-0.9503;
-170.1000;0.4225;-0.9379;
-169.8000;0.4233;-0.9280;
-169.5000;0.4241;-0.9305;
-169.2000;0.4208;-0.9305;
-168.9000;0.4217;-0.9305;
-168.6000;0.4241;-0.9230;
-168.3000;0.4208;-0.9379;
-168.0000;0.4208;-0.9404;
-167.7000;0.4233;-0.9329;
-167.4000;0.4225;-0.9354;
-167.1000;0.4233;-0.9379;
-166.8000;0.4225;-0.9453;
-166.5000;0.4208;-0.9577;
-166.2000;0.4233;-0.9478;
-165.9000;0.4233;-0.9527;
-165.6000;0.4241;-0.9626;
-165.3000;0.4225;-0.9626;
-165.0000;0.4217;-0.9626;
-164.7000;0.4233;-0.9503;
-164.4000;0.4225;-0.9354;
-164.1000;0.4257;-0.9280;
-163.8000;0.4176;-0.9503;
-163.5000;0.4225;-0.9404;
-163.2000;0.4233;-0.9428;
-162.9000;0.4192;-0.9552;
-162.6000;0.4192;-0.9552;
-162.3000;0.4225;-0.9552;
-162.0000;0.4274;-0.9428;
-161.7000;0.4200;-0.9602;
-161.4000;0.4119;-0.9849;
-161.1000;0.4241;-0.9527;
-160.8000;0.4233;-0.9626;
-160.5000;0.4233;-0.9602;
-160.2000;0.4168;-0.9775;
-159.9000;0.4241;-0.9577;
-159.6000;0.4249;-0.9626;
-159.3000;0.4217;-0.9676;
-159.0000;0.4241;-0.9602;
-158.7000;0.4217;-0.9651;
-158.4000;0.4241;-0.9552;
-158.1000;0.4233;-0.9577;
-157.8000;0.4322;-0.9255;
-157.5000;0.4143;-0.9725;
-157.2000;0.4208;-0.9503;
-156.9000;0.4233;-0.9503;
-156.6000;0.4233;-0.9478;
-156.3000;0.4265;-0.9354;
-156.0000;0.4249;-0.9305;
-155.7000;0.4282;-0.9206;
-155.4000;0.4225;-0.9428;
-155.1000;0.4217;-0.9428;
-154.8000;0.4135;-0.9676;
-154.5000;0.4282;-0.9354;
-154.2000;0.4249;-0.9478;
-153.9000;0.4217;-0.9602;
-153.6000;0.4217;-0.9626;
-153.3000;0.4200;-0.9725;
-153.0000;0.4208;-0.9701;
-152.7000;0.4217;-0.9651;
-152.4000;0.4208;-0.9701;
-152.1000;0.4200;-0.9701;
-151.8000;0.4241;-0.9651;
-151.5000;0.4330;-0.9354;
-151.2000;0.4200;-0.9577;
-150.9000;0.4225;-0.9552;
-150.6000;0.4208;-0.9577;
-150.3000;0.4225;-0.9503;
-150.0000;0.4217;-0.9577;
-149.7000;0.4192;-0.9651;
-149.4000;0.4249;-0.9503;
-149.1000;0.4217;-0.9527;
-148.8000;0.4225;-0.9428;
-148.5000;0.4233;-0.9404;
-148.2000;0.4241;-0.9354;
-147.9000;0.4249;-0.9255;
-147.6000;0.4249;-0.9255;
-147.3000;0.4249;-0.9280;
-147.0000;0.4241;-0.9230;
-146.7000;0.4249;-0.9230;
-146.4000;0.4274;-0.9255;
-146.1000;0.4233;-0.9305;
-145.8000;0.4233;-0.9305;
-145.5000;0.4217;-0.9453;
-145.2000;0.4184;-0.9527;
-144.9000;0.4241;-0.9428;
-144.6000;0.4225;-0.9478;
-144.3000;0.4233;-0.9478;
-144.0000;0.4217;-0.9404;
-143.7000;0.4233;-0.9379;
-143.4000;0.4322;-0.9082;
-143.1000;0.4233;-0.9230;
-142.8000;0.4233;-0.9156;
-142.5000;0.4241;-0.9206;
-142.2000;0.4192;-0.9428;
-141.9000;0.4233;-0.9280;
-141.6000;0.4249;-0.9230;
-141.3000;0.4208;-0.9404;
-141.0000;0.4257;-0.9329;
-140.7000;0.4233;-0.9329;
-140.4000;0.4217;-0.9379;
-140.1000;0.4241;-0.9354;
-139.8000;0.4225;-0.9379;
-139.5000;0.4233;-0.9354;
-139.2000;0.4241;-0.9329;
-138.9000;0.4225;-0.9280;
-138.6000;0.4225;-0.9379;
-138.3000;0.4233;-0.9305;
-138.0000;0.4217;-0.9404;
-137.7000;0.4265;-0.9329;
-137.4000;0.4249;-0.9329;
-137.1000;0.4241;-0.9354;
-136.8000;0.4249;-0.9280;
-136.5000;0.4241;-0.9329;
-136.2000;0.4241;-0.9354;
-135.9000;0.4176;-0.9577;
-135.6000;0.4208;-0.9379;
-135.3000;0.4241;-0.9354;
-135.0000;0.4330;-0.9132;
-134.7000;0.4168;-0.9503;
-134.4000;0.4208;-0.9354;
-134.1000;0.4200;-0.9379;
-133.8000;0.4241;-0.9305;
-133.5000;0.4225;-0.9255;
-133.2000;0.4233;-0.9255;
-132.9000;0.4200;-0.9379;
-132.6000;0.4225;-0.9404;
-132.3000;0.4217;-0.9329;
-132.0000;0.4225;-0.9404;
-131.7000;0.4217;-0.9379;
-131.4000;0.4217;-0.9329;
-131.1000;0.4249;-0.9305;
-130.8000;0.4225;-0.9354;
-130.5000;0.4217;-0.9354;
-130.2000;0.4217;-0.9329;
-129.9000;0.4200;-0.9404;
-129.6000;0.4233;-0.9230;
-129.3000;0.4217;-0.9354;
-129.0000;0.4233;-0.9329;
-128.7000;0.4233;-0.9379;
-128.4000;0.4233;-0.9453;
-128.1000;0.4225;-0.9428;
-127.8000;0.4233;-0.9305;
-127.5000;0.4225;-0.9453;
-127.2000;0.4241;-0.9354;
-126.9000;0.4241;-0.9379;
-126.6000;0.4265;-0.9280;
-126.3000;0.4241;-0.9305;
-126.0000;0.4233;-0.9379;
-125.7000;0.4217;-0.9379;
-125.4000;0.4225;-0.9428;
-125.1000;0.4233;-0.9478;
-124.8000;0.4225;-0.9478;
-124.5000;0.4151;-0.9602;
-124.2000;0.4217;-0.9404;
-123.9000;0.4241;-0.9478;
-123.6000;0.4241;-0.9552;
-123.3000;0.4233;-0.9602;
-123.0000;0.4233;-0.9626;
-122.7000;0.4225;-0.9602;
-122.4000;0.4217;-0.9527;
-122.1000;0.4184;-0.9602;
-121.8000;0.4225;-0.9503;
-121.5000;0.4233;-0.9626;
-121.2000;0.4233;-0.9577;
-120.9000;0.4217;-0.9577;
-120.6000;0.4217;-0.9577;
-120.3000;0.4241;-0.9453;
-120.0000;0.4241;-0.9354;
-119.7000;0.4225;-0.9404;
-119.4000;0.4217;-0.9379;
-119.1000;0.4233;-0.9255;
-118.8000;0.4225;-0.9230;
-118.5000;0.4290;-0.9107;
-118.2000;0.4217;-0.9305;
-117.9000;0.4200;-0.9453;
-117.6000;0.4225;-0.9404;
-117.3000;0.4217;-0.9379;
-117.0000;0.4241;-0.9379;
-116.7000;0.4225;-0.9453;
-116.4000;0.4265;-0.9354;
-116.1000;0.4233;-0.9478;
-115.8000;0.4233;-0.9478;
-115.5000;0.4233;-0.9428;
-115.2000;0.4119;-0.9800;
-114.9000;0.4241;-0.9404;
-114.6000;0.4192;-0.9527;
-114.3000;0.4241;-0.9453;
-114.0000;0.4192;-0.9577;
-113.7000;0.4241;-0.9503;
-113.4000;0.4168;-0.9676;
-113.1000;0.4249;-0.9354;
-112.8000;0.4241;-0.9379;
-112.5000;0.4241;-0.9404;
-112.2000;0.4233;-0.9329;
-111.9000;0.4257;-0.9206;
-111.6000;0.4217;-0.9428;
-111.3000;0.4274;-0.9280;
-111.0000;0.4217;-0.9404;
-110.7000;0.4225;-0.9453;
-110.4000;0.4208;-0.9453;
-110.1000;0.4208;-0.9428;
-109.8000;0.4225;-0.9428;
-109.5000;0.4233;-0.9478;
-109.2000;0.4233;-0.9428;
-108.9000;0.4208;-0.9329;
-108.6000;0.4200;-0.9428;
-108.3000;0.4233;-0.9404;
-108.0000;0.4217;-0.9354;
-107.7000;0.4217;-0.9329;
-107.4000;0.4217;-0.9305;
-107.1000;0.4225;-0.9354;
-106.8000;0.4208;-0.9404;
-106.5000;0.4241;-0.9428;
-106.2000;0.4225;-0.9478;
-105.9000;0.4233;-0.9428;
-105.6000;0.4233;-0.9305;
-105.3000;0.4225;-0.9329;
-105.0000;0.4225;-0.9280;
-104.7000;0.4208;-0.9305;
-104.4000;0.4233;-0.9280;
-104.1000;0.4241;-0.9230;
-103.8000;0.4233;-0.9280;
-103.5000;0.4217;-0.9280;
-103.2000;0.4225;-0.9354;
-102.9000;0.4233;-0.9305;
-102.6000;0.4233;-0.9230;
-102.3000;0.4241;-0.9156;
-102.0000;0.4200;-0.9280;
-101.7000;0.4233;-0.9181;
-101.4000;0.4225;-0.9329;
-101.1000;0.4200;-0.9404;
-100.8000;0.4233;-0.9354;
-100.5000;0.4241;-0.9379;
-100.2000;0.4225;-0.9404;
-99.9000;0.4208;-0.9404;
-99.6000;0.4298;-0.9156;
-99.3000;0.4225;-0.9280;
-99.0000;0.4208;-0.9379;
-98.7000;0.4208;-0.9354;
-98.4000;0.4233;-0.9305;
-98.1000;0.4217;-0.9329;
-97.8000;0.4233;-0.9255;
-97.5000;0.4127;-0.9503;
-97.2000;0.4208;-0.9280;
-96.9000;0.4160;-0.9552;
-96.6000;0.4208;-0.9453;
-96.3000;0.4217;-0.9379;
-96.0000;0.4233;-0.9453;
-95.7000;0.4225;-0.9453;
-95.4000;0.4233;-0.9404;
-95.1000;0.4200;-0.9527;
-94.8000;0.4217;-0.9428;
-94.5000;0.4225;-0.9453;
-94.2000;0.4217;-0.9428;
-93.9000;0.4225;-0.9478;
-93.6000;0.4217;-0.9527;
-93.3000;0.4200;-0.9552;
-93.0000;0.4200;-0.9527;
-92.7000;0.4233;-0.9453;
-92.4000;0.4241;-0.9329;
-92.1000;0.4192;-0.9404;
-91.8000;0.4208;-0.9329;
-91.5000;0.4241;-0.9255;
-91.2000;0.4225;-0.9255;
-90.9000;0.4217;-0.9255;
-90.6000;0.4241;-0.9280;
-90.3000;0.4200;-0.9404;
-90.0000;0.4192;-0.9404;
-89.7000;0.4241;-0.9379;
-89.4000;0.4143;-0.9602;
-89.1000;0.4298;-0.9280;
-88.8000;0.4233;-0.9478;
-88.5000;0.4233;-0.9527;
-88.2000;0.4257;-0.9453;
-87.9000;0.4241;-0.9503;
-87.6000;0.4225;-0.9577;
-87.3000;0.4225;-0.9527;
-87.0000;0.4241;-0.9503;
-86.7000;0.4241;-0.9503;
-86.4000;0.4249;-0.9503;
-86.1000;0.4217;-0.9527;
-85.8000;0.4217;-0.9602;
-85.5000;0.4233;-0.9577;
-85.2000;0.4225;-0.9527;
-84.9000;0.4217;-0.9651;
-84.6000;0.4225;-0.9626;
-84.3000;0.4217;-0.9676;
-84.0000;0.4225;-0.9602;
-83.7000;0.4217;-0.9552;
-83.4000;0.4225;-0.9527;
-83.1000;0.4225;-0.9577;
-82.8000;0.4233;-0.9602;
-82.5000;0.4225;-0.9577;
-82.2000;0.4241;-0.9577;
-81.9000;0.4233;-0.9602;
-81.6000;0.4225;-0.9503;
-81.3000;0.4257;-0.9453;
-81.0000;0.4233;-0.9478;
-80.7000;0.4233;-0.9428;
-80.4000;0.4249;-0.9329;
-80.1000;0.4249;-0.9255;
-79.8000;0.4200;-0.9379;
-79.5000;0.4233;-0.9280;
-79.2000;0.4208;-0.9478;
-78.9000;0.4241;-0.9404;
-78.6000;0.4217;-0.9404;
-78.3000;0.4233;-0.9354;
-78.0000;0.4241;-0.9354;
-77.7000;0.4241;-0.9354;
-77.4000;0.4200;-0.9428;
-77.1000;0.4249;-0.9478;
-76.8000;0.4233;-0.9404;
-76.5000;0.4225;-0.9453;
-76.2000;0.4217;-0.9453;
-75.9000;0.4274;-0.9404;
-75.6000;0.4217;-0.9527;
-75.3000;0.4282;-0.9404;
-75.0000;0.4233;-0.9503;
-74.7000;0.4225;-0.9503;
-74.4000;0.4135;-0.9725;
-74.1000;0.4225;-0.9453;
-73.8000;0.4225;-0.9453;
-73.5000;0.4225;-0.9428;
-73.2000;0.4217;-0.9404;
-72.9000;0.4225;-0.9428;
-72.6000;0.4249;-0.9280;
-72.3000;0.4233;-0.9305;
-72.0000;0.4233;-0.9428;
-71.7000;0.4225;-0.9503;
-71.4000;0.4233;-0.9527;
-71.1000;0.4241;-0.9552;
-70.8000;0.4225;-0.9527;
-70.5000;0.4208;-0.9577;
-70.2000;0.4233;-0.9602;
-69.9000;0.4225;-0.9602;
-69.6000;0.4208;-0.9602;
-69.3000;0.4225;-0.9478;
-69.0000;0.4217;-0.9379;
-68.7000;0.4233;-0.9329;
-68.4000;0.4233;-0.9404;
-68.1000;0.4217;-0.9527;
-67.8000;0.4225;-0.9552;
-67.5000;0.4241;-0.9453;
-67.2000;0.4217;-0.9478;
-66.9000;0.4241;-0.9404;
-66.6000;0.4257;-0.9428;
-66.3000;0.4200;-0.9552;
-66.0000;0.4217;-0.9503;
-65.7000;0.4233;-0.9478;
-65.4000;0.4233;-0.9478;
-65.1000;0.4233;-0.9453;
-64.8000;0.4233;-0.9478;
-64.5000;0.4208;-0.9552;
-64.2000;0.4225;-0.9552;
-63.9000;0.4225;-0.9428;
-63.6000;0.4225;-0.9354;
-63.3000;0.4225;-0.9305;
-63.0000;0.4217;-0.9329;
-62.7000;0.4225;-0.9280;
-62.4000;0.4208;-0.9280;
-62.1000;0.4217;-0.9354;
-61.8000;0.4225;-0.9453;
-61.5000;0.4208;-0.9527;
-61.2000;0.4257;-0.9453;
-60.9000;0.4225;-0.9503;
-60.6000;0.4241;-0.9404;
-60.3000;0.4217;-0.9453;
-60.0000;0.4233;-0.9478;
-59.7000;0.4241;-0.9478;
-59.4000;0.4225;-0.9453;
-59.1000;0.4192;-0.9527;
-58.8000;0.4233;-0.9329;
-58.5000;0.4233;-0.9305;
-58.2000;0.4217;-0.9354;
-57.9000;0.4233;-0.9379;
-57.6000;0.4225;-0.9503;
-57.3000;0.4241;-0.9453;
-57.0000;0.4233;-0.9428;
-56.7000;0.4241;-0.9379;
-56.4000;0.4241;-0.9280;
-56.1000;0.4225;-0.9329;
-55.8000;0.4225;-0.9404;
-55.5000;0.4225;-0.9503;
-55.2000;0.4249;-0.9428;
-54.9000;0.4241;-0.9404;
-54.6000;0.4290;-0.9305;
-54.3000;0.4208;-0.9453;
-54.0000;0.4208;-0.9404;
-53.7000;0.4225;-0.9404;
-53.4000;0.4111;-0.9651;
-53.1000;0.4241;-0.9354;
-52.8000;0.4233;-0.9329;
-52.5000;0.4225;-0.9305;
-52.2000;0.4249;-0.9280;
-51.9000;0.4241;-0.9280;
-51.6000;0.4233;-0.9156;
-51.3000;0.4241;-0.9156;
-51.0000;0.4225;-0.9181;
-50.7000;0.4233;-0.9230;
-50.4000;0.4225;-0.9255;
-50.1000;0.4225;-0.9305;
-49.8000;0.4225;-0.9329;
-49.5000;0.4217;-0.9453;
-49.2000;0.4184;-0.9552;
-48.9000;0.4225;-0.9428;
-48.6000;0.4225;-0.9379;
-48.3000;0.4233;-0.9329;
-48.0000;0.4233;-0.9255;
-47.7000;0.4217;-0.9280;
-47.4000;0.4208;-0.9404;
-47.1000;0.4249;-0.9329;
-46.8000;0.4241;-0.9379;
-46.5000;0.4200;-0.9503;
-46.2000;0.4225;-0.9280;
-45.9000;0.4257;-0.9107;
-45.6000;0.4217;-0.9255;
-45.3000;0.4249;-0.9255;
-45.0000;0.4233;-0.9255;
-44.7000;0.4241;-0.9181;
-44.4000;0.4233;-0.9230;
-44.1000;0.4217;-0.9329;
-43.8000;0.4233;-0.9428;
-43.5000;0.4127;-0.9676;
-43.2000;0.4249;-0.9329;
-42.9000;0.4225;-0.9428;
-42.6000;0.4241;-0.9527;
-42.3000;0.4217;-0.9577;
-42.0000;0.4241;-0.9577;
-41.7000;0.4306;-0.9453;
-41.4000;0.4233;-0.9577;
-41.1000;0.4233;-0.9503;
-40.8000;0.4225;-0.9527;
-40.5000;0.4249;-0.9503;
-40.2000;0.4233;-0.9527;
-39.9000;0.4298;-0.9379;
-39.6000;0.4217;-0.9478;
-39.3000;0.4233;-0.9577;
-39.0000;0.4249;-0.9503;
-38.7000;0.4135;-0.9899;
-38.4000;0.4225;-0.9626;
-38.1000;0.4200;-0.9725;
-37.8000;0.4225;-0.9725;
-37.5000;0.4225;-0.9750;
-37.2000;0.4249;-0.9701;
-36.9000;0.4233;-0.9651;
-36.6000;0.4225;-0.9701;
-36.3000;0.4233;-0.9651;
-36.0000;0.4176;-0.9750;
-35.7000;0.4249;-0.9478;
-35.4000;0.4249;-0.9602;
-35.1000;0.4233;-0.9626;
-34.8000;0.4249;-0.9626;
-34.5000;0.4233;-0.9577;
-34.2000;0.4282;-0.9453;
-33.9000;0.4249;-0.9577;
-33.6000;0.4241;-0.9527;
-33.3000;0.4249;-0.9478;
-33.0000;0.4241;-0.9651;
-32.7000;0.4241;-0.9701;
-32.4000;0.4176;-0.9874;
-32.1000;0.4225;-0.9676;
-31.8000;0.4249;-0.9626;
-31.5000;0.4241;-0.9577;
-31.2000;0.4233;-0.9626;
-30.9000;0.4306;-0.9404;
-30.6000;0.4184;-0.9701;
-30.3000;0.4233;-0.9577;
-30.0000;0.4233;-0.9503;
-29.7000;0.4217;-0.9503;
-29.4000;0.4257;-0.9428;
-29.1000;0.4225;-0.9503;
-28.8000;0.4208;-0.9453;
-28.5000;0.4208;-0.9453;
-28.2000;0.4233;-0.9428;
-27.9000;0.4249;-0.9404;
-27.6000;0.4233;-0.9354;
-27.3000;0.4225;-0.9280;
-27.0000;0.4217;-0.9404;
-26.7000;0.4241;-0.9329;
-26.4000;0.4241;-0.9181;
-26.1000;0.4225;-0.9156;
-25.8000;0.4282;-0.8983;
-25.5000;0.4241;-0.9156;
-25.2000;0.4249;-0.9230;
-24.9000;0.4249;-0.9230;
-24.6000;0.4217;-0.9354;
-24.3000;0.4143;-0.9602;
-24.0000;0.4225;-0.9428;
-23.7000;0.4225;-0.9453;
-23.4000;0.4208;-0.9404;
-23.1000;0.4249;-0.9428;
-22.8000;0.4249;-0.9379;
-22.5000;0.4265;-0.9354;
-22.2000;0.4282;-0.9280;
-21.9000;0.4249;-0.9280;
-21.6000;0.4249;-0.9305;
-21.3000;0.4233;-0.9354;
-21.0000;0.4233;-0.9503;
-20.7000;0.4225;-0.9552;
-20.4000;0.4241;-0.9527;
-20.1000;0.4208;-0.9626;
-19.8000;0.4241;-0.9577;
-19.5000;0.4233;-0.9577;
-19.2000;0.4168;-0.9725;
-18.9000;0.4184;-0.9602;
-18.6000;0.4225;-0.9503;
-18.3000;0.4233;-0.9626;
-18.0000;0.4225;-0.9552;
-17.7000;0.4233;-0.9453;
-17.4000;0.4208;-0.9453;
-17.1000;0.4225;-0.9404;
-16.8000;0.4225;-0.9428;
-16.5000;0.4241;-0.9329;
-16.2000;0.4200;-0.9527;
-15.9000;0.4184;-0.9552;
-15.6000;0.4233;-0.9478;
-15.3000;0.4217;-0.9428;
-15.0000;0.4208;-0.9428;
-14.7000;0.4217;-0.9478;
-14.4000;0.4225;-0.9428;
-14.1000;0.4143;-0.9626;
-13.8000;0.4208;-0.9305;
-13.5000;0.4225;-0.9255;
-13.2000;0.4225;-0.9206;
-12.9000;0.4225;-0.9156;
-12.6000;0.4233;-0.9132;
-12.3000;0.4225;-0.9230;
-12.0000;0.4217;-0.9255;
-11.7000;0.4314;-0.9033;
-11.4000;0.4241;-0.9255;
-11.1000;0.4225;-0.9255;
-10.8000;0.4241;-0.9379;
-10.5000;0.4225;-0.9453;
-10.2000;0.4241;-0.9305;
-9.9000;0.4233;-0.9329;
-9.6000;0.4241;-0.9255;
-9.3000;0.4241;-0.9280;
-9.0000;0.4257;-0.9329;
-8.7000;0.4217;-0.9354;
-8.4000;0.4233;-0.9280;
-8.1000;0.4225;-0.9206;
-7.8000;0.4225;-0.9206;
-7.5000;0.4135;-0.9552;
-7.2000;0.4225;-0.9329;
-6.9000;0.4233;-0.9329;
-6.6000;0.4200;-0.9453;
-6.3000;0.4233;-0.9305;
-6.0000;0.4217;-0.9354;
-5.7000;0.4225;-0.9305;
-5.4000;0.4208;-0.9379;
-5.1000;0.4241;-0.9305;
-4.8000;0.4249;-0.9255;
-4.5000;0.4200;-0.9404;
-4.2000;0.4184;-0.9404;
-3.9000;0.4233;-0.9329;
-3.6000;0.4225;-0.9428;
-3.3000;0.4225;-0.9428;
-3.0000;0.4306;-0.9255;
-2.7000;0.4233;-0.9503;
-2.4000;0.4233;-0.9527;
-2.1000;0.4225;-0.9453;
-1.8000;0.4241;-0.9552;
-1.5000;0.4200;-0.9701;
-1.2000;0.4225;-0.9701;
-0.9000;0.4249;-0.9874;
-0.6000;0.4225;-0.9824;
-0.3000;0.4225;-0.9800;
0.0000;0.4225;-0.9800;
0.3000;0.4436;-0.9478;
0.6000;0.4868;-0.8983;
0.9000;0.5234;-0.8488;
1.2000;0.5535;-0.7968;
1.5000;0.5771;-0.7473;
1.8000;0.5942;-0.7028;
2.1000;0.6072;-0.6731;
2.4000;0.6203;-0.6286;
2.7000;0.6243;-0.6137;
3.0000;0.6349;-0.5890;
3.3000;0.6414;-0.5692;
3.6000;0.6479;-0.5543;
3.9000;0.6504;-0.5395;
4.2000;0.6545;-0.5296;
4.5000;0.6585;-0.5296;
4.8000;0.6610;-0.5321;
5.1000;0.6618;-0.5296;
5.4000;0.6659;-0.5395;
5.7000;0.6691;-0.5420;
6.0000;0.6732;-0.5296;
6.3000;0.6772;-0.5296;
6.6000;0.6797;-0.5321;
6.9000;0.6829;-0.5296;
7.2000;0.6829;-0.5222;
7.5000;0.6821;-0.5172;
7.8000;0.6935;-0.4999;
8.1000;0.6903;-0.5024;
8.4000;0.6903;-0.5024;
8.7000;0.6919;-0.4974;
9.0000;0.6952;-0.4949;
9.3000;0.6968;-0.4974;
9.6000;0.6984;-0.4974;
9.9000;0.7009;-0.4949;
10.2000;0.7033;-0.4949;
10.5000;0.7041;-0.4949;
10.8000;0.7049;-0.5024;
11.1000;0.7082;-0.4949;
11.4000;0.7057;-0.5197;
11.7000;0.7139;-0.5098;
12.0000;0.7131;-0.5246;
12.3000;0.7131;-0.5345;
12.6000;0.7171;-0.5271;
12.9000;0.7171;-0.5246;
13.2000;0.7179;-0.5147;
13.5000;0.7245;-0.5048;
13.8000;0.7228;-0.5073;
14.1000;0.7228;-0.5024;
14.4000;0.7236;-0.4999;
14.7000;0.7236;-0.4974;
15.0000;0.7269;-0.4974;
15.3000;0.7269;-0.4999;
15.6000;0.7334;-0.4974;
15.9000;0.7318;-0.5098;
16.2000;0.7318;-0.5172;
16.5000;0.7326;-0.5147;
16.8000;0.7367;-0.5073;
17.1000;0.7367;-0.5123;
17.4000;0.7367;-0.5073;
17.7000;0.7359;-0.5123;
18.0000;0.7391;-0.5073;
18.3000;0.7407;-0.5024;
18.6000;0.7456;-0.5024;
18.9000;0.7521;-0.4974;
19.2000;0.7464;-0.5147;
19.5000;0.7407;-0.5420;
19.8000;0.7432;-0.5321;
20.1000;0.7464;-0.5345;
20.4000;0.7489;-0.5222;
20.7000;0.7375;-0.5444;
21.0000;0.7473;-0.5271;
21.3000;0.7505;-0.5172;
21.6000;0.7513;-0.5222;
21.9000;0.7521;-0.5271;
22.2000;0.7538;-0.5345;
22.5000;0.7546;-0.5345;
22.8000;0.7538;-0.5370;
23.1000;0.7546;-0.5395;
23.4000;0.7538;-0.5395;
23.7000;0.7578;-0.5296;
24.0000;0.7570;-0.5345;
24.3000;0.7578;-0.5296;
24.6000;0.7586;-0.5246;
24.9000;0.7595;-0.5246;
25.2000;0.7619;-0.5172;
25.5000;0.7652;-0.5123;
25.8000;0.7627;-0.5197;
26.1000;0.7627;-0.5246;
26.4000;0.7643;-0.5172;
26.7000;0.7652;-0.5246;
27.0000;0.7725;-0.4999;
27.3000;0.7652;-0.5222;
27.6000;0.7660;-0.5370;
27.9000;0.7668;-0.5370;
28.2000;0.7652;-0.5469;
28.5000;0.7700;-0.5420;
28.8000;0.7668;-0.5518;
29.1000;0.7676;-0.5420;
29.4000;0.7700;-0.5395;
29.7000;0.7733;-0.5370;
30.0000;0.7709;-0.5518;
30.3000;0.7717;-0.5469;
30.6000;0.7725;-0.5469;
30.9000;0.7733;-0.5568;
31.2000;0.7733;-0.5593;
31.5000;0.7774;-0.5494;
31.8000;0.7757;-0.5518;
32.1000;0.7749;-0.5444;
32.4000;0.7749;-0.5494;
32.7000;0.7774;-0.5469;
33.0000;0.7757;-0.5469;
33.3000;0.7757;-0.5444;
33.6000;0.7757;-0.5395;
33.9000;0.7774;-0.5469;
34.2000;0.7774;-0.5543;
34.5000;0.7766;-0.5593;
34.8000;0.7774;-0.5766;
35.1000;0.7814;-0.5741;
35.4000;0.7798;-0.5865;
35.7000;0.7806;-0.5939;
36.0000;0.7831;-0.5914;
36.3000;0.7831;-0.5989;
36.6000;0.7814;-0.6038;
36.9000;0.7839;-0.6038;
37.2000;0.7847;-0.5939;
37.5000;0.7969;-0.5667;
37.8000;0.7855;-0.5840;
38.1000;0.7863;-0.5766;
38.4000;0.7831;-0.5791;
38.7000;0.7880;-0.5716;
39.0000;0.7880;-0.5766;
39.3000;0.7863;-0.5791;
39.6000;0.7880;-0.5692;
39.9000;0.7904;-0.5642;
40.2000;0.7896;-0.5716;
40.5000;0.7953;-0.5617;
40.8000;0.7904;-0.5791;
41.1000;0.7888;-0.5865;
41.4000;0.7904;-0.5890;
41.7000;0.7896;-0.5914;
42.0000;0.7912;-0.5914;
42.3000;0.7920;-0.5964;
42.6000;0.7863;-0.6088;
42.9000;0.7888;-0.5964;
43.2000;0.7912;-0.5939;
43.5000;0.7928;-0.6013;
43.8000;0.7977;-0.5939;
44.1000;0.7937;-0.6112;
44.4000;0.7928;-0.6013;
44.7000;0.7953;-0.5865;
45.0000;0.7953;-0.5815;
45.3000;0.7945;-0.5939;
45.6000;0.7961;-0.5989;
45.9000;0.7969;-0.5989;
46.2000;0.7969;-0.5890;
46.5000;0.7985;-0.5865;
46.8000;0.7985;-0.5890;
47.1000;0.7969;-0.5914;
47.4000;0.7985;-0.5890;
47.7000;0.7985;-0.5890;
48.0000;0.8002;-0.5890;
48.3000;0.7985;-0.5865;
48.6000;0.8002;-0.5914;
48.9000;0.8010;-0.5939;
49.2000;0.8018;-0.6013;
49.5000;0.7969;-0.6211;
49.8000;0.8042;-0.6063;
50.1000;0.8026;-0.6162;
50.4000;0.8034;-0.6187;
50.7000;0.8034;-0.6162;
51.0000;0.8042;-0.6038;
51.3000;0.8042;-0.6013;
51.6000;0.8042;-0.6063;
51.9000;0.8010;-0.6137;
52.2000;0.8050;-0.6088;
52.5000;0.8050;-0.6063;
52.8000;0.8050;-0.6112;
53.1000;0.8034;-0.6162;
53.4000;0.8026;-0.6187;
53.7000;0.8050;-0.6137;
54.0000;0.8075;-0.6187;
54.3000;0.8067;-0.6261;
54.6000;0.8067;-0.6211;
54.9000;0.8083;-0.6261;
55.2000;0.8083;-0.6261;
55.5000;0.8075;-0.6211;
55.8000;0.8067;-0.6211;
56.1000;0.8091;-0.6137;
56.4000;0.8099;-0.6112;
56.7000;0.8132;-0.6063;
57.0000;0.8107;-0.6162;
57.3000;0.8107;-0.6162;
57.6000;0.8132;-0.6187;
57.9000;0.8124;-0.6261;
58.2000;0.8116;-0.6286;
58.5000;0.8124;-0.6211;
58.8000;0.8132;-0.6261;
59.1000;0.8164;-0.6286;
59.4000;0.8140;-0.6310;
59.7000;0.8140;-0.6335;
60.0000;0.8181;-0.6310;
60.3000;0.8164;-0.6360;
60.6000;0.8189;-0.6286;
60.9000;0.8148;-0.6385;
61.2000;0.8164;-0.6286;
61.5000;0.8148;-0.6335;
61.8000;0.8173;-0.6236;
62.1000;0.8189;-0.6211;
62.4000;0.8148;-0.6236;
62.7000;0.8205;-0.6112;
63.0000;0.8197;-0.6187;
63.3000;0.8173;-0.6335;
63.6000;0.8197;-0.6360;
63.9000;0.8197;-0.6385;
64.2000;0.8189;-0.6434;
64.5000;0.8181;-0.6459;
64.8000;0.8205;-0.6409;
65.1000;0.8213;-0.6385;
65.4000;0.8205;-0.6484;
65.7000;0.8189;-0.6558;
66.0000;0.8205;-0.6508;
66.3000;0.8205;-0.6558;
66.6000;0.8197;-0.6583;
66.9000;0.8230;-0.6607;
67.2000;0.8238;-0.6632;
67.5000;0.8230;-0.6682;
67.8000;0.8287;-0.6607;
68.1000;0.8246;-0.6657;
68.4000;0.8238;-0.6682;
68.7000;0.8254;-0.6731;
69.0000;0.8246;-0.6756;
69.3000;0.8270;-0.6756;
69.6000;0.8270;-0.6805;
69.9000;0.8262;-0.6781;
70.2000;0.8270;-0.6781;
70.5000;0.8270;-0.6781;
70.8000;0.8287;-0.6731;
71.1000;0.8254;-0.6805;
71.4000;0.8270;-0.6805;
71.7000;0.8278;-0.6682;
72.0000;0.8287;-0.6682;
72.3000;0.8295;-0.6756;
72.6000;0.8278;-0.6805;
72.9000;0.8295;-0.6781;
73.2000;0.8278;-0.6855;
73.5000;0.8303;-0.6805;
73.8000;0.8303;-0.6805;
74.1000;0.8327;-0.6682;
74.4000;0.8303;-0.6706;
74.7000;0.8303;-0.6706;
75.0000;0.8295;-0.6706;
75.3000;0.8319;-0.6731;
75.6000;0.8311;-0.6657;
75.9000;0.8311;-0.6756;
76.2000;0.8409;-0.6533;
76.5000;0.8352;-0.6632;
76.8000;0.8327;-0.6731;
77.1000;0.8319;-0.6756;
77.4000;0.8327;-0.6706;
77.7000;0.8319;-0.6805;
78.0000;0.8278;-0.6954;
78.3000;0.8352;-0.6805;
78.6000;0.8335;-0.6781;
78.9000;0.8335;-0.6756;
79.2000;0.8344;-0.6805;
79.5000;0.8327;-0.6880;
79.8000;0.8335;-0.6830;
80.1000;0.8344;-0.6756;
80.4000;0.8335;-0.6781;
80.7000;0.8352;-0.6731;
81.0000;0.8352;-0.6682;
81.3000;0.8352;-0.6682;
81.6000;0.8376;-0.6657;
81.9000;0.8392;-0.6632;
82.2000;0.8482;-0.6409;
82.5000;0.8368;-0.6731;
82.8000;0.8368;-0.6657;
83.1000;0.8384;-0.6607;
83.4000;0.8384;-0.6558;
83.7000;0.8392;-0.6632;
84.0000;0.8376;-0.6632;
84.3000;0.8466;-0.6484;
84.6000;0.8384;-0.6756;
84.9000;0.8384;-0.6805;
85.2000;0.8376;-0.6805;
85.5000;0.8376;-0.6781;
85.8000;0.8409;-0.6682;
86.1000;0.8376;-0.6657;
86.4000;0.8400;-0.6607;
86.7000;0.8409;-0.6607;
87.0000;0.8400;-0.6607;
87.3000;0.8409;-0.6607;
87.6000;0.8392;-0.6731;
87.9000;0.8417;-0.6682;
88.2000;0.8409;-0.6830;
88.5000;0.8409;-0.6880;
88.8000;0.8400;-0.6904;
89.1000;0.8400;-0.6929;
89.4000;0.8417;-0.6880;
89.7000;0.8417;-0.6979;
90.0000;0.8417;-0.6880;
90.3000;0.8400;-0.6880;
90.6000;0.8417;-0.6880;
90.9000;0.8425;-0.6830;
91.2000;0.8441;-0.6929;
91.5000;0.8417;-0.6929;
91.8000;0.8425;-0.6929;
92.1000;0.8417;-0.6979;
92.4000;0.8441;-0.7003;
92.7000;0.8433;-0.7078;
93.0000;0.8417;-0.7102;
93.3000;0.8433;-0.7078;
93.6000;0.8466;-0.7053;
93.9000;0.8441;-0.7003;
94.2000;0.8425;-0.7078;
94.5000;0.8498;-0.6979;
94.8000;0.8400;-0.7251;
95.1000;0.8466;-0.7078;
95.4000;0.8441;-0.7127;
95.7000;0.8441;-0.7152;
96.0000;0.8523;-0.6929;
96.3000;0.8449;-0.7078;
96.6000;0.8384;-0.7226;
96.9000;0.8457;-0.7003;
97.2000;0.8506;-0.6830;
97.5000;0.8457;-0.6929;
97.8000;0.8555;-0.6682;
98.1000;0.8457;-0.6904;
98.4000;0.8466;-0.6929;
98.7000;0.8490;-0.6880;
99.0000;0.8466;-0.7028;
99.3000;0.8449;-0.6979;
99.6000;0.8490;-0.6805;
99.9000;0.8466;-0.6880;
100.2000;0.8490;-0.6880;
100.5000;0.8474;-0.7028;
100.8000;0.8474;-0.7127;
101.1000;0.8441;-0.7276;
101.4000;0.8474;-0.7102;
101.7000;0.8482;-0.7102;
102.0000;0.8482;-0.7053;
102.3000;0.8506;-0.6954;
102.6000;0.8498;-0.6954;
102.9000;0.8474;-0.7028;
103.2000;0.8449;-0.7053;
103.5000;0.8384;-0.7127;
103.8000;0.8498;-0.6805;
104.1000;0.8368;-0.7102;
104.4000;0.8474;-0.6929;
104.7000;0.8498;-0.6929;
105.0000;0.8474;-0.7003;
105.3000;0.8531;-0.6904;
105.6000;0.8490;-0.7078;
105.9000;0.8474;-0.7053;
106.2000;0.8531;-0.6979;
106.5000;0.8482;-0.7078;
106.8000;0.8490;-0.7028;
107.1000;0.8490;-0.7028;
107.4000;0.8506;-0.6979;
107.7000;0.8514;-0.7003;
108.0000;0.8506;-0.7078;
108.3000;0.8506;-0.7127;
108.6000;0.8498;-0.7127;
108.9000;0.8482;-0.7152;
109.2000;0.8482;-0.7127;
109.5000;0.8482;-0.7053;
109.8000;0.8514;-0.6954;
110.1000;0.8523;-0.6880;
110.4000;0.8498;-0.6855;
110.7000;0.8514;-0.6880;
111.0000;0.8490;-0.6904;
111.3000;0.8506;-0.6954;
111.6000;0.8506;-0.6979;
111.9000;0.8523;-0.7078;
112.2000;0.8498;-0.7127;
112.5000;0.8490;-0.7152;
112.8000;0.8449;-0.7300;
113.1000;0.8514;-0.7003;
113.4000;0.8514;-0.7053;
113.7000;0.8498;-0.7028;
114.0000;0.8514;-0.7028;
114.3000;0.8490;-0.7127;
114.6000;0.8531;-0.6979;
114.9000;0.8498;-0.7003;
115.2000;0.8498;-0.6979;
115.5000;0.8514;-0.6979;
115.8000;0.8506;-0.6904;
116.1000;0.8498;-0.6929;
116.4000;0.8523;-0.6929;
116.7000;0.8490;-0.7003;
117.0000;0.8490;-0.7078;
117.3000;0.8506;-0.7003;
117.6000;0.8539;-0.7003;
117.9000;0.8514;-0.7102;
118.2000;0.8523;-0.7078;
118.5000;0.8514;-0.7102;
118.8000;0.8563;-0.6979;
119.1000;0.8531;-0.6954;
119.4000;0.8506;-0.7003;
119.7000;0.8514;-0.7127;
120.0000;0.8498;-0.7127;
120.3000;0.8514;-0.7053;
120.6000;0.8490;-0.7102;
120.9000;0.8514;-0.7127;
121.2000;0.8523;-0.7078;
121.5000;0.8523;-0.6954;
121.8000;0.8580;-0.6855;
122.1000;0.8514;-0.7028;
122.4000;0.8523;-0.7003;
122.7000;0.8523;-0.6954;
123.0000;0.8523;-0.6979;
123.3000;0.8523;-0.7028;
123.6000;0.8523;-0.7053;
123.9000;0.8588;-0.6929;
124.2000;0.8531;-0.7003;
124.5000;0.8523;-0.7028;
124.8000;0.8514;-0.7028;
125.1000;0.8531;-0.6954;
125.4000;0.8539;-0.6929;
125.7000;0.8531;-0.6979;
126.0000;0.8531;-0.6904;
126.3000;0.8514;-0.7053;
126.6000;0.8531;-0.7028;
126.9000;0.8531;-0.7102;
127.2000;0.8523;-0.7127;
127.5000;0.8523;-0.7102;
127.8000;0.8523;-0.7003;
128.1000;0.8490;-0.7127;
128.4000;0.8514;-0.6979;
128.7000;0.8539;-0.7078;
129.0000;0.8539;-0.6979;
129.3000;0.8555;-0.6979;
129.6000;0.8514;-0.6979;
129.9000;0.8523;-0.7003;
130.2000;0.8531;-0.6979;
130.5000;0.8555;-0.6979;
130.8000;0.8531;-0.7053;
131.1000;0.8539;-0.7053;
131.4000;0.8523;-0.6979;
131.7000;0.8555;-0.6904;
132.0000;0.8547;-0.6904;
132.3000;0.8523;-0.7003;
132.6000;0.8523;-0.7028;
132.9000;0.8596;-0.6830;
133.2000;0.8539;-0.6830;
133.5000;0.8555;-0.6830;
133.8000;0.8514;-0.6904;
134.1000;0.8531;-0.6954;
134.4000;0.8539;-0.6929;
134.7000;0.8506;-0.7028;
135.0000;0.8514;-0.7028;
135.3000;0.8539;-0.6855;
135.6000;0.8506;-0.6979;
135.9000;0.8523;-0.6805;
136.2000;0.8523;-0.6830;
136.5000;0.8604;-0.6583;
136.8000;0.8539;-0.6756;
137.1000;0.8523;-0.6805;
137.4000;0.8523;-0.6805;
137.7000;0.8531;-0.6830;
138.0000;0.8531;-0.6781;
138.3000;0.8539;-0.6756;
138.6000;0.8514;-0.6805;
138.9000;0.8539;-0.6781;
139.2000;0.8523;-0.6756;
139.5000;0.8539;-0.6781;
139.8000;0.8539;-0.6756;
140.1000;0.8514;-0.6855;
140.4000;0.8539;-0.6805;
140.7000;0.8539;-0.6756;
141.0000;0.8588;-0.6607;
141.3000;0.8531;-0.6830;
141.6000;0.8539;-0.6904;
141.9000;0.8547;-0.6805;
142.2000;0.8531;-0.6682;
142.5000;0.8563;-0.6558;
142.8000;0.8523;-0.6731;
143.1000;0.8539;-0.6805;
143.4000;0.8539;-0.6805;
143.7000;0.8523;-0.6805;
144.0000;0.8506;-0.6781;
144.3000;0.8563;-0.6607;
144.6000;0.8547;-0.6607;
144.9000;0.8531;-0.6706;
145.2000;0.8531;-0.6756;
145.5000;0.8547;-0.6781;
145.8000;0.8555;-0.6781;
146.1000;0.8539;-0.6706;
146.4000;0.8547;-0.6706;
146.7000;0.8523;-0.6731;
147.0000;0.8539;-0.6756;
147.3000;0.8490;-0.6880;
147.6000;0.8514;-0.6756;
147.9000;0.8596;-0.6533;
148.2000;0.8539;-0.6731;
148.5000;0.8523;-0.6756;
148.8000;0.8523;-0.6781;
149.1000;0.8531;-0.6682;
149.4000;0.8547;-0.6706;
149.7000;0.8547;-0.6657;
150.0000;0.8539;-0.6756;
150.3000;0.8531;-0.6805;
150.6000;0.8563;-0.6682;
150.9000;0.8531;-0.6781;
151.2000;0.8555;-0.6855;
151.5000;0.8474;-0.7053;
151.8000;0.8531;-0.6929;
152.1000;0.8539;-0.6904;
152.4000;0.8506;-0.6929;
152.7000;0.8506;-0.6904;
153.0000;0.8523;-0.6929;
153.3000;0.8547;-0.6880;
153.6000;0.8523;-0.6880;
153.9000;0.8539;-0.6880;
154.2000;0.8531;-0.6904;
154.5000;0.8547;-0.6805;
154.8000;0.8531;-0.6781;
155.1000;0.8514;-0.6880;
155.4000;0.8523;-0.6954;
155.7000;0.8506;-0.7028;
156.0000;0.8523;-0.6979;
156.3000;0.8531;-0.6979;
156.6000;0.8490;-0.6954;
156.9000;0.8506;-0.6954;
157.2000;0.8523;-0.6904;
157.5000;0.8620;-0.6558;
157.8000;0.8531;-0.6781;
158.1000;0.8531;-0.6756;
158.4000;0.8539;-0.6805;
158.7000;0.8449;-0.6979;
159.0000;0.8539;-0.6781;
159.3000;0.8523;-0.6731;
159.6000;0.8531;-0.6731;
159.9000;0.8523;-0.6756;
160.2000;0.8523;-0.6781;
160.5000;0.8523;-0.6781;
160.8000;0.8514;-0.6830;
161.1000;0.8531;-0.6830;
161.4000;0.8539;-0.6830;
161.7000;0.8531;-0.6904;
162.0000;0.8523;-0.6904;
162.3000;0.8531;-0.6830;
162.6000;0.8523;-0.6855;
162.9000;0.8498;-0.6855;
163.2000;0.8514;-0.6781;
163.5000;0.8523;-0.6682;
163.8000;0.8523;-0.6607;
164.1000;0.8523;-0.6607;
164.4000;0.8514;-0.6583;
164.7000;0.8514;-0.6533;
165.0000;0.8531;-0.6484;
165.3000;0.8555;-0.6484;
165.6000;0.8531;-0.6607;
165.9000;0.8514;-0.6607;
166.2000;0.8523;-0.6632;
166.5000;0.8523;-0.6657;
166.8000;0.8523;-0.6632;
167.1000;0.8498;-0.6682;
167.4000;0.8514;-0.6607;
167.7000;0.8531;-0.6657;
168.0000;0.8531;-0.6632;
168.3000;0.8498;-0.6682;
168.6000;0.8523;-0.6657;
168.9000;0.8425;-0.6904;
169.2000;0.8523;-0.6583;
169.5000;0.8523;-0.6607;
169.8000;0.8523;-0.6682;
170.1000;0.8523;-0.6657;
170.4000;0.8514;-0.6756;
170.7000;0.8498;-0.6830;
171.0000;0.8514;-0.6904;
171.3000;0.8514;-0.6929;
171.6000;0.8506;-0.6929;
171.9000;0.8506;-0.6855;
172.2000;0.8498;-0.6880;
172.5000;0.8514;-0.6830;
172.8000;0.8498;-0.6855;
173.1000;0.8498;-0.6830;
173.4000;0.8498;-0.6805;
173.7000;0.8539;-0.6731;
174.0000;0.8490;-0.6855;
174.3000;0.8506;-0.6830;
174.6000;0.8498;-0.6830;
174.9000;0.8490;-0.6830;
175.2000;0.8523;-0.6830;
175.5000;0.8498;-0.6929;
175.8000;0.8482;-0.6979;
176.1000;0.8523;-0.6929;
176.4000;0.8498;-0.6855;
176.7000;0.8498;-0.6855;
177.0000;0.8498;-0.6830;
177.3000;0.8490;-0.6880;
177.6000;0.8531;-0.6855;
177.9000;0.8490;-0.6979;
178.2000;0.8498;-0.7028;
178.5000;0.8490;-0.7003;
178.8000;0.8514;-0.6954;
179.1000;0.8523;-0.6929;
179.4000;0.8514;-0.6954;
179.7000;0.8498;-0.7028;
180.0000;0.8506;-0.7003;
180.3000;0.8506;-0.7003;
180.6000;0.8506;-0.7053;
180.9000;0.8474;-0.7152;
181.2000;0.8498;-0.7102;
181.5000;0.8482;-0.7127;
181.8000;0.8514;-0.7053;
182.1000;0.8498;-0.7003;
182.4000;0.8498;-0.6979;
182.7000;0.8457;-0.6979;
183.0000;0.8490;-0.6880;
183.3000;0.8474;-0.6904;
183.6000;0.8482;-0.6954;
183.9000;0.8482;-0.6904;
184.2000;0.8506;-0.6830;
184.5000;0.8506;-0.6805;
184.8000;0.8482;-0.6904;
185.1000;0.8498;-0.6830;
185.4000;0.8514;-0.6830;
185.7000;0.8482;-0.6805;
186.0000;0.8498;-0.6880;
186.3000;0.8482;-0.6929;
186.6000;0.8523;-0.6904;
186.9000;0.8482;-0.6855;
187.2000;0.8490;-0.6855;
187.5000;0.8474;-0.6855;
187.8000;0.8474;-0.6855;
188.1000;0.8482;-0.6756;
188.4000;0.8441;-0.6929;
188.7000;0.8490;-0.6756;
189.0000;0.8466;-0.6781;
189.3000;0.8514;-0.6706;
189.6000;0.8523;-0.6731;
189.9000;0.8498;-0.6731;
190.2000;0.8457;-0.6855;
190.5000;0.8514;-0.6657;
190.8000;0.8498;-0.6706;
191.1000;0.8417;-0.7028;
191.4000;0.8474;-0.6954;
191.7000;0.8490;-0.6929;
192.0000;0.8498;-0.6929;
192.3000;0.8498;-0.6880;
192.6000;0.8498;-0.6929;
192.9000;0.8539;-0.6855;
193.2000;0.8498;-0.7003;
193.5000;0.8498;-0.6904;
193.8000;0.8514;-0.6855;
194.1000;0.8466;-0.6929;
194.4000;0.8490;-0.6880;
194.7000;0.8482;-0.6904;
195.0000;0.8490;-0.6904;
195.3000;0.8482;-0.6830;
195.6000;0.8482;-0.6830;
195.9000;0.8514;-0.6731;
196.2000;0.8466;-0.6756;
196.5000;0.8466;-0.6706;
196.8000;0.8490;-0.6706;
197.1000;0.8490;-0.6682;
197.4000;0.8498;-0.6632;
197.7000;0.8466;-0.6682;
198.0000;0.8482;-0.6657;
198.3000;0.8474;-0.6657;
198.6000;0.8498;-0.6583;
198.9000;0.8474;-0.6731;
199.2000;0.8474;-0.6731;
199.5000;0.8498;-0.6731;
199.8000;0.8466;-0.6855;
200.1000;0.8498;-0.6731;
200.4000;0.8474;-0.6682;
200.7000;0.8490;-0.6756;
201.0000;0.8482;-0.6756;
201.3000;0.8482;-0.6706;
201.6000;0.8466;-0.6706;
201.9000;0.8449;-0.6781;
202.2000;0.8474;-0.6756;
202.5000;0.8482;-0.6756;
202.8000;0.8490;-0.6682;
203.1000;0.8474;-0.6657;
203.4000;0.8474;-0.6632;
203.7000;0.8474;-0.6558;
204.0000;0.8474;-0.6533;
204.3000;0.8474;-0.6508;
204.6000;0.8498;-0.6508;
204.9000;0.8457;-0.6558;
205.2000;0.8474;-0.6360;
205.5000;0.8490;-0.6335;
205.8000;0.8482;-0.6409;
206.1000;0.8482;-0.6385;
206.4000;0.8457;-0.6434;
206.7000;0.8514;-0.6360;
207.0000;0.8474;-0.6533;
207.3000;0.8466;-0.6583;
207.6000;0.8474;-0.6583;
207.9000;0.8466;-0.6706;
208.2000;0.8490;-0.6632;
208.5000;0.8482;-0.6632;
208.8000;0.8457;-0.6607;
209.1000;0.8449;-0.6632;
209.4000;0.8457;-0.6657;
209.7000;0.8466;-0.6558;
210.0000;0.8474;-0.6508;
210.3000;0.8474;-0.6434;
210.6000;0.8466;-0.6409;
210.9000;0.8498;-0.6385;
211.2000;0.8449;-0.6607;
211.5000;0.8457;-0.6583;
211.8000;0.8474;-0.6533;
212.1000;0.8457;-0.6632;
212.4000;0.8466;-0.6558;
212.7000;0.8466;-0.6508;
213.0000;0.8466;-0.6459;
213.3000;0.8457;-0.6533;
213.6000;0.8466;-0.6409;
213.9000;0.8466;-0.6459;
214.2000;0.8490;-0.6385;
214.5000;0.8368;-0.6756;
214.8000;0.8457;-0.6657;
215.1000;0.8457;-0.6657;
215.4000;0.8466;-0.6682;
215.7000;0.8466;-0.6657;
216.0000;0.8457;-0.6607;
216.3000;0.8482;-0.6558;
216.6000;0.8490;-0.6484;
216.9000;0.8474;-0.6484;
217.2000;0.8506;-0.6286;
217.5000;0.8490;-0.6335;
217.8000;0.8457;-0.6409;
218.1000;0.8474;-0.6409;
218.4000;0.8457;-0.6360;
218.7000;0.8474;-0.6385;
219.0000;0.8514;-0.6211;
219.3000;0.8441;-0.6385;
219.6000;0.8441;-0.6434;
219.9000;0.8457;-0.6484;
220.2000;0.8449;-0.6508;
220.5000;0.8474;-0.6508;
220.8000;0.8449;-0.6583;
221.1000;0.8474;-0.6607;
221.4000;0.8457;-0.6657;
221.7000;0.8466;-0.6607;
222.0000;0.8449;-0.6558;
222.3000;0.8457;-0.6360;
222.6000;0.8457;-0.6409;
222.9000;0.8457;-0.6459;
223.2000;0.8466;-0.6607;
223.5000;0.8449;-0.6657;
223.8000;0.8449;-0.6632;
224.1000;0.8514;-0.6360;
224.4000;0.8441;-0.6484;
224.7000;0.8449;-0.6558;
225.0000;0.8441;-0.6657;
225.3000;0.8466;-0.6533;
225.6000;0.8449;-0.6607;
225.9000;0.8457;-0.6583;
226.2000;0.8457;-0.6583;
226.5000;0.8409;-0.6706;
226.8000;0.8449;-0.6583;
227.1000;0.8449;-0.6508;
227.4000;0.8457;-0.6409;
227.7000;0.8457;-0.6385;
228.0000;0.8449;-0.6360;
228.3000;0.8433;-0.6335;
228.6000;0.8392;-0.6459;
228.9000;0.8449;-0.6459;
229.2000;0.8441;-0.6434;
229.5000;0.8384;-0.6607;
229.8000;0.8425;-0.6508;
230.1000;0.8425;-0.6508;
230.4000;0.8449;-0.6434;
230.7000;0.8441;-0.6434;
231.0000;0.8433;-0.6434;
231.3000;0.8457;-0.6409;
231.6000;0.8449;-0.6434;
231.9000;0.8425;-0.6508;
232.2000;0.8425;-0.6508;
232.5000;0.8466;-0.6508;
232.8000;0.8441;-0.6459;
233.1000;0.8441;-0.6484;
233.4000;0.8441;-0.6459;
233.7000;0.8441;-0.6360;
234.0000;0.8441;-0.6310;
234.3000;0.8474;-0.6310;
234.6000;0.8433;-0.6459;
234.9000;0.8441;-0.6484;
235.2000;0.8457;-0.6459;
235.5000;0.8474;-0.6385;
235.8000;0.8449;-0.6360;
236.1000;0.8433;-0.6335;
236.4000;0.8425;-0.6409;
236.7000;0.8441;-0.6385;
237.0000;0.8433;-0.6409;
237.3000;0.8441;-0.6533;
237.6000;0.8441;-0.6558;
237.9000;0.8441;-0.6533;
238.2000;0.8457;-0.6409;
238.5000;0.8433;-0.6385;
238.8000;0.8441;-0.6286;
239.1000;0.8457;-0.6286;
239.4000;0.8425;-0.6385;
239.7000;0.8449;-0.6409;
240.0000;0.8433;-0.6558;
240.3000;0.8457;-0.6459;
240.6000;0.8449;-0.6533;
240.9000;0.8433;-0.6533;
241.2000;0.8417;-0.6558;
241.5000;0.8457;-0.6533;
241.8000;0.8457;-0.6508;
242.1000;0.8425;-0.6558;
242.4000;0.8441;-0.6583;
242.7000;0.8441;-0.6558;
243.0000;0.8425;-0.6682;
243.3000;0.8433;-0.6632;
243.6000;0.8425;-0.6682;
243.9000;0.8555;-0.6409;
244.2000;0.8433;-0.6781;
244.5000;0.8441;-0.6706;
244.8000;0.8409;-0.6781;
245.1000;0.8441;-0.6682;
245.4000;0.8417;-0.6731;
245.7000;0.8441;-0.6706;
246.0000;0.8425;-0.6731;
246.3000;0.8425;-0.6632;
246.6000;0.8368;-0.6781;
246.9000;0.8441;-0.6632;
247.2000;0.8425;-0.6632;
247.5000;0.8368;-0.6830;
247.8000;0.8441;-0.6682;
248.1000;0.8433;-0.6657;
248.4000;0.8360;-0.6830;
248.7000;0.8392;-0.6682;
249.0000;0.8457;-0.6484;
249.3000;0.8441;-0.6484;
249.6000;0.8303;-0.6830;
249.9000;0.8417;-0.6558;
250.2000;0.8376;-0.6632;
250.5000;0.8482;-0.6409;
250.8000;0.8449;-0.6360;
251.1000;0.8425;-0.6484;
251.4000;0.8425;-0.6533;
251.7000;0.8425;-0.6533;
252.0000;0.8441;-0.6385;
252.3000;0.8417;-0.6335;
252.6000;0.8400;-0.6211;
252.9000;0.8433;-0.6211;
253.2000;0.8417;-0.6360;
253.5000;0.8457;-0.6286;
253.8000;0.8360;-0.6508;
254.1000;0.8449;-0.6335;
254.4000;0.8441;-0.6434;
254.7000;0.8417;-0.6434;
255.0000;0.8433;-0.6409;
255.3000;0.8433;-0.6459;
255.6000;0.8425;-0.6409;
255.9000;0.8433;-0.6484;
256.2000;0.8409;-0.6508;
256.5000;0.8409;-0.6385;
256.8000;0.8433;-0.6286;
257.1000;0.8425;-0.6261;
257.4000;0.8425;-0.6286;
257.7000;0.8425;-0.6310;
258.0000;0.8433;-0.6261;
258.3000;0.8441;-0.6261;
258.6000;0.8400;-0.6310;
258.9000;0.8425;-0.6434;
259.2000;0.8409;-0.6484;
259.5000;0.8441;-0.6385;
259.8000;0.8392;-0.6558;
260.1000;0.8409;-0.6533;
260.4000;0.8417;-0.6533;
260.7000;0.8409;-0.6484;
261.0000;0.8400;-0.6484;
261.3000;0.8409;-0.6434;
261.6000;0.8400;-0.6434;
261.9000;0.8425;-0.6360;
262.2000;0.8433;-0.6459;
262.5000;0.8409;-0.6583;
262.8000;0.8417;-0.6632;
263.1000;0.8433;-0.6632;
263.4000;0.8368;-0.6682;
263.7000;0.8409;-0.6484;
264.0000;0.8409;-0.6484;
264.3000;0.8400;-0.6409;
264.6000;0.8466;-0.6211;
264.9000;0.8400;-0.6360;
265.2000;0.8400;-0.6434;
265.5000;0.8400;-0.6385;
265.8000;0.8417;-0.6459;
266.1000;0.8433;-0.6459;
266.4000;0.8409;-0.6459;
266.7000;0.8368;-0.6533;
267.0000;0.8392;-0.6484;
267.3000;0.8400;-0.6434;
267.6000;0.8482;-0.6261;
267.9000;0.8409;-0.6484;
268.2000;0.8417;-0.6533;
268.5000;0.8384;-0.6682;
268.8000;0.8425;-0.6657;
269.1000;0.8409;-0.6682;
269.4000;0.8457;-0.6409;
269.7000;0.8433;-0.6409;
270.0000;0.8392;-0.6459;
270.3000;0.8392;-0.6484;
270.6000;0.8335;-0.6682;
270.9000;0.8441;-0.6409;
271.2000;0.8392;-0.6508;
271.5000;0.8425;-0.6533;
271.8000;0.8376;-0.6508;
272.1000;0.8400;-0.6459;
272.4000;0.8368;-0.6385;
272.7000;0.8327;-0.6583;
273.0000;0.8400;-0.6310;
273.3000;0.8417;-0.6335;
273.6000;0.8425;-0.6310;
273.9000;0.8352;-0.6459;
274.2000;0.8392;-0.6286;
274.5000;0.8392;-0.6236;
274.8000;0.8409;-0.6211;
275.1000;0.8400;-0.6286;
275.4000;0.8392;-0.6335;
275.7000;0.8409;-0.6286;
276.0000;0.8392;-0.6335;
276.3000;0.8425;-0.6360;
276.6000;0.8400;-0.6459;
276.9000;0.8376;-0.6459;
277.2000;0.8400;-0.6385;
277.5000;0.8417;-0.6434;
277.8000;0.8417;-0.6459;
278.1000;0.8400;-0.6459;
278.4000;0.8417;-0.6409;
278.7000;0.8409;-0.6434;
279.0000;0.8409;-0.6434;
279.3000;0.8392;-0.6409;
279.6000;0.8409;-0.6385;
279.9000;0.8376;-0.6409;
280.2000;0.8409;-0.6310;
280.5000;0.8433;-0.6335;
280.8000;0.8400;-0.6434;
281.1000;0.8384;-0.6385;
281.4000;0.8376;-0.6434;
281.7000;0.8392;-0.6459;
282.0000;0.8384;-0.6484;
282.3000;0.8409;-0.6385;
282.6000;0.8400;-0.6261;
282.9000;0.8335;-0.6533;
283.2000;0.8400;-0.6385;
283.5000;0.8392;-0.6385;
283.8000;0.8400;-0.6409;
284.1000;0.8392;-0.6385;
284.4000;0.8270;-0.6607;
284.7000;0.8384;-0.6360;
285.0000;0.8400;-0.6558;
285.3000;0.8392;-0.6632;
285.6000;0.8376;-0.6632;
285.9000;0.8384;-0.6558;
286.2000;0.8376;-0.6533;
286.5000;0.8392;-0.6484;
286.8000;0.8384;-0.6459;
287.1000;0.8376;-0.6434;
287.4000;0.8409;-0.6335;
287.7000;0.8384;-0.6286;
288.0000;0.8376;-0.6409;
288.3000;0.8392;-0.6434;
288.6000;0.8384;-0.6385;
288.9000;0.8482;-0.6162;
289.2000;0.8352;-0.6533;
289.5000;0.8400;-0.6335;
289.8000;0.8368;-0.6360;
290.1000;0.8400;-0.6261;
290.4000;0.8384;-0.6211;
290.7000;0.8376;-0.6088;
291.0000;0.8384;-0.6137;
291.3000;0.8384;-0.6187;
291.6000;0.8400;-0.6137;
291.9000;0.8392;-0.6187;
292.2000;0.8400;-0.6310;
292.5000;0.8376;-0.6434;
292.8000;0.8400;-0.6385;
293.1000;0.8392;-0.6409;
293.4000;0.8384;-0.6286;
293.7000;0.8384;-0.6211;
294.0000;0.8409;-0.6187;
294.3000;0.8376;-0.6236;
294.6000;0.8368;-0.6261;
294.9000;0.8376;-0.6261;
295.2000;0.8384;-0.6236;
295.5000;0.8466;-0.5989;
295.8000;0.8368;-0.6310;
296.1000;0.8368;-0.6335;
296.4000;0.8376;-0.6310;
296.7000;0.8376;-0.6310;
297.0000;0.8400;-0.6236;
297.3000;0.8360;-0.6459;
297.6000;0.8376;-0.6459;
297.9000;0.8425;-0.6335;
298.2000;0.8376;-0.6360;
298.5000;0.8376;-0.6434;
298.8000;0.8384;-0.6385;
299.1000;0.8384;-0.6409;
299.4000;0.8360;-0.6533;
299.7000;0.8368;-0.6484;
300.0000;0.8360;-0.6409;
300.3000;0.8400;-0.6335;
300.6000;0.8384;-0.6459;
300.9000;0.8352;-0.6459;
301.2000;0.8368;-0.6434;
301.5000;0.8360;-0.6484;
301.8000;0.8360;-0.6508;
302.1000;0.8368;-0.6484;
302.4000;0.8376;-0.6459;
302.7000;0.8392;-0.6409;
303.0000;0.8392;-0.6434;
303.3000;0.8384;-0.6459;
303.6000;0.8376;-0.6459;
303.9000;0.8441;-0.6310;
304.2000;0.8409;-0.6286;
304.5000;0.8335;-0.6360;
304.8000;0.8368;-0.6310;
305.1000;0.8392;-0.6236;
305.4000;0.8368;-0.6310;
305.7000;0.8376;-0.6335;
306.0000;0.8368;-0.6385;
306.3000;0.8368;-0.6335;
306.6000;0.8376;-0.6360;
306.9000;0.8384;-0.6385;
307.2000;0.8368;-0.6360;
307.5000;0.8376;-0.6286;
307.8000;0.8360;-0.6211;
308.1000;0.8392;-0.6211;
308.4000;0.8466;-0.6013;
308.7000;0.8360;-0.6360;
309.0000;0.8417;-0.6261;
309.3000;0.8360;-0.6385;
309.6000;0.8376;-0.6385;
309.9000;0.8417;-0.6335;
310.2000;0.8384;-0.6385;
310.5000;0.8376;-0.6434;
310.8000;0.8368;-0.6409;
311.1000;0.8335;-0.6484;
311.4000;0.8352;-0.6434;
311.7000;0.8344;-0.6459;
312.0000;0.8360;-0.6385;
312.3000;0.8376;-0.6335;
312.6000;0.8360;-0.6310;
312.9000;0.8368;-0.6286;
313.2000;0.8352;-0.6385;
313.5000;0.8360;-0.6310;
313.8000;0.8376;-0.6385;
314.1000;0.8384;-0.6310;
314.4000;0.8352;-0.6360;
314.7000;0.8360;-0.6360;
315.0000;0.8344;-0.6409;
315.3000;0.8311;-0.6508;
315.6000;0.8425;-0.6286;
315.9000;0.8376;-0.6360;
316.2000;0.8352;-0.6360;
316.5000;0.8352;-0.6286;
316.8000;0.8360;-0.6310;
317.1000;0.8352;-0.6335;
317.4000;0.8344;-0.6310;
317.7000;0.8352;-0.6211;
318.0000;0.8360;-0.6211;
318.3000;0.8344;-0.6310;
318.6000;0.8360;-0.6286;
318.9000;0.8360;-0.6286;
319.2000;0.8392;-0.6286;
319.5000;0.8344;-0.6335;
319.8000;0.8352;-0.6286;
320.1000;0.8335;-0.6335;
320.4000;0.8433;-0.6112;
320.7000;0.8352;-0.6335;
321.0000;0.8368;-0.6286;
321.3000;0.8335;-0.6434;
321.6000;0.8270;-0.6533;
321.9000;0.8368;-0.6286;
322.2000;0.8384;-0.6261;
322.5000;0.8360;-0.6286;
322.8000;0.8344;-0.6385;
323.1000;0.8384;-0.6335;
323.4000;0.8352;-0.6385;
323.7000;0.8335;-0.6310;
324.0000;0.8335;-0.6335;
324.3000;0.8360;-0.6310;
324.6000;0.8360;-0.6335;
324.9000;0.8335;-0.6434;
325.2000;0.8335;-0.6409;
325.5000;0.8327;-0.6385;
325.8000;0.8352;-0.6385;
326.1000;0.8335;-0.6385;
326.4000;0.8360;-0.6286;
326.7000;0.8360;-0.6286;
327.0000;0.8327;-0.6360;
327.3000;0.8360;-0.6335;
327.6000;0.8352;-0.6286;
327.9000;0.8352;-0.6236;
328.2000;0.8352;-0.6236;
328.5000;0.8344;-0.6187;
328.8000;0.8368;-0.6187;
329.1000;0.8327;-0.6211;
329.4000;0.8319;-0.6137;
329.7000;0.8352;-0.5989;
330.0000;0.8360;-0.6063;
330.3000;0.8335;-0.6112;
330.6000;0.8352;-0.6137;
330.9000;0.8376;-0.6137;
331.2000;0.8352;-0.6162;
331.5000;0.8335;-0.6261;
331.8000;0.8327;-0.6310;
332.1000;0.8344;-0.6286;
332.4000;0.8344;-0.6236;
332.7000;0.8344;-0.6187;
333.0000;0.8344;-0.6211;
333.3000;0.8344;-0.6137;
333.6000;0.8360;-0.5964;
333.9000;0.8319;-0.6013;
334.2000;0.8327;-0.6013;
334.5000;0.8344;-0.6088;
334.8000;0.8344;-0.6063;
335.1000;0.8287;-0.6187;
335.4000;0.8327;-0.6088;
335.7000;0.8335;-0.6211;
336.0000;0.8360;-0.6112;
336.3000;0.8311;-0.6310;
336.6000;0.8457;-0.5939;
336.9000;0.8335;-0.6261;
337.2000;0.8335;-0.6211;
337.5000;0.8335;-0.6137;
337.8000;0.8409;-0.5964;
338.1000;0.8303;-0.6137;
338.4000;0.8335;-0.5939;
338.7000;0.8352;-0.5890;
339.0000;0.8327;-0.5865;
339.3000;0.8335;-0.5865;
339.6000;0.8295;-0.6038;
339.9000;0.8360;-0.5890;
340.2000;0.8344;-0.5890;
340.5000;0.8319;-0.5989;
340.8000;0.8311;-0.6063;
341.1000;0.8344;-0.5964;
341.4000;0.8392;-0.5865;
341.7000;0.8287;-0.6112;
342.0000;0.8335;-0.6013;
342.3000;0.8327;-0.6038;
342.6000;0.8319;-0.6112;
342.9000;0.8311;-0.6187;
343.2000;0.8335;-0.6088;
343.5000;0.8344;-0.6063;
343.8000;0.8360;-0.6038;
344.1000;0.8344;-0.6063;
344.4000;0.8327;-0.6112;
344.7000;0.8295;-0.6261;
345.0000;0.8327;-0.6187;
345.3000;0.8352;-0.6112;
345.6000;0.8344;-0.6236;
345.9000;0.8449;-0.6063;
346.2000;0.8344;-0.6310;
346.5000;0.8344;-0.6286;
346.8000;0.8327;-0.6286;
347.1000;0.8335;-0.6236;
347.4000;0.8335;-0.6211;
347.7000;0.8400;-0.6088;
348.0000;0.8319;-0.6187;
348.3000;0.8344;-0.6112;
348.6000;0.8344;-0.6088;
348.9000;0.8335;-0.6187;
349.2000;0.8335;-0.6187;
349.5000;0.8335;-0.6236;
349.8000;0.8335;-0.6112;
350.1000;0.8335;-0.6038;
350.4000;0.8319;-0.6063;
350.7000;0.8327;-0.6088;
351.0000;0.8327;-0.6038;
351.3000;0.8327;-0.6013;
351.6000;0.8335;-0.6038;
351.9000;0.8327;-0.6063;
352.2000;0.8327;-0.6063;
352.5000;0.8327;-0.6063;
352.8000;0.8352;-0.6063;
353.1000;0.8335;-0.6063;
353.4000;0.8335;-0.6038;
353.7000;0.8327;-0.6038;
354.0000;0.8352;-0.5914;
354.3000;0.8335;-0.5989;
354.6000;0.8311;-0.6088;
354.9000;0.8327;-0.6038;
355.2000;0.8344;-0.5989;
355.5000;0.8368;-0.5939;
355.8000;0.8278;-0.6112;
356.1000;0.8287;-0.6088;
356.4000;0.8327;-0.6013;
356.7000;0.8327;-0.6088;
357.0000;0.8311;-0.6162;
357.3000;0.8319;-0.6187;
357.6000;0.8311;-0.6137;
357.9000;0.8319;-0.6112;
358.2000;0.8311;-0.6013;
358.5000;0.8303;-0.6038;
358.8000;0.8335;-0.6013;
359.1000;0.8311;-0.6063;
359.4000;0.8311;-0.6137;
359.7000;0.8303;-0.6137;
360.0000;0.8319;-0.6063;
360.3000;0.8287;-0.6162;
360.6000;0.8319;-0.6063;
360.9000;0.8319;-0.6063;
361.2000;0.8327;-0.6038;
361.5000;0.8360;-0.6063;
361.8000;0.8319;-0.6162;
362.1000;0.8311;-0.6211;
362.4000;0.8303;-0.6162;
362.7000;0.8303;-0.6187;
363.0000;0.8335;-0.6038;
363.3000;0.8319;-0.6063;
363.6000;0.8319;-0.6088;
363.9000;0.8335;-0.6038;
364.2000;0.8335;-0.5989;
364.5000;0.8335;-0.6137;
364.8000;0.8335;-0.6211;
365.1000;0.8360;-0.6261;
365.4000;0.8311;-0.6360;
365.7000;0.8295;-0.6360;
366.0000;0.8344;-0.6162;
366.3000;0.8327;-0.6286;
366.6000;0.8360;-0.6211;
366.9000;0.8311;-0.6261;
367.2000;0.8311;-0.6211;
367.5000;0.8319;-0.6187;
367.8000;0.8392;-0.6088;
368.1000;0.8319;-0.6286;
368.4000;0.8319;-0.6409;
368.7000;0.8311;-0.6310;
369.0000;0.8278;-0.6236;
369.3000;0.8327;-0.6137;
369.6000;0.8311;-0.6236;
369.9000;0.8335;-0.6162;
370.2000;0.8303;-0.6236;
370.5000;0.8327;-0.6162;
370.8000;0.8319;-0.6137;
371.1000;0.8360;-0.6038;
371.4000;0.8319;-0.6088;
371.7000;0.8319;-0.6137;
372.0000;0.8311;-0.6063;
372.3000;0.8303;-0.5939;
372.6000;0.8319;-0.5989;
372.9000;0.8311;-0.5914;
373.2000;0.8319;-0.5939;
373.5000;0.8295;-0.6088;
373.8000;0.8327;-0.6063;
374.1000;0.8303;-0.6137;
374.4000;0.8319;-0.6088;
374.7000;0.8327;-0.6038;
375.0000;0.8319;-0.6063;
375.3000;0.8303;-0.6063;
375.6000;0.8303;-0.6162;
375.9000;0.8319;-0.6187;
376.2000;0.8303;-0.6236;
376.5000;0.8344;-0.6112;
376.8000;0.8311;-0.6211;
377.1000;0.8327;-0.6211;
377.4000;0.8327;-0.6187;
377.7000;0.8303;-0.6261;
378.0000;0.8270;-0.6459;
378.3000;0.8327;-0.6286;
378.6000;0.8319;-0.6286;
378.9000;0.8303;-0.6286;
379.2000;0.8344;-0.6088;
379.5000;0.8311;-0.6211;
379.8000;0.8311;-0.6286;
380.1000;0.8295;-0.6310;
380.4000;0.8311;-0.6236;
380.7000;0.8311;-0.6236;
381.0000;0.8311;-0.6261;
381.3000;0.8319;-0.6236;
381.6000;0.8311;-0.6236;
381.9000;0.8295;-0.6187;
382.2000;0.8352;-0.6038;
382.5000;0.8295;-0.6112;
382.8000;0.8335;-0.5989;
383.1000;0.8335;-0.5964;
383.4000;0.8303;-0.6013;
383.7000;0.8303;-0.6013;
384.0000;0.8295;-0.6038;
384.3000;0.8303;-0.6038;
384.6000;0.8295;-0.6088;
384.9000;0.8327;-0.6063;
385.2000;0.8303;-0.6162;
385.5000;0.8287;-0.6261;
385.8000;0.8327;-0.6261;
386.1000;0.8327;-0.6162;
386.4000;0.8303;-0.6286;
386.7000;0.8287;-0.6236;
387.0000;0.8303;-0.6162;
387.3000;0.8319;-0.6063;
387.6000;0.8319;-0.5989;
387.9000;0.8295;-0.6063;
388.2000;0.8319;-0.6013;
388.5000;0.8278;-0.6187;
388.8000;0.8327;-0.6038;
389.1000;0.8287;-0.6038;
389.4000;0.8295;-0.6038;
389.7000;0.8303;-0.6038;
390.0000;0.8303;-0.6038;
390.3000;0.8295;-0.6088;
390.6000;0.8278;-0.6236;
390.9000;0.8278;-0.6286;
391.2000;0.8303;-0.6236;
391.5000;0.8270;-0.6286;
391.8000;0.8287;-0.6286;
392.1000;0.8303;-0.6187;
392.4000;0.8303;-0.6211;
392.7000;0.8303;-0.6286;
393.0000;0.8303;-0.6187;
393.3000;0.8303;-0.6211;
393.6000;0.8295;-0.6187;
393.9000;0.8409;-0.5840;
394.2000;0.8303;-0.6162;
394.5000;0.8278;-0.6236;
394.8000;0.8303;-0.6211;
395.1000;0.8295;-0.6137;
395.4000;0.8287;-0.6088;
395.7000;0.8287;-0.6013;
396.0000;0.8287;-0.6063;
396.3000;0.8303;-0.6038;
396.6000;0.8287;-0.6088;
396.9000;0.8295;-0.6162;
397.2000;0.8278;-0.6112;
397.5000;0.8278;-0.6112;
397.8000;0.8303;-0.6063;
398.1000;0.8287;-0.6038;
398.4000;0.8287;-0.6013;
398.7000;0.8303;-0.6013;
399.0000;0.8344;-0.5964;
399.3000;0.8303;-0.6063;
399.6000;0.8270;-0.6063;
399.9000;0.8278;-0.6088;
400.2000;0.8295;-0.6088;
400.5000;0.8246;-0.6137;
400.8000;0.8278;-0.6038;
401.1000;0.8303;-0.5989;
401.4000;0.8254;-0.6187;
401.7000;0.8319;-0.5964;
402.0000;0.8311;-0.5939;
402.3000;0.8287;-0.6013;
402.6000;0.8262;-0.6013;
402.9000;0.8295;-0.5890;
403.2000;0.8270;-0.5890;
403.5000;0.8270;-0.5964;
403.8000;0.8311;-0.5914;
404.1000;0.8287;-0.5964;
404.4000;0.8295;-0.6013;
404.7000;0.8295;-0.6038;
405.0000;0.8311;-0.5890;
405.3000;0.8303;-0.5964;
405.6000;0.8303;-0.5865;
405.9000;0.8287;-0.5989;
406.2000;0.8221;-0.6211;
406.5000;0.8303;-0.5939;
406.8000;0.8295;-0.5939;
407.1000;0.8303;-0.5964;
407.4000;0.8270;-0.6088;
407.7000;0.8287;-0.6038;
408.0000;0.8270;-0.6112;
408.3000;0.8327;-0.6038;
408.6000;0.8295;-0.6038;
408.9000;0.8270;-0.6063;
409.2000;0.8295;-0.6112;
409.5000;0.8287;-0.6063;
409.8000;0.8295;-0.6013;
410.1000;0.8295;-0.5989;
410.4000;0.8327;-0.5914;
410.7000;0.8311;-0.6013;
411.0000;0.8287;-0.6137;
411.3000;0.8278;-0.6112;
411.6000;0.8287;-0.6112;
411.9000;0.8303;-0.6162;
412.2000;0.8278;-0.6187;
412.5000;0.8278;-0.6112;
412.8000;0.8270;-0.6187;
413.1000;0.8327;-0.6063;
413.4000;0.8287;-0.6137;
413.7000;0.8303;-0.6162;
414.0000;0.8327;-0.6088;
414.3000;0.8278;-0.6286;
414.6000;0.8230;-0.6360;
414.9000;0.8197;-0.6385;
415.2000;0.8278;-0.6112;
415.5000;0.8319;-0.5989;
415.8000;0.8270;-0.6038;
416.1000;0.8197;-0.6187;
416.4000;0.8295;-0.5840;
416.7000;0.8278;-0.5914;
417.0000;0.8303;-0.5865;
417.3000;0.8287;-0.5914;
417.6000;0.8278;-0.5964;
417.9000;0.8287;-0.5989;
418.2000;0.8287;-0.6038;
418.5000;0.8295;-0.5890;
418.8000;0.8295;-0.5939;
419.1000;0.8213;-0.6112;
419.4000;0.8287;-0.5989;
419.7000;0.8262;-0.6063;
420.0000;0.8311;-0.5989;
420.3000;0.8295;-0.6038;
420.6000;0.8287;-0.6063;
420.9000;0.8287;-0.6063;
421.2000;0.8295;-0.5964;
421.5000;0.8295;-0.5964;
421.8000;0.8278;-0.5939;
422.1000;0.8303;-0.5939;
422.4000;0.8278;-0.5964;
422.7000;0.8278;-0.5964;
423.0000;0.8303;-0.5939;
423.3000;0.8270;-0.6038;
423.6000;0.8246;-0.6063;
423.9000;0.8295;-0.6063;
424.2000;0.8287;-0.6088;
424.5000;0.8189;-0.6360;
424.8000;0.8287;-0.6261;
425.1000;0.8295;-0.6261;
425.4000;0.8303;-0.6286;
425.7000;0.8278;-0.6310;
426.0000;0.8287;-0.6335;
426.3000;0.8278;-0.6310;
426.6000;0.8295;-0.6211;
426.9000;0.8287;-0.6211;
427.2000;0.8270;-0.6112;
427.5000;0.8278;-0.5964;
427.8000;0.8278;-0.5939;
428.1000;0.8287;-0.5964;
428.4000;0.8262;-0.6038;
428.7000;0.8319;-0.5989;
429.0000;0.8270;-0.6211;
429.3000;0.8270;-0.6137;
429.6000;0.8270;-0.6088;
429.9000;0.8295;-0.6038;
430.2000;0.8287;-0.6088;
430.5000;0.8287;-0.6063;
430.8000;0.8295;-0.5964;
431.1000;0.8295;-0.5890;
431.4000;0.8270;-0.5914;
431.7000;0.8278;-0.5815;
432.0000;0.8287;-0.5716;
432.3000;0.8287;-0.5593;
432.6000;0.8295;-0.5593;
432.9000;0.8295;-0.5617;
433.2000;0.8303;-0.5692;
433.5000;0.8262;-0.5840;
433.8000;0.8270;-0.5791;
434.1000;0.8262;-0.5766;
434.4000;0.8262;-0.5766;
434.7000;0.8262;-0.5791;
435.0000;0.8287;-0.5766;
435.3000;0.8278;-0.5840;
435.6000;0.8238;-0.5865;
435.9000;0.8270;-0.5716;
436.2000;0.8262;-0.5766;
436.5000;0.8270;-0.5716;
436.8000;0.8311;-0.5617;
437.1000;0.8262;-0.5766;
437.4000;0.8287;-0.5692;
437.7000;0.8230;-0.5815;
438.0000;0.8238;-0.5741;
438.3000;0.8270;-0.5617;
438.6000;0.8262;-0.5716;
438.9000;0.8246;-0.5766;
439.2000;0.8254;-0.5741;
439.5000;0.8278;-0.5766;
439.8000;0.8221;-0.5914;
440.1000;0.8254;-0.5791;
440.4000;0.8262;-0.5642;
440.7000;0.8287;-0.5617;
441.0000;0.8213;-0.5766;
441.3000;0.8278;-0.5593;
441.6000;0.8278;-0.5593;
441.9000;0.8327;-0.5395;
442.2000;0.8278;-0.5543;
442.5000;0.8262;-0.5642;
442.8000;0.8278;-0.5692;
443.1000;0.8295;-0.5667;
443.4000;0.8295;-0.5716;
443.7000;0.8270;-0.5766;
444.0000;0.8254;-0.5815;
444.3000;0.8246;-0.5791;
444.6000;0.8270;-0.5716;
444.9000;0.8303;-0.5667;
445.2000;0.8254;-0.5840;
445.5000;0.8270;-0.5840;
445.8000;0.8213;-0.6013;
446.1000;0.8278;-0.5815;
446.4000;0.8278;-0.5840;
446.7000;0.8270;-0.5890;
447.0000;0.8278;-0.5865;
447.3000;0.8278;-0.5865;
447.6000;0.8230;-0.5939;
447.9000;0.8270;-0.5791;
448.2000;0.8270;-0.5766;
448.5000;0.8295;-0.5741;
448.8000;0.8254;-0.5890;
449.1000;0.8262;-0.5914;
449.4000;0.8262;-0.5840;
449.7000;0.8270;-0.5865;
450.0000;0.8270;-0.5815;
450.3000;0.8246;-0.5890;
450.6000;0.8246;-0.5890;
450.9000;0.8246;-0.5840;
451.2000;0.8270;-0.5865;
451.5000;0.8270;-0.5791;
451.8000;0.8238;-0.5840;
452.1000;0.8197;-0.5914;
452.4000;0.8262;-0.5692;
452.7000;0.8262;-0.5667;
453.0000;0.8246;-0.5716;
453.3000;0.8278;-0.5692;
453.6000;0.8254;-0.5815;
453.9000;0.8254;-0.5840;
454.2000;0.8246;-0.5865;
454.5000;0.8278;-0.5840;
454.8000;0.8270;-0.5791;
455.1000;0.8287;-0.5890;
455.4000;0.8262;-0.5964;
455.7000;0.8262;-0.6112;
456.0000;0.8278;-0.5989;
456.3000;0.8335;-0.5914;
456.6000;0.8221;-0.6137;
456.9000;0.8270;-0.5964;
457.2000;0.8278;-0.5914;
457.5000;0.8246;-0.6013;
457.8000;0.8278;-0.5914;
458.1000;0.8270;-0.5865;
458.4000;0.8262;-0.5840;
458.7000;0.8254;-0.5865;
459.0000;0.8238;-0.5939;
459.3000;0.8246;-0.5890;
459.6000;0.8270;-0.5890;
459.9000;0.8262;-0.5939;
460.2000;0.8254;-0.5964;
460.5000;0.8205;-0.6162;
460.8000;0.8238;-0.6211;
461.1000;0.8213;-0.6211;
461.4000;0.8262;-0.6038;
461.7000;0.8213;-0.6137;
462.0000;0.8205;-0.6112;
462.3000;0.8254;-0.5964;
462.6000;0.8221;-0.6063;
462.9000;0.8246;-0.5964;
463.2000;0.8262;-0.5890;
463.5000;0.8238;-0.5840;
463.8000;0.8278;-0.5692;
464.1000;0.8262;-0.5840;
464.4000;0.8254;-0.5766;
464.7000;0.8254;-0.5815;
465.0000;0.8246;-0.5840;
465.3000;0.8262;-0.5914;
465.6000;0.8254;-0.5890;
465.9000;0.8254;-0.5964;
466.2000;0.8254;-0.5939;
466.5000;0.8254;-0.5989;
466.8000;0.8254;-0.5914;
467.1000;0.8246;-0.5815;
467.4000;0.8254;-0.5840;
467.7000;0.8262;-0.5939;
468.0000;0.8254;-0.5890;
468.3000;0.8262;-0.5890;
468.6000;0.8254;-0.5890;
468.9000;0.8262;-0.5815;
469.2000;0.8254;-0.5865;
469.5000;0.8254;-0.5840;
469.8000;0.8246;-0.5815;
470.1000;0.8238;-0.5914;
470.4000;0.8262;-0.5865;
470.7000;0.8254;-0.5865;
471.0000;0.8254;-0.5865;
471.3000;0.8254;-0.5914;
471.6000;0.8254;-0.6063;
471.9000;0.8246;-0.5939;
472.2000;0.8270;-0.5865;
472.5000;0.8270;-0.5741;
472.8000;0.8270;-0.5840;
473.1000;0.8287;-0.5815;
473.4000;0.8262;-0.5939;
473.7000;0.8254;-0.6013;
474.0000;0.8254;-0.5964;
474.3000;0.8254;-0.5914;
474.6000;0.8230;-0.5964;
474.9000;0.8254;-0.5964;
475.2000;0.8238;-0.5964;
475.5000;0.8254;-0.5865;
475.8000;0.8254;-0.5865;
476.1000;0.8213;-0.5964;
476.4000;0.8230;-0.5890;
476.7000;0.8262;-0.5815;
477.0000;0.8246;-0.5840;
477.3000;0.8238;-0.5815;
477.6000;0.8262;-0.5815;
477.9000;0.8270;-0.5840;
478.2000;0.8262;-0.5815;
478.5000;0.8246;-0.5939;
478.8000;0.8221;-0.6112;
479.1000;0.8221;-0.5939;
479.4000;0.8246;-0.5840;
479.7000;0.8311;-0.5716;
480.0000;0.8246;-0.5914;
480.3000;0.8254;-0.5815;
480.6000;0.8278;-0.5766;
480.9000;0.8238;-0.5815;
481.2000;0.8246;-0.5840;
481.5000;0.8246;-0.5766;
481.8000;0.8254;-0.5741;
482.1000;0.8230;-0.5890;
482.4000;0.8230;-0.5914;
482.7000;0.8270;-0.5815;
483.0000;0.8278;-0.5865;
483.3000;0.8254;-0.5865;
483.6000;0.8246;-0.5914;
483.9000;0.8238;-0.5939;
484.2000;0.8246;-0.5890;
484.5000;0.8246;-0.5939;
484.8000;0.8246;-0.5989;
485.1000;0.8230;-0.5989;
485.4000;0.8230;-0.5964;
485.7000;0.8262;-0.5865;
486.0000;0.8238;-0.5964;
486.3000;0.8238;-0.5964;
486.6000;0.8246;-0.5865;
486.9000;0.8254;-0.5865;
487.2000;0.8254;-0.5890;
487.5000;0.8246;-0.5865;
487.8000;0.8311;-0.5716;
488.1000;0.8262;-0.5840;
488.4000;0.8254;-0.5890;
488.7000;0.8246;-0.5989;
489.0000;0.8246;-0.5964;
489.3000;0.8254;-0.5989;
489.6000;0.8278;-0.6013;
489.9000;0.8254;-0.6013;
490.2000;0.8238;-0.6038;
490.5000;0.8230;-0.6137;
490.8000;0.8254;-0.5964;
491.1000;0.8238;-0.5964;
491.4000;0.8262;-0.5865;
491.7000;0.8246;-0.5939;
492.0000;0.8254;-0.5865;
492.3000;0.8221;-0.5939;
492.6000;0.8230;-0.5890;
492.9000;0.8246;-0.5815;
493.2000;0.8254;-0.5741;
493.5000;0.8262;-0.5766;
493.8000;0.8238;-0.5815;
494.1000;0.8230;-0.5791;
494.4000;0.8254;-0.5840;
494.7000;0.8262;-0.5840;
495.0000;0.8246;-0.5865;
495.3000;0.8246;-0.5865;
495.6000;0.8238;-0.5766;
495.9000;0.8238;-0.5791;
496.2000;0.8230;-0.5791;
496.5000;0.8238;-0.5815;
496.8000;0.8221;-0.5914;
497.1000;0.8246;-0.5840;
497.4000;0.8246;-0.5865;
497.7000;0.8221;-0.5914;
498.0000;0.8221;-0.5914;
498.3000;0.8164;-0.6088;
498.6000;0.8238;-0.5890;
498.9000;0.8238;-0.5964;
499.2000;0.8262;-0.5815;
499.5000;0.8230;-0.5914;
499.8000;0.8246;-0.5914;
500.1000;0.8181;-0.6112;
500.4000;0.8238;-0.5890;
500.7000;0.8173;-0.5914;
501.0000;0.8221;-0.5741;
501.3000;0.8181;-0.5840;
501.6000;0.8213;-0.5766;
501.9000;0.8230;-0.5840;
502.2000;0.8238;-0.5791;
502.5000;0.8254;-0.5716;
502.8000;0.8254;-0.5840;
503.1000;0.8246;-0.5890;
503.4000;0.8238;-0.5890;
503.7000;0.8238;-0.5815;
504.0000;0.8221;-0.5840;
504.3000;0.8230;-0.5815;
504.6000;0.8230;-0.5815;
504.9000;0.8246;-0.5642;
505.2000;0.8221;-0.5791;
505.5000;0.8230;-0.5741;
505.8000;0.8230;-0.5791;
506.1000;0.8230;-0.5791;
506.4000;0.8295;-0.5692;
506.7000;0.8254;-0.5914;
507.0000;0.8230;-0.5964;
507.3000;0.8254;-0.5890;
507.6000;0.8238;-0.5914;
507.9000;0.8221;-0.6063;
508.2000;0.8221;-0.6013;
508.5000;0.8221;-0.5989;
508.8000;0.8230;-0.5989;
509.1000;0.8230;-0.5939;
509.4000;0.8230;-0.5939;
509.7000;0.8221;-0.6013;
510.0000;0.8221;-0.6063;
510.3000;0.8221;-0.6013;
510.6000;0.8213;-0.5939;
510.9000;0.8327;-0.5642;
511.2000;0.8238;-0.5791;
511.5000;0.8221;-0.5791;
511.8000;0.8213;-0.5890;
512.1000;0.8197;-0.5840;
512.4000;0.8221;-0.5840;
512.7000;0.8230;-0.5890;
513.0000;0.8230;-0.5939;
513.3000;0.8197;-0.6013;
513.6000;0.8254;-0.5865;
513.9000;0.8246;-0.5890;
514.2000;0.8230;-0.5840;
514.5000;0.8278;-0.5568;
514.8000;0.8221;-0.5593;
515.1000;0.8230;-0.5568;
515.4000;0.8230;-0.5593;
515.7000;0.8221;-0.5568;
516.0000;0.8221;-0.5568;
516.3000;0.8189;-0.5692;
516.6000;0.8230;-0.5692;
516.9000;0.8213;-0.5741;
517.2000;0.8221;-0.5791;
517.5000;0.8124;-0.6013;
517.8000;0.8230;-0.5865;
518.1000;0.8230;-0.5964;
518.4000;0.8213;-0.5914;
518.7000;0.8238;-0.5840;
519.0000;0.8238;-0.5840;
519.3000;0.8230;-0.5914;
519.6000;0.8181;-0.6112;
519.9000;0.8221;-0.5939;
520.2000;0.8238;-0.5840;
520.5000;0.8213;-0.5840;
520.8000;0.8221;-0.5840;
521.1000;0.8213;-0.5840;
521.4000;0.8238;-0.5791;
521.7000;0.8246;-0.5791;
522.0000;0.8205;-0.5939;
522.3000;0.8230;-0.5914;
522.6000;0.8238;-0.5890;
522.9000;0.8230;-0.5914;
523.2000;0.8205;-0.6013;
523.5000;0.8221;-0.5964;
523.8000;0.8213;-0.6038;
524.1000;0.8230;-0.6063;
524.4000;0.8221;-0.5989;
524.7000;0.8238;-0.6063;
525.0000;0.8230;-0.5989;
525.3000;0.8230;-0.5989;
525.6000;0.8238;-0.5890;
525.9000;0.8221;-0.5964;
526.2000;0.8221;-0.5939;
526.5000;0.8221;-0.5939;
526.8000;0.8262;-0.5766;
527.1000;0.8213;-0.5840;
527.4000;0.8295;-0.5642;
527.7000;0.8230;-0.5840;
528.0000;0.8287;-0.5667;
528.3000;0.8205;-0.5840;
528.6000;0.8221;-0.5865;
528.9000;0.8181;-0.6038;
529.2000;0.8213;-0.5840;
529.5000;0.8205;-0.5692;
529.8000;0.8213;-0.5716;
530.1000;0.8213;-0.5741;
530.4000;0.8221;-0.5741;
530.7000;0.8221;-0.5840;
531.0000;0.8205;-0.5865;
531.3000;0.8197;-0.5840;
531.6000;0.8205;-0.5815;
531.9000;0.8221;-0.5865;
532.2000;0.8205;-0.5890;
532.5000;0.8230;-0.5890;
532.8000;0.8221;-0.5939;
533.1000;0.8205;-0.6038;
533.4000;0.8205;-0.5989;
533.7000;0.8205;-0.5840;
534.0000;0.8205;-0.5791;
534.3000;0.8197;-0.5865;
534.6000;0.8213;-0.5914;
534.9000;0.8173;-0.6112;
535.2000;0.8205;-0.6013;
535.5000;0.8213;-0.6013;
535.8000;0.8221;-0.6063;
536.1000;0.8205;-0.6038;
536.4000;0.8221;-0.5989;
536.7000;0.8189;-0.5989;
537.0000;0.8164;-0.6112;
537.3000;0.8205;-0.6063;
537.6000;0.8230;-0.6038;
537.9000;0.8205;-0.6013;
538.2000;0.8205;-0.6063;
538.5000;0.8197;-0.5939;
538.8000;0.8205;-0.5815;
539.1000;0.8238;-0.5692;
539.4000;0.8295;-0.5370;
539.7000;0.8230;-0.5494;
540.0000;0.8311;-0.5321;
540.3000;0.8213;-0.5617;
540.6000;0.8213;-0.5543;
540.9000;0.8099;-0.5840;
541.2000;0.8213;-0.5568;
541.5000;0.8221;-0.5593;
541.8000;0.8205;-0.5642;
542.1000;0.8230;-0.5642;
542.4000;0.8221;-0.5741;
542.7000;0.8189;-0.5766;
543.0000;0.8197;-0.5815;
543.3000;0.8205;-0.5667;
543.6000;0.8213;-0.5617;
543.9000;0.8213;-0.5766;
544.2000;0.8230;-0.5766;
544.5000;0.8197;-0.5890;
544.8000;0.8164;-0.6013;
545.1000;0.8262;-0.5791;
545.4000;0.8230;-0.5766;
545.7000;0.8213;-0.5741;
546.0000;0.8221;-0.5667;
546.3000;0.8213;-0.5716;
546.6000;0.8246;-0.5716;
546.9000;0.8238;-0.5692;
547.2000;0.8221;-0.5692;
547.5000;0.8221;-0.5617;
547.8000;0.8238;-0.5617;
548.1000;0.8230;-0.5617;
548.4000;0.8238;-0.5543;
548.7000;0.8311;-0.5420;
549.0000;0.8230;-0.5617;
549.3000;0.8221;-0.5617;
549.6000;0.8238;-0.5617;
549.9000;0.8238;-0.5469;
550.2000;0.8205;-0.5568;
550.5000;0.8246;-0.5420;
550.8000;0.8287;-0.5296;
551.1000;0.8213;-0.5420;
551.4000;0.8205;-0.5593;
551.7000;0.8197;-0.5617;
552.0000;0.8205;-0.5617;
552.3000;0.8221;-0.5642;
552.6000;0.8116;-0.5890;
552.9000;0.8197;-0.5716;
553.2000;0.8221;-0.5593;
553.5000;0.8205;-0.5741;
553.8000;0.8205;-0.5865;
554.1000;0.8189;-0.5865;
554.4000;0.8221;-0.5840;
554.7000;0.8205;-0.5865;
555.0000;0.8148;-0.5914;
555.3000;0.8213;-0.5791;
555.6000;0.8230;-0.5716;
555.9000;0.8213;-0.5617;
556.2000;0.8205;-0.5667;
556.5000;0.8205;-0.5692;
556.8000;0.8213;-0.5716;
557.1000;0.8270;-0.5617;
557.4000;0.8205;-0.5766;
557.7000;0.8213;-0.5741;
558.0000;0.8213;-0.5741;
558.3000;0.8197;-0.5716;
558.6000;0.8205;-0.5692;
558.9000;0.8189;-0.5741;
559.2000;0.8221;-0.5667;
559.5000;0.8205;-0.5692;
559.8000;0.8205;-0.5642;
560.1000;0.8213;-0.5568;
560.4000;0.8197;-0.5494;
560.7000;0.8221;-0.5543;
561.0000;0.8254;-0.5518;
561.3000;0.8213;-0.5667;
561.6000;0.8221;-0.5741;
561.9000;0.8189;-0.5890;
562.2000;0.8205;-0.5766;
562.5000;0.8230;-0.5692;
562.8000;0.8205;-0.5766;
563.1000;0.8205;-0.5815;
563.4000;0.8205;-0.5766;
563.7000;0.8213;-0.5667;
564.0000;0.8205;-0.5642;
564.3000;0.8189;-0.5692;
564.6000;0.8189;-0.5716;
564.9000;0.8213;-0.5642;
565.2000;0.8238;-0.5593;
565.5000;0.8205;-0.5617;
565.8000;0.8205;-0.5667;
566.1000;0.8230;-0.5617;
566.4000;0.8205;-0.5716;
566.7000;0.8205;-0.5716;
567.0000;0.8221;-0.5741;
567.3000;0.8205;-0.5815;
567.6000;0.8205;-0.5840;
567.9000;0.8205;-0.5741;
568.2000;0.8189;-0.5692;
568.5000;0.8205;-0.5593;
568.8000;0.8221;-0.5543;
569.1000;0.8197;-0.5593;
569.4000;0.8205;-0.5667;
569.7000;0.8213;-0.5617;
570.0000;0.8140;-0.5692;
570.3000;0.8205;-0.5642;
570.6000;0.8205;-0.5617;
570.9000;0.8189;-0.5667;
571.2000;0.8213;-0.5543;
571.5000;0.8205;-0.5593;
571.8000;0.8205;-0.5568;
572.1000;0.8156;-0.5716;
572.4000;0.8197;-0.5617;
572.7000;0.8278;-0.5469;
573.0000;0.8205;-0.5692;
573.3000;0.8197;-0.5642;
573.6000;0.8205;-0.5667;
573.9000;0.8221;-0.5568;
574.2000;0.8189;-0.5642;
574.5000;0.8197;-0.5593;
574.8000;0.8213;-0.5469;
575.1000;0.8213;-0.5593;
575.4000;0.8197;-0.5617;
575.7000;0.8197;-0.5593;
576.0000;0.8181;-0.5543;
576.3000;0.8213;-0.5469;
576.6000;0.8213;-0.5469;
576.9000;0.8205;-0.5469;
577.2000;0.8230;-0.5469;
577.5000;0.8197;-0.5593;
577.8000;0.8197;-0.5642;
578.1000;0.8197;-0.5617;
578.4000;0.8197;-0.5667;
578.7000;0.8246;-0.5617;
579.0000;0.8189;-0.5716;
579.3000;0.8181;-0.5766;
579.6000;0.8205;-0.5642;
579.9000;0.8221;-0.5568;
580.2000;0.8205;-0.5494;
580.5000;0.8205;-0.5518;
580.8000;0.8197;-0.5568;
581.1000;0.8205;-0.5568;
581.4000;0.8221;-0.5518;
581.7000;0.8181;-0.5642;
582.0000;0.8197;-0.5593;
582.3000;0.8205;-0.5543;
582.6000;0.8205;-0.5568;
582.9000;0.8205;-0.5692;
583.2000;0.8197;-0.5791;
583.5000;0.8221;-0.5840;
583.8000;0.8181;-0.5865;
584.1000;0.8205;-0.5865;
584.4000;0.8197;-0.5865;
584.7000;0.8189;-0.5815;
585.0000;0.8205;-0.5716;
585.3000;0.8213;-0.5741;
585.6000;0.8205;-0.5815;
585.9000;0.8197;-0.5692;
586.2000;0.8205;-0.5543;
586.5000;0.8221;-0.5593;
586.8000;0.8213;-0.5617;
587.1000;0.8213;-0.5568;
587.4000;0.8189;-0.5642;
587.7000;0.8132;-0.5791;
588.0000;0.8205;-0.5667;
588.3000;0.8181;-0.5791;
588.6000;0.8246;-0.5667;
588.9000;0.8205;-0.5667;
589.2000;0.8213;-0.5692;
589.5000;0.8246;-0.5543;
589.8000;0.8173;-0.5692;
590.1000;0.8246;-0.5543;
590.4000;0.8189;-0.5692;
590.7000;0.8213;-0.5667;
591.0000;0.8197;-0.5741;
591.3000;0.8197;-0.5741;
591.6000;0.8205;-0.5716;
591.9000;0.8189;-0.5667;
592.2000;0.8173;-0.5667;
592.5000;0.8205;-0.5568;
592.8000;0.8189;-0.5642;
593.1000;0.8270;-0.5345;
593.4000;0.8189;-0.5518;
593.7000;0.8181;-0.5593;
594.0000;0.8181;-0.5593;
594.3000;0.8181;-0.5494;
594.6000;0.8189;-0.5568;
594.9000;0.8181;-0.5543;
595.2000;0.8197;-0.5444;
595.5000;0.8189;-0.5420;
595.8000;0.8189;-0.5494;
596.1000;0.8181;-0.5518;
596.4000;0.8189;-0.5593;
596.7000;0.8205;-0.5642;
597.0000;0.8205;-0.5741;
597.3000;0.8189;-0.5716;
597.6000;0.8156;-0.5815;
597.9000;0.8189;-0.5667;
598.2000;0.8205;-0.5568;
598.5000;0.8197;-0.5518;
598.8000;0.8124;-0.5766;
599.1000;0.8173;-0.5593;
599.4000;0.8189;-0.5543;
599.7000;0.8181;-0.5420;
600.0000;0.8205;-0.5469;
600.3000;0.8164;-0.5642;
600.6000;0.8067;-0.5865;
600.9000;0.7928;-0.6013;
601.2000;0.7741;-0.6261;
601.5000;0.7578;-0.6558;
601.8000;0.7416;-0.6731;
602.1000;0.7261;-0.7053;
602.4000;0.7098;-0.7424;
602.7000;0.6976;-0.7498;
603.0000;0.6846;-0.7721;
603.3000;0.6732;-0.7944;
603.6000;0.6618;-0.8092;
603.9000;0.6512;-0.8216;
604.2000;0.6398;-0.8290;
604.5000;0.6333;-0.8216;
604.8000;0.6252;-0.8315;
605.1000;0.6162;-0.8538;
605.4000;0.6097;-0.8612;
605.7000;0.6040;-0.8711;
606.0000;0.5991;-0.8785;
606.3000;0.5950;-0.8884;
606.6000;0.5893;-0.8934;
606.9000;0.5836;-0.8934;
607.2000;0.5836;-0.8859;
607.5000;0.5755;-0.8983;
607.8000;0.5722;-0.8983;
608.1000;0.5682;-0.8958;
608.4000;0.5633;-0.9132;
608.7000;0.5592;-0.9132;
609.0000;0.5576;-0.9156;
609.3000;0.5470;-0.9329;
609.6000;0.5535;-0.9082;
609.9000;0.5478;-0.9230;
610.2000;0.5454;-0.9354;
610.5000;0.5413;-0.9428;
610.8000;0.5413;-0.9329;
611.1000;0.5397;-0.9428;
611.4000;0.5267;-0.9676;
611.7000;0.5332;-0.9503;
612.0000;0.5340;-0.9478;
612.3000;0.5324;-0.9552;
612.6000;0.5283;-0.9701;
612.9000;0.5275;-0.9701;
613.2000;0.5258;-0.9701;
613.5000;0.5250;-0.9651;
613.8000;0.5201;-0.9701;
614.1000;0.5201;-0.9626;
614.4000;0.5177;-0.9602;
614.7000;0.5153;-0.9602;
615.0000;0.5144;-0.9602;
615.3000;0.5136;-0.9725;
615.6000;0.5112;-0.9750;
615.9000;0.5104;-0.9750;
616.2000;0.5104;-0.9750;
616.5000;0.5071;-0.9725;
616.8000;0.5112;-0.9527;
617.1000;0.5136;-0.9404;
617.4000;0.5047;-0.9626;
617.7000;0.5031;-0.9775;
618.0000;0.5047;-0.9725;
618.3000;0.5006;-0.9800;
618.6000;0.5006;-0.9800;
618.9000;0.4982;-0.9750;
619.2000;0.4974;-0.9824;
619.5000;0.4965;-0.9750;
619.8000;0.4982;-0.9750;
620.1000;0.4957;-0.9775;
620.4000;0.4949;-0.9602;
620.7000;0.4949;-0.9626;
621.0000;0.4925;-0.9676;
621.3000;0.4908;-0.9701;
621.6000;0.4908;-0.9824;
621.9000;0.4900;-0.9849;
622.2000;0.4827;-1.0047;
622.5000;0.4908;-0.9824;
622.8000;0.4868;-0.9824;
623.1000;0.4868;-0.9750;
623.4000;0.4884;-0.9676;
623.7000;0.4860;-0.9800;
624.0000;0.4860;-0.9849;
624.3000;0.4843;-0.9849;
624.6000;0.4851;-0.9874;
624.9000;0.4835;-0.9998;
625.2000;0.4827;-0.9998;
625.5000;0.4819;-0.9973;
625.8000;0.4811;-1.0047;
626.1000;0.4819;-1.0047;
626.4000;0.4803;-1.0022;
626.7000;0.4729;-1.0295;
627.0000;0.4794;-1.0072;
627.3000;0.4786;-0.9948;
627.6000;0.4778;-0.9800;
627.9000;0.4754;-0.9874;
628.2000;0.4786;-0.9874;
628.5000;0.4786;-0.9874;
628.8000;0.4835;-0.9824;
629.1000;0.4762;-1.0047;
629.4000;0.4786;-1.0072;
629.7000;0.4754;-1.0121;
630.0000;0.4762;-1.0097;
630.3000;0.4746;-1.0097;
630.6000;0.4713;-1.0245;
630.9000;0.4729;-1.0171;
631.2000;0.4746;-1.0047;
631.5000;0.4737;-0.9998;
631.8000;0.4819;-0.9775;
632.1000;0.4721;-1.0072;
632.4000;0.4705;-1.0121;
632.7000;0.4705;-1.0022;
633.0000;0.4615;-1.0146;
633.3000;0.4656;-0.9973;
633.6000;0.4721;-0.9775;
633.9000;0.4705;-0.9923;
634.2000;0.4697;-0.9973;
634.5000;0.4672;-0.9973;
634.8000;0.4762;-0.9701;
635.1000;0.4689;-0.9948;
635.4000;0.4697;-0.9923;
635.7000;0.4697;-0.9899;
636.0000;0.4681;-1.0022;
636.3000;0.4681;-1.0022;
636.6000;0.4672;-1.0097;
636.9000;0.4681;-1.0022;
637.2000;0.4681;-0.9973;
637.5000;0.4681;-1.0047;
637.8000;0.4607;-1.0270;
638.1000;0.4656;-1.0097;
638.4000;0.4656;-1.0047;
638.7000;0.4656;-0.9998;
639.0000;0.4648;-0.9899;
639.3000;0.4664;-0.9824;
639.6000;0.4624;-0.9874;
639.9000;0.4624;-0.9849;
640.2000;0.4640;-0.9849;
640.5000;0.4624;-0.9849;
640.8000;0.4526;-1.0121;
641.1000;0.4689;-0.9725;
641.4000;0.4632;-0.9824;
641.7000;0.4632;-0.9775;
642.0000;0.4624;-0.9849;
642.3000;0.4624;-0.9824;
642.6000;0.4648;-0.9701;
642.9000;0.4632;-0.9725;
643.2000;0.4615;-0.9849;
643.5000;0.4542;-0.9899;
643.8000;0.4607;-0.9725;
644.1000;0.4607;-0.9775;
644.4000;0.4591;-0.9750;
644.7000;0.4607;-0.9824;
645.0000;0.4664;-0.9701;
645.3000;0.4583;-0.9948;
645.6000;0.4575;-0.9948;
645.9000;0.4575;-0.9973;
646.2000;0.4583;-0.9899;
646.5000;0.4583;-0.9800;
646.8000;0.4534;-0.9899;
647.1000;0.4575;-0.9824;
647.4000;0.4558;-0.9874;
647.7000;0.4575;-0.9824;
648.0000;0.4607;-0.9775;
648.3000;0.4558;-0.9874;
648.6000;0.4558;-0.9849;
648.9000;0.4542;-0.9800;
649.2000;0.4558;-0.9800;
649.5000;0.4550;-0.9800;
649.8000;0.4526;-0.9849;
650.1000;0.4575;-0.9775;
650.4000;0.4550;-0.9775;
650.7000;0.4542;-0.9824;
651.0000;0.4542;-0.9800;
651.3000;0.4550;-0.9775;
651.6000;0.4542;-0.9750;
651.9000;0.4534;-0.9750;
652.2000;0.4550;-0.9775;
652.5000;0.4542;-0.9750;
652.8000;0.4526;-0.9775;
653.1000;0.4518;-0.9849;
653.4000;0.4526;-0.9849;
653.7000;0.4542;-0.9775;
654.0000;0.4542;-0.9701;
654.3000;0.4534;-0.9824;
654.6000;0.4526;-0.9725;
654.9000;0.4501;-0.9824;
655.2000;0.4518;-0.9775;
655.5000;0.4493;-0.9874;
655.8000;0.4477;-0.9800;
656.1000;0.4485;-0.9750;
656.4000;0.4501;-0.9651;
656.7000;0.4510;-0.9750;
657.0000;0.4477;-0.9775;
657.3000;0.4477;-0.9800;
657.6000;0.4493;-0.9849;
657.9000;0.4510;-0.9750;
658.2000;0.4501;-0.9824;
658.5000;0.4493;-0.9824;
658.8000;0.4485;-0.9874;
659.1000;0.4485;-0.9899;
659.4000;0.4518;-0.9849;
659.7000;0.4485;-0.9998;
660.0000;0.4453;-1.0097;
660.3000;0.4477;-1.0072;
660.6000;0.4420;-1.0196;
660.9000;0.4469;-1.0121;
661.2000;0.4461;-1.0146;
661.5000;0.4558;-0.9849;
661.8000;0.4469;-1.0047;
662.1000;0.4444;-1.0072;
662.4000;0.4469;-1.0022;
662.7000;0.4510;-0.9973;
663.0000;0.4510;-0.9923;
663.3000;0.4461;-1.0097;
663.6000;0.4477;-1.0072;
663.9000;0.4493;-0.9973;
664.2000;0.4461;-1.0072;
664.5000;0.4444;-1.0146;
664.8000;0.4453;-0.9973;
665.1000;0.4501;-0.9824;
665.4000;0.4436;-0.9899;
665.7000;0.4436;-0.9800;
666.0000;0.4420;-0.9800;
666.3000;0.4420;-0.9824;
666.6000;0.4404;-0.9899;
666.9000;0.4412;-0.9899;
667.2000;0.4420;-0.9874;
667.5000;0.4444;-0.9800;
667.8000;0.4404;-0.9849;
668.1000;0.4428;-0.9725;
668.4000;0.4477;-0.9626;
668.7000;0.4404;-0.9923;
669.0000;0.4420;-0.9874;
669.3000;0.4436;-0.9800;
669.6000;0.4404;-0.9923;
669.9000;0.4444;-0.9849;
670.2000;0.4420;-0.9800;
670.5000;0.4396;-0.9775;
670.8000;0.4428;-0.9750;
671.1000;0.4412;-0.9824;
671.4000;0.4363;-1.0047;
671.7000;0.4396;-0.9800;
672.0000;0.4412;-0.9800;
672.3000;0.4404;-0.9775;
672.6000;0.4428;-0.9701;
672.9000;0.4396;-0.9824;
673.2000;0.4412;-0.9849;
673.5000;0.4412;-0.9849;
673.8000;0.4412;-0.9824;
674.1000;0.4387;-0.9923;
674.4000;0.4420;-0.9874;
674.7000;0.4404;-0.9800;
675.0000;0.4387;-0.9775;
675.3000;0.4379;-0.9800;
675.6000;0.4314;-0.9923;
675.9000;0.4412;-0.9750;
676.2000;0.4404;-0.9874;
676.5000;0.4387;-0.9923;
676.8000;0.4387;-0.9899;
677.1000;0.4379;-0.9800;
677.4000;0.4363;-0.9775;
677.7000;0.4379;-0.9775;
678.0000;0.4420;-0.9701;
678.3000;0.4371;-0.9775;
678.6000;0.4371;-0.9824;
678.9000;0.4363;-0.9800;
679.2000;0.4355;-0.9824;
679.5000;0.4339;-0.9849;
679.8000;0.4371;-0.9750;
680.1000;0.4347;-0.9800;
680.4000;0.4290;-0.9973;
680.7000;0.4322;-0.9923;
681.0000;0.4371;-0.9750;
681.3000;0.4379;-0.9725;
681.6000;0.4347;-0.9824;
681.9000;0.4363;-0.9676;
682.2000;0.4355;-0.9676;
682.5000;0.4339;-0.9775;
682.8000;0.4396;-0.9676;
683.1000;0.4371;-0.9750;
683.4000;0.4371;-0.9800;
683.7000;0.4355;-0.9849;
684.0000;0.4355;-0.9874;
684.3000;0.4298;-0.9973;
684.6000;0.4379;-0.9701;
684.9000;0.4428;-0.9602;
685.2000;0.4355;-0.9824;
685.5000;0.4339;-0.9899;
685.8000;0.4339;-0.9899;
686.1000;0.4396;-0.9750;
686.4000;0.4347;-0.9800;
686.7000;0.4355;-0.9701;
687.0000;0.4314;-0.9651;
687.3000;0.4282;-0.9701;
687.6000;0.4339;-0.9651;
687.9000;0.4330;-0.9701;
688.2000;0.4339;-0.9651;
688.5000;0.4282;-0.9725;
688.8000;0.4322;-0.9602;
689.1000;0.4330;-0.9626;
689.4000;0.4379;-0.9577;
689.7000;0.4322;-0.9725;
690.0000;0.4330;-0.9725;
690.3000;0.4314;-0.9824;
690.6000;0.4330;-0.9800;
690.9000;0.4322;-0.9775;
691.2000;0.4322;-0.9775;
691.5000;0.4306;-0.9775;
691.8000;0.4306;-0.9775;
692.1000;0.4379;-0.9626;
692.4000;0.4306;-0.9824;
692.7000;0.4314;-0.9923;
693.0000;0.4314;-0.9973;
693.3000;0.4314;-0.9948;
693.6000;0.4298;-0.9973;
693.9000;0.4322;-0.9874;
694.2000;0.4314;-0.9973;
694.5000;0.4298;-1.0047;
694.8000;0.4322;-1.0022;
695.1000;0.4322;-0.9998;
695.4000;0.4306;-0.9899;
695.7000;0.4306;-0.9899;
696.0000;0.4290;-0.9923;
696.3000;0.4322;-0.9899;
696.6000;0.4282;-0.9998;
696.9000;0.4290;-0.9948;
697.2000;0.4274;-0.9849;
697.5000;0.4290;-0.9725;
697.8000;0.4282;-0.9775;
698.1000;0.4282;-0.9725;
698.4000;0.4298;-0.9775;
698.7000;0.4274;-0.9849;
699.0000;0.4306;-0.9800;
699.3000;0.4290;-0.9874;
699.6000;0.4274;-0.9849;
699.9000;0.4306;-0.9849;
700.2000;0.4274;-0.9923;
700.5000;0.4225;-1.0047;
700.8000;0.4290;-0.9923;
701.1000;0.4298;-0.9899;
701.4000;0.4233;-1.0022;
701.7000;0.4274;-0.9849;
702.0000;0.4265;-0.9775;
702.3000;0.4282;-0.9849;
702.6000;0.4274;-0.9849;
702.9000;0.4290;-0.9849;
703.2000;0.4241;-0.9973;
703.5000;0.4306;-0.9874;
703.8000;0.4265;-0.9923;
704.1000;0.4217;-1.0097;
704.4000;0.4249;-1.0022;
704.7000;0.4298;-0.9948;
705.0000;0.4282;-1.0072;
705.3000;0.4274;-1.0022;
705.6000;0.4233;-1.0097;
705.9000;0.4298;-0.9899;
706.2000;0.4274;-0.9998;
706.5000;0.4257;-0.9998;
706.8000;0.4257;-0.9923;
707.1000;0.4265;-0.9923;
707.4000;0.4249;-1.0022;
707.7000;0.4274;-0.9899;
708.0000;0.4274;-0.9973;
708.3000;0.4274;-0.9948;
708.6000;0.4249;-1.0022;
708.9000;0.4257;-0.9973;
709.2000;0.4249;-1.0047;
709.5000;0.4282;-0.9923;
709.8000;0.4208;-1.0146;
710.1000;0.4257;-0.9998;
710.4000;0.4274;-0.9849;
710.7000;0.4282;-0.9923;
711.0000;0.4265;-0.9923;
711.3000;0.4265;-0.9899;
711.6000;0.4257;-0.9874;
711.9000;0.4257;-0.9899;
712.2000;0.4233;-0.9874;
712.5000;0.4241;-0.9800;
712.8000;0.4265;-0.9775;
713.1000;0.4233;-0.9849;
713.4000;0.4241;-0.9899;
713.7000;0.4233;-0.9998;
714.0000;0.4265;-0.9899;
714.3000;0.4233;-0.9923;
714.6000;0.4249;-0.9874;
714.9000;0.4249;-0.9998;
715.2000;0.4249;-0.9973;
715.5000;0.4241;-0.9874;
715.8000;0.4249;-0.9824;
716.1000;0.4241;-0.9750;
716.4000;0.4225;-0.9874;
716.7000;0.4241;-0.9750;
717.0000;0.4241;-0.9701;
717.3000;0.4241;-0.9775;
717.6000;0.4208;-0.9923;
717.9000;0.4192;-0.9998;
718.2000;0.4217;-0.9899;
718.5000;0.4249;-0.9874;
718.8000;0.4225;-0.9899;
719.1000;0.4249;-0.9923;
719.4000;0.4241;-1.0022;
719.7000;0.4233;-1.0072;
720.0000;0.4241;-0.9998;
720.3000;0.4249;-0.9923;
720.6000;0.4233;-0.9849;
720.9000;0.4217;-0.9874;
721.2000;0.4233;-0.9849;
721.5000;0.4225;-0.9849;
721.8000;0.4233;-0.9824;
722.1000;0.4217;-0.9824;
722.4000;0.4241;-0.9775;
722.7000;0.4217;-0.9849;
723.0000;0.4200;-0.9874;
723.3000;0.4184;-0.9899;
723.6000;0.4217;-0.9899;
723.9000;0.4200;-0.9998;
724.2000;0.4233;-0.9849;
724.5000;0.4225;-0.9874;
724.8000;0.4217;-0.9824;
725.1000;0.4233;-0.9824;
725.4000;0.4208;-0.9899;
725.7000;0.4241;-0.9750;
726.0000;0.4225;-0.9701;
726.3000;0.4265;-0.9626;
726.6000;0.4225;-0.9874;
726.9000;0.4225;-0.9923;
727.2000;0.4200;-0.9973;
727.5000;0.4200;-0.9899;
727.8000;0.4217;-0.9874;
728.1000;0.4274;-0.9701;
728.4000;0.4200;-0.9923;
728.7000;0.4200;-0.9973;
729.0000;0.4192;-0.9948;
729.3000;0.4192;-0.9998;
729.6000;0.4184;-1.0072;
729.9000;0.4208;-0.9923;
730.2000;0.4184;-1.0047;
730.5000;0.4241;-0.9923;
730.8000;0.4200;-0.9948;
731.1000;0.4217;-0.9800;
731.4000;0.4208;-0.9750;
731.7000;0.4176;-0.9725;
732.0000;0.4184;-0.9701;
732.3000;0.4200;-0.9750;
732.6000;0.4184;-0.9824;
732.9000;0.4192;-0.9775;
733.2000;0.4192;-0.9750;
733.5000;0.4184;-0.9775;
733.8000;0.4225;-0.9750;
734.1000;0.4184;-0.9849;
734.4000;0.4192;-0.9874;
734.7000;0.4225;-0.9800;
735.0000;0.4184;-0.9923;
735.3000;0.4176;-1.0047;
735.6000;0.4168;-1.0047;
735.9000;0.4200;-1.0022;
736.2000;0.4200;-0.9998;
736.5000;0.4160;-1.0072;
736.8000;0.4176;-1.0072;
737.1000;0.4200;-1.0072;
737.4000;0.4176;-1.0171;
737.7000;0.4160;-1.0171;
738.0000;0.4192;-1.0022;
738.3000;0.4192;-1.0022;
738.6000;0.4184;-1.0022;
738.9000;0.4168;-1.0097;
739.2000;0.4176;-1.0121;
739.5000;0.4168;-1.0121;
739.8000;0.4176;-0.9948;
740.1000;0.4184;-0.9998;
740.4000;0.4168;-0.9923;
740.7000;0.4184;-0.9874;
741.0000;0.4184;-0.9973;
741.3000;0.4168;-0.9849;
741.6000;0.4160;-0.9824;
741.9000;0.4160;-0.9849;
742.2000;0.4176;-0.9849;
742.5000;0.4184;-0.9824;
742.8000;0.4225;-0.9725;
743.1000;0.4160;-0.9874;
743.4000;0.4143;-0.9899;
743.7000;0.4111;-0.9998;
744.0000;0.4176;-0.9849;
744.3000;0.4160;-0.9849;
744.6000;0.4168;-0.9849;
744.9000;0.4160;-0.9973;
745.2000;0.4176;-0.9948;
745.5000;0.4160;-0.9923;
745.8000;0.4160;-0.9923;
746.1000;0.4176;-0.9849;
746.4000;0.4176;-0.9775;
746.7000;0.4168;-0.9923;
747.0000;0.4160;-1.0072;
747.3000;0.4151;-1.0097;
747.6000;0.4168;-0.9973;
747.9000;0.4160;-1.0022;
748.2000;0.4135;-1.0072;
748.5000;0.4168;-1.0022;
748.8000;0.4176;-1.0022;
749.1000;0.4151;-1.0022;
749.4000;0.4168;-1.0022;
749.7000;0.4151;-0.9948;
750.0000;0.4184;-0.9899;
750.3000;0.4184;-0.9874;
750.6000;0.4160;-0.9923;
750.9000;0.4168;-0.9973;
751.2000;0.4135;-0.9998;
751.5000;0.4168;-0.9899;
751.8000;0.4151;-0.9973;
752.1000;0.4151;-0.9973;
752.4000;0.4151;-0.9998;
752.7000;0.4168;-0.9874;
753.0000;0.4184;-0.9899;
753.3000;0.4127;-0.9948;
753.6000;0.4135;-0.9775;
753.9000;0.4143;-0.9701;
754.2000;0.4143;-0.9775;
754.5000;0.4127;-0.9725;
754.8000;0.4135;-0.9725;
755.1000;0.4176;-0.9577;
755.4000;0.4192;-0.9552;
755.7000;0.4135;-0.9800;
756.0000;0.4160;-0.9750;
756.3000;0.4160;-0.9750;
756.6000;0.4176;-0.9800;
756.9000;0.4168;-0.9849;
757.2000;0.4160;-0.9750;
757.5000;0.4135;-0.9775;
757.8000;0.4135;-0.9775;
758.1000;0.4168;-0.9750;
758.4000;0.4160;-0.9725;
758.7000;0.4111;-0.9824;
759.0000;0.4127;-0.9849;
759.3000;0.4135;-0.9849;
759.6000;0.4135;-0.9899;
759.9000;0.4013;-1.0220;
760.2000;0.4135;-0.9923;
760.5000;0.4151;-0.9874;
760.8000;0.4143;-0.9800;
761.1000;0.4135;-0.9725;
761.4000;0.4070;-0.9874;
761.7000;0.4127;-0.9874;
762.0000;0.4070;-0.9998;
762.3000;0.4119;-0.9874;
762.6000;0.4241;-0.9527;
762.9000;0.4127;-0.9775;
763.2000;0.4127;-0.9750;
763.5000;0.4103;-0.9725;
763.8000;0.4168;-0.9527;
764.1000;0.4135;-0.9701;
764.4000;0.4127;-0.9775;
764.7000;0.4127;-0.9626;
765.0000;0.4037;-0.9874;
765.3000;0.4143;-0.9478;
765.6000;0.4111;-0.9602;
765.9000;0.4135;-0.9651;
766.2000;0.4119;-0.9651;
766.5000;0.4119;-0.9626;
766.8000;0.4119;-0.9602;
767.1000;0.4111;-0.9725;
767.4000;0.4127;-0.9750;
767.7000;0.4127;-0.9725;
768.0000;0.4127;-0.9676;
768.3000;0.4127;-0.9602;
768.6000;0.4127;-0.9626;
768.9000;0.4127;-0.9701;
769.2000;0.4127;-0.9701;
769.5000;0.4135;-0.9701;
769.8000;0.4119;-0.9800;
770.1000;0.4111;-0.9750;
770.4000;0.4111;-0.9626;
770.7000;0.4127;-0.9701;
771.0000;0.4111;-0.9750;
771.3000;0.4094;-0.9800;
771.6000;0.4127;-0.9676;
771.9000;0.4119;-0.9725;
772.2000;0.4103;-0.9725;
772.5000;0.4078;-0.9701;
772.8000;0.4111;-0.9676;
773.1000;0.4127;-0.9701;
773.4000;0.4127;-0.9775;
773.7000;0.4103;-0.9750;
774.0000;0.4111;-0.9750;
774.3000;0.4086;-0.9849;
774.6000;0.4151;-0.9602;
774.9000;0.4127;-0.9626;
775.2000;0.4111;-0.9701;
775.5000;0.4119;-0.9651;
775.8000;0.4111;-0.9626;
776.1000;0.4070;-0.9577;
776.4000;0.4103;-0.9527;
776.7000;0.4160;-0.9453;
777.0000;0.4086;-0.9701;
777.3000;0.4176;-0.9503;
777.6000;0.4168;-0.9552;
777.9000;0.4135;-0.9602;
778.2000;0.4103;-0.9651;
778.5000;0.4103;-0.9651;
778.8000;0.4135;-0.9626;
779.1000;0.4103;-0.9676;
779.4000;0.4119;-0.9503;
779.7000;0.4111;-0.9626;
780.0000;0.4143;-0.9626;
780.3000;0.4078;-0.9725;
780.6000;0.4184;-0.9478;
780.9000;0.4054;-0.9874;
781.2000;0.4094;-0.9775;
781.5000;0.4094;-0.9775;
781.8000;0.4119;-0.9800;
782.1000;0.4103;-0.9824;
782.4000;0.4127;-0.9676;
782.7000;0.4103;-0.9775;
783.0000;0.4111;-0.9676;
783.3000;0.4103;-0.9651;
783.6000;0.4127;-0.9503;
783.9000;0.4062;-0.9626;
784.2000;0.4094;-0.9478;
784.5000;0.4086;-0.9552;
784.8000;0.4103;-0.9527;
785.1000;0.4094;-0.9626;
785.4000;0.4037;-0.9800;
785.7000;0.4103;-0.9701;
786.0000;0.4103;-0.9750;
786.3000;0.4094;-0.9800;
786.6000;0.4176;-0.9602;
786.9000;0.4070;-0.9874;
787.2000;0.4111;-0.9676;
787.5000;0.4094;-0.9701;
787.8000;0.4078;-0.9725;
788.1000;0.4078;-0.9651;
788.4000;0.4103;-0.9701;
788.7000;0.4078;-0.9725;
789.0000;0.4094;-0.9725;
789.3000;0.4086;-0.9651;
789.6000;0.4086;-0.9725;
789.9000;0.4062;-0.9725;
790.2000;0.4062;-0.9651;
790.5000;0.4086;-0.9626;
790.8000;0.4119;-0.9602;
791.1000;0.4086;-0.9750;
791.4000;0.4086;-0.9874;
791.7000;0.4103;-0.9849;
792.0000;0.4086;-0.9874;
792.3000;0.4094;-0.9849;
792.6000;0.4103;-0.9800;
792.9000;0.4054;-0.9899;
793.2000;0.4094;-0.9701;
793.5000;0.4111;-0.9800;
793.8000;0.4070;-0.9923;
794.1000;0.4086;-0.9874;
794.4000;0.4127;-0.9626;
794.7000;0.4078;-0.9676;
795.0000;0.4070;-0.9651;
795.3000;0.4119;-0.9676;
795.6000;0.4094;-0.9701;
795.9000;0.4111;-0.9676;
796.2000;0.4111;-0.9626;
796.5000;0.4119;-0.9626;
796.8000;0.4094;-0.9725;
797.1000;0.4086;-0.9750;
797.4000;0.4029;-0.9973;
797.7000;0.4070;-0.9874;
798.0000;0.4070;-0.9973;
798.3000;0.4086;-0.9998;
798.6000;0.4086;-0.9899;
798.9000;0.4054;-1.0022;
799.2000;0.4078;-0.9899;
799.5000;0.4078;-0.9899;
799.8000;0.4111;-0.9750;
800.1000;0.4070;-0.9874;
800.4000;0.4054;-0.9948;
800.7000;0.4086;-0.9899;
801.0000;0.4103;-0.9874;
801.3000;0.4062;-1.0022;
801.6000;0.4070;-0.9973;
801.9000;0.4119;-0.9824;
802.2000;0.4086;-0.9849;
802.5000;0.4078;-0.9874;
802.8000;0.4078;-0.9750;
803.1000;0.4078;-0.9775;
803.4000;0.4086;-0.9750;
803.7000;0.4086;-0.9676;
804.0000;0.4070;-0.9701;
804.3000;0.4054;-0.9750;
804.6000;0.4078;-0.9750;
804.9000;0.4160;-0.9626;
805.2000;0.4086;-0.9824;
805.5000;0.4062;-0.9824;
805.8000;0.4062;-0.9849;
806.1000;0.4062;-0.9849;
806.4000;0.4070;-0.9725;
806.7000;0.4070;-0.9750;
807.0000;0.4062;-0.9750;
807.3000;0.4103;-0.9651;
807.6000;0.4070;-0.9676;
807.9000;0.4037;-0.9800;
808.2000;0.4054;-0.9874;
808.5000;0.4086;-0.9874;
808.8000;0.4078;-0.9849;
809.1000;0.4054;-0.9998;
809.4000;0.4046;-0.9948;
809.7000;0.4078;-0.9923;
810.0000;0.4062;-0.9923;
810.3000;0.4046;-1.0047;
810.6000;0.4062;-1.0022;
810.9000;0.4046;-1.0072;
811.2000;0.4054;-1.0022;
811.5000;0.4021;-1.0097;
811.8000;0.4062;-0.9948;
812.1000;0.4070;-0.9998;
812.4000;0.4078;-0.9899;
812.7000;0.4078;-0.9973;
813.0000;0.4046;-1.0022;
813.3000;0.4078;-0.9923;
813.6000;0.4054;-0.9874;
813.9000;0.4062;-0.9849;
814.2000;0.4046;-0.9874;
814.5000;0.4046;-0.9923;
814.8000;0.4054;-0.9948;
815.1000;0.4062;-0.9874;
815.4000;0.4054;-0.9899;
815.7000;0.3948;-1.0171;
816.0000;0.4070;-0.9899;
816.3000;0.4029;-0.9973;
816.6000;0.4046;-0.9923;
816.9000;0.4046;-0.9874;
817.2000;0.4062;-0.9800;
817.5000;0.4062;-0.9750;
817.8000;0.4070;-0.9725;
818.1000;0.4070;-0.9701;
818.4000;0.3997;-1.0072;
818.7000;0.4062;-0.9849;
819.0000;0.4054;-0.9824;
819.3000;0.4054;-0.9800;
819.6000;0.4046;-0.9824;
819.9000;0.4046;-0.9800;
820.2000;0.3997;-0.9948;
820.5000;0.3997;-0.9948;
820.8000;0.4054;-0.9874;
821.1000;0.4054;-0.9923;
821.4000;0.4037;-0.9874;
821.7000;0.4054;-0.9874;
822.0000;0.4054;-0.9775;
822.3000;0.4078;-0.9701;
822.6000;0.4062;-0.9651;
822.9000;0.4037;-0.9676;
823.2000;0.4054;-0.9626;
823.5000;0.4037;-0.9750;
823.8000;0.4054;-0.9800;
824.1000;0.4046;-0.9899;
824.4000;0.4054;-0.9874;
824.7000;0.4046;-0.9874;
825.0000;0.4046;-0.9874;
825.3000;0.4037;-0.9923;
825.6000;0.4037;-0.9874;
825.9000;0.4021;-0.9874;
826.2000;0.3997;-0.9998;
826.5000;0.4046;-0.9874;
826.8000;0.4054;-0.9948;
827.1000;0.4029;-0.9948;
827.4000;0.4029;-0.9948;
827.7000;0.4037;-0.9874;
828.0000;0.4029;-0.9899;
828.3000;0.4037;-0.9899;
828.6000;0.4029;-0.9874;
828.9000;0.4062;-0.9849;
829.2000;0.4029;-0.9923;
829.5000;0.4029;-0.9923;
829.8000;0.4046;-0.9923;
830.1000;0.4029;-0.9874;
830.4000;0.4037;-0.9874;
830.7000;0.4013;-0.9800;
831.0000;0.4046;-0.9800;
831.3000;0.4037;-0.9849;
831.6000;0.4013;-0.9923;
831.9000;0.4046;-0.9998;
832.2000;0.4046;-0.9973;
832.5000;0.4013;-1.0047;
832.8000;0.4054;-0.9998;
833.1000;0.4062;-0.9973;
833.4000;0.4037;-0.9973;
833.7000;0.4046;-1.0022;
834.0000;0.4046;-0.9948;
834.3000;0.4046;-0.9874;
834.6000;0.4029;-0.9874;
834.9000;0.4029;-0.9849;
835.2000;0.4037;-0.9725;
835.5000;0.4054;-0.9725;
835.8000;0.4086;-0.9701;
836.1000;0.4029;-0.9824;
836.4000;0.4013;-0.9849;
836.7000;0.4054;-0.9775;
837.0000;0.4029;-0.9849;
837.3000;0.4029;-0.9849;
837.6000;0.4021;-0.9874;
837.9000;0.4037;-0.9750;
838.2000;0.4062;-0.9626;
838.5000;0.4046;-0.9651;
838.8000;0.4005;-0.9849;
839.1000;0.4029;-0.9725;
839.4000;0.4037;-0.9725;
839.7000;0.4029;-0.9651;
840.0000;0.4029;-0.9676;
840.3000;0.4046;-0.9676;
840.6000;0.4029;-0.9750;
840.9000;0.4029;-0.9824;
841.2000;0.4037;-0.9899;
841.5000;0.4005;-0.9948;
841.8000;0.4037;-0.9750;
842.1000;0.4054;-0.9701;
842.4000;0.4037;-0.9676;
842.7000;0.4111;-0.9577;
843.0000;0.4021;-0.9775;
843.3000;0.4062;-0.9626;
843.6000;0.4029;-0.9626;
843.9000;0.4029;-0.9676;
844.2000;0.3932;-0.9973;
844.5000;0.4078;-0.9701;
844.8000;0.4037;-0.9800;
845.1000;0.4021;-0.9824;
845.4000;0.4078;-0.9651;
845.7000;0.4037;-0.9775;
846.0000;0.4029;-0.9701;
846.3000;0.4046;-0.9626;
846.6000;0.3932;-0.9849;
846.9000;0.4029;-0.9577;
847.2000;0.4037;-0.9676;
847.5000;0.4021;-0.9701;
847.8000;0.4029;-0.9626;
848.1000;0.4005;-0.9676;
848.4000;0.4029;-0.9602;
848.7000;0.3980;-0.9626;
849.0000;0.4013;-0.9577;
849.3000;0.3964;-0.9775;
849.6000;0.4054;-0.9676;
849.9000;0.4037;-0.9626;
850.2000;0.4029;-0.9701;
850.5000;0.4029;-0.9725;
850.8000;0.4029;-0.9701;
851.1000;0.4013;-0.9824;
851.4000;0.4005;-0.9824;
851.7000;0.4029;-0.9725;
852.0000;0.4029;-0.9701;
852.3000;0.4021;-0.9750;
852.6000;0.4021;-0.9775;
852.9000;0.4029;-0.9701;
853.2000;0.4021;-0.9750;
853.5000;0.4021;-0.9800;
853.8000;0.4037;-0.9849;
854.1000;0.4021;-0.9874;
854.4000;0.3989;-0.9849;
854.7000;0.3997;-0.9849;
855.0000;0.4037;-0.9824;
855.3000;0.3997;-0.9899;
855.6000;0.4021;-0.9824;
855.9000;0.3997;-0.9824;
856.2000;0.4013;-0.9824;
856.5000;0.3997;-0.9800;
856.8000;0.4013;-0.9701;
857.1000;0.4005;-0.9602;
857.4000;0.4021;-0.9527;
857.7000;0.3989;-0.9552;
858.0000;0.4005;-0.9503;
858.3000;0.4037;-0.9428;
858.6000;0.4029;-0.9453;
858.9000;0.4021;-0.9478;
859.2000;0.4013;-0.9478;
859.5000;0.4037;-0.9453;
859.8000;0.4029;-0.9428;
860.1000;0.3997;-0.9527;
860.4000;0.4013;-0.9527;
860.7000;0.4005;-0.9527;
861.0000;0.4021;-0.9503;
861.3000;0.3989;-0.9552;
861.6000;0.3997;-0.9552;
861.9000;0.3980;-0.9577;
862.2000;0.4005;-0.9676;
862.5000;0.4005;-0.9701;
862.8000;0.3956;-0.9849;
863.1000;0.3989;-0.9775;
863.4000;0.4013;-0.9701;
863.7000;0.4021;-0.9651;
864.0000;0.4013;-0.9577;
864.3000;0.4021;-0.9552;
864.6000;0.3997;-0.9602;
864.9000;0.4046;-0.9453;
865.2000;0.4005;-0.9503;
865.5000;0.4021;-0.9453;
865.8000;0.4013;-0.9478;
866.1000;0.4013;-0.9453;
866.4000;0.3997;-0.9478;
866.7000;0.3980;-0.9453;
867.0000;0.3997;-0.9527;
867.3000;0.4046;-0.9404;
867.6000;0.3989;-0.9552;
867.9000;0.3989;-0.9602;
868.2000;0.3972;-0.9626;
868.5000;0.4013;-0.9602;
868.8000;0.3964;-0.9800;
869.1000;0.4013;-0.9676;
869.4000;0.4062;-0.9527;
869.7000;0.4013;-0.9676;
870.0000;0.4037;-0.9701;
870.3000;0.4029;-0.9750;
870.6000;0.4013;-0.9750;
870.9000;0.4037;-0.9701;
871.2000;0.4013;-0.9725;
871.5000;0.4013;-0.9651;
871.8000;0.4029;-0.9602;
872.1000;0.4094;-0.9503;
872.4000;0.4005;-0.9725;
872.7000;0.3980;-0.9750;
873.0000;0.3997;-0.9725;
873.3000;0.3989;-0.9750;
873.6000;0.4013;-0.9750;
873.9000;0.4062;-0.9602;
874.2000;0.3972;-0.9800;
874.5000;0.4005;-0.9577;
874.8000;0.3989;-0.9503;
875.1000;0.3980;-0.9651;
875.4000;0.4021;-0.9552;
875.7000;0.4005;-0.9651;
876.0000;0.3980;-0.9676;
876.3000;0.4013;-0.9527;
876.6000;0.4013;-0.9478;
876.9000;0.3989;-0.9552;
877.2000;0.3997;-0.9527;
877.5000;0.3980;-0.9527;
877.8000;0.4005;-0.9503;
878.1000;0.4005;-0.9478;
878.4000;0.3997;-0.9552;
878.7000;0.4005;-0.9552;
879.0000;0.4054;-0.9453;
879.3000;0.3989;-0.9527;
879.6000;0.3997;-0.9503;
879.9000;0.4094;-0.9354;
880.2000;0.4021;-0.9478;
880.5000;0.3997;-0.9552;
880.8000;0.4013;-0.9453;
881.1000;0.3980;-0.9478;
881.4000;0.4013;-0.9453;
881.7000;0.4013;-0.9478;
882.0000;0.4013;-0.9552;
882.3000;0.3997;-0.9577;
882.6000;0.3989;-0.9552;
882.9000;0.3989;-0.9577;
883.2000;0.4013;-0.9527;
883.5000;0.3980;-0.9552;
883.8000;0.3989;-0.9527;
884.1000;0.3997;-0.9602;
884.4000;0.3997;-0.9577;
884.7000;0.3997;-0.9651;
885.0000;0.3997;-0.9552;
885.3000;0.4005;-0.9503;
885.6000;0.3980;-0.9453;
885.9000;0.3964;-0.9527;
886.2000;0.3980;-0.9602;
886.5000;0.3989;-0.9602;
886.8000;0.4037;-0.9527;
887.1000;0.3997;-0.9602;
887.4000;0.3989;-0.9602;
887.7000;0.3980;-0.9602;
888.0000;0.3989;-0.9527;
888.3000;0.3989;-0.9503;
888.6000;0.3956;-0.9577;
888.9000;0.4062;-0.9379;
889.2000;0.3989;-0.9478;
889.5000;0.4005;-0.9478;
889.8000;0.3997;-0.9503;
890.1000;0.3989;-0.9527;
890.4000;0.3997;-0.9626;
890.7000;0.3989;-0.9676;
891.0000;0.3980;-0.9651;
891.3000;0.3964;-0.9676;
891.6000;0.3980;-0.9651;
891.9000;0.3980;-0.9725;
892.2000;0.3980;-0.9701;
892.5000;0.3940;-0.9750;
892.8000;0.3972;-0.9725;
893.1000;0.3956;-0.9676;
893.4000;0.3989;-0.9651;
893.7000;0.4046;-0.9552;
894.0000;0.3989;-0.9701;
894.3000;0.3997;-0.9651;
894.6000;0.3989;-0.9701;
894.9000;0.3997;-0.9676;
895.2000;0.4013;-0.9626;
895.5000;0.4005;-0.9626;
895.8000;0.3891;-0.9948;
896.1000;0.3997;-0.9626;
896.4000;0.3997;-0.9503;
896.7000;0.3972;-0.9552;
897.0000;0.4013;-0.9651;
897.3000;0.3989;-0.9750;
897.6000;0.3997;-0.9775;
897.9000;0.3989;-0.9775;
898.2000;0.3989;-0.9824;
898.5000;0.3997;-0.9800;
898.8000;0.3972;-0.9676;
899.1000;0.3980;-0.9602;
899.4000;0.3989;-0.9602;
899.7000;0.4037;-0.9478;
900.0000;0.4037;-0.9478;
900.3000;0.3997;-0.9527;
900.6000;0.3989;-0.9552;
900.9000;0.3948;-0.9527;
901.2000;0.3989;-0.9577;
901.5000;0.3964;-0.9651;
901.8000;0.4005;-0.9626;
902.1000;0.3997;-0.9602;
902.4000;0.3972;-0.9651;
902.7000;0.3972;-0.9577;
903.0000;0.3923;-0.9676;
903.3000;0.4005;-0.9453;
903.6000;0.3989;-0.9602;
903.9000;0.3964;-0.9750;
904.2000;0.4005;-0.9602;
904.5000;0.3989;-0.9676;
904.8000;0.3964;-0.9750;
905.1000;0.3964;-0.9750;
905.4000;0.3972;-0.9701;
905.7000;0.4078;-0.9478;
906.0000;0.3956;-0.9775;
906.3000;0.3980;-0.9775;
906.6000;0.3972;-0.9800;
906.9000;0.3972;-0.9775;
907.2000;0.3997;-0.9775;
907.5000;0.3980;-0.9800;
907.8000;0.3964;-0.9800;
908.1000;0.3980;-0.9725;
908.4000;0.3997;-0.9676;
908.7000;0.3972;-0.9750;
909.0000;0.3980;-0.9775;
909.3000;0.3940;-0.9923;
909.6000;0.3972;-0.9849;
909.9000;0.3980;-0.9800;
910.2000;0.3923;-0.9923;
910.5000;0.3989;-0.9775;
910.8000;0.3989;-0.9750;
911.1000;0.4005;-0.9725;
911.4000;0.3964;-0.9725;
911.7000;0.3899;-0.9899;
912.0000;0.3997;-0.9577;
912.3000;0.4013;-0.9602;
912.6000;0.3972;-0.9626;
912.9000;0.3972;-0.9626;
913.2000;0.3997;-0.9676;
913.5000;0.3891;-0.9998;
913.8000;0.3997;-0.9651;
914.1000;0.3980;-0.9626;
914.4000;0.3964;-0.9701;
914.7000;0.3989;-0.9577;
915.0000;0.3989;-0.9527;
915.3000;0.3989;-0.9428;
915.6000;0.3989;-0.9478;
915.9000;0.4021;-0.9428;
916.2000;0.4005;-0.9651;
916.5000;0.3972;-0.9824;
916.8000;0.3989;-0.9725;
917.1000;0.3997;-0.9725;
917.4000;0.3989;-0.9651;
917.7000;0.3980;-0.9676;
918.0000;0.4021;-0.9676;
918.3000;0.3972;-0.9824;
918.6000;0.3980;-0.9701;
918.9000;0.3980;-0.9651;
919.2000;0.3964;-0.9626;
919.5000;0.3956;-0.9552;
919.8000;0.4021;-0.9404;
920.1000;0.3940;-0.9577;
920.4000;0.3989;-0.9503;
920.7000;0.3972;-0.9503;
921.0000;0.3980;-0.9503;
921.3000;0.3972;-0.9503;
921.6000;0.3989;-0.9577;
921.9000;0.3980;-0.9602;
922.2000;0.3972;-0.9503;
922.5000;0.3972;-0.9428;
922.8000;0.3997;-0.9428;
923.1000;0.3964;-0.9552;
923.4000;0.3972;-0.9602;
923.7000;0.3989;-0.9577;
924.0000;0.3997;-0.9503;
924.3000;0.3980;-0.9478;
924.6000;0.3972;-0.9626;
924.9000;0.3980;-0.9676;
925.2000;0.3972;-0.9725;
925.5000;0.3956;-0.9824;
925.8000;0.3956;-0.9800;
926.1000;0.3972;-0.9701;
926.4000;0.3989;-0.9651;
926.7000;0.3972;-0.9651;
927.0000;0.3989;-0.9602;
927.3000;0.3964;-0.9577;
927.6000;0.3948;-0.9577;
927.9000;0.3948;-0.9626;
928.2000;0.3964;-0.9577;
928.5000;0.3964;-0.9626;
928.8000;0.3964;-0.9577;
929.1000;0.3964;-0.9602;
929.4000;0.3899;-0.9800;
929.7000;0.3980;-0.9602;
930.0000;0.3972;-0.9577;
930.3000;0.3940;-0.9676;
930.6000;0.3989;-0.9602;
930.9000;0.3956;-0.9626;
931.2000;0.3997;-0.9503;
931.5000;0.3972;-0.9552;
931.8000;0.3956;-0.9602;
932.1000;0.3980;-0.9651;
932.4000;0.3989;-0.9552;
932.7000;0.3980;-0.9527;
933.0000;0.4070;-0.9280;
933.3000;0.3940;-0.9577;
933.6000;0.3980;-0.9453;
933.9000;0.3964;-0.9478;
934.2000;0.4013;-0.9329;
934.5000;0.4005;-0.9453;
934.8000;0.3956;-0.9626;
935.1000;0.3940;-0.9651;
935.4000;0.3948;-0.9651;
935.7000;0.3972;-0.9602;
936.0000;0.4062;-0.9329;
936.3000;0.3980;-0.9478;
936.6000;0.3997;-0.9404;
936.9000;0.3948;-0.9602;
937.2000;0.3989;-0.9602;
937.5000;0.3940;-0.9701;
937.8000;0.3972;-0.9577;
938.1000;0.3972;-0.9577;
938.4000;0.3980;-0.9503;
938.7000;0.3956;-0.9602;
939.0000;0.3956;-0.9626;
939.3000;0.3891;-0.9800;
939.6000;0.3923;-0.9676;
939.9000;0.3940;-0.9725;
940.2000;0.3964;-0.9577;
940.5000;0.3980;-0.9527;
940.8000;0.3964;-0.9552;
941.1000;0.3940;-0.9577;
941.4000;0.3980;-0.9552;
941.7000;0.4037;-0.9305;
942.0000;0.3907;-0.9651;
942.3000;0.4037;-0.9379;
942.6000;0.3956;-0.9626;
942.9000;0.3964;-0.9701;
943.2000;0.3964;-0.9626;
943.5000;0.3956;-0.9626;
943.8000;0.3956;-0.9701;
944.1000;0.3972;-0.9651;
944.4000;0.3972;-0.9725;
944.7000;0.3932;-0.9775;
945.0000;0.3964;-0.9701;
945.3000;0.3956;-0.9626;
945.6000;0.3964;-0.9626;
945.9000;0.3956;-0.9775;
946.2000;0.3972;-0.9725;
946.5000;0.3956;-0.9775;
946.8000;0.3964;-0.9701;
947.1000;0.3940;-0.9800;
947.4000;0.3964;-0.9775;
947.7000;0.3956;-0.9824;
948.0000;0.3964;-0.9849;
948.3000;0.3964;-0.9874;
948.6000;0.3980;-0.9923;
948.9000;0.4013;-0.9775;
949.2000;0.3964;-0.9800;
949.5000;0.3956;-0.9750;
949.8000;0.3940;-0.9849;
950.1000;0.3972;-0.9824;
950.4000;0.3972;-0.9800;
950.7000;0.3956;-0.9824;
951.0000;0.3956;-0.9923;
951.3000;0.3948;-0.9824;
951.6000;0.3940;-0.9800;
951.9000;0.3972;-0.9701;
952.2000;0.3980;-0.9824;
952.5000;0.3956;-0.9775;
952.8000;0.3956;-0.9676;
953.1000;0.4005;-0.9626;
953.4000;0.3956;-0.9849;
953.7000;0.3964;-0.9874;
954.0000;0.4005;-0.9775;
954.3000;0.3980;-0.9800;
954.6000;0.3964;-0.9824;
954.9000;0.3972;-0.9725;
955.2000;0.3940;-0.9824;
955.5000;0.3948;-0.9824;
955.8000;0.3956;-0.9651;
956.1000;0.3948;-0.9651;
956.4000;0.3980;-0.9676;
956.7000;0.3972;-0.9701;
957.0000;0.3997;-0.9701;
957.3000;0.3964;-0.9750;
957.6000;0.3964;-0.9725;
957.9000;0.3972;-0.9800;
958.2000;0.3932;-0.9899;
958.5000;0.3956;-0.9800;
958.8000;0.3891;-0.9824;
959.1000;0.3972;-0.9602;
959.4000;0.4029;-0.9527;
959.7000;0.3972;-0.9676;
960.0000;0.3923;-0.9800;
960.3000;0.3997;-0.9602;
960.6000;0.3964;-0.9676;
960.9000;0.3899;-0.9973;
961.2000;0.3899;-0.9923;
961.5000;0.3980;-0.9676;
961.8000;0.3948;-0.9626;
962.1000;0.3980;-0.9577;
962.4000;0.3956;-0.9725;
962.7000;0.3964;-0.9775;
963.0000;0.3989;-0.9676;
963.3000;0.3980;-0.9701;
963.6000;0.3956;-0.9701;
963.9000;0.3948;-0.9651;
964.2000;0.3932;-0.9750;
964.5000;0.3972;-0.9750;
964.8000;0.3964;-0.9725;
965.1000;0.3989;-0.9725;
965.4000;0.3948;-0.9824;
965.7000;0.3964;-0.9750;
966.0000;0.3956;-0.9775;
966.3000;0.4005;-0.9701;
966.6000;0.3964;-0.9849;
966.9000;0.3956;-0.9775;
967.2000;0.3907;-0.9899;
967.5000;0.3972;-0.9800;
967.8000;0.3956;-0.9750;
968.1000;0.3899;-0.9899;
968.4000;0.3972;-0.9651;
968.7000;0.3980;-0.9626;
969.0000;0.3956;-0.9651;
969.3000;0.3972;-0.9602;
969.6000;0.3972;-0.9651;
969.9000;0.3956;-0.9701;
970.2000;0.3940;-0.9750;
970.5000;0.3948;-0.9725;
970.8000;0.3915;-0.9701;
971.1000;0.3948;-0.9651;
971.4000;0.3964;-0.9701;
971.7000;0.3940;-0.9849;
972.0000;0.3940;-0.9849;
972.3000;0.3964;-0.9824;
972.6000;0.3964;-0.9874;
972.9000;0.3834;-1.0196;
973.2000;0.3964;-0.9849;
973.5000;0.3989;-0.9750;
973.8000;0.3972;-0.9701;
974.1000;0.3923;-0.9701;
974.4000;0.3972;-0.9577;
974.7000;0.3997;-0.9503;
975.0000;0.3948;-0.9577;
975.3000;0.3923;-0.9676;
975.6000;0.3923;-0.9775;
975.9000;0.3948;-0.9701;
976.2000;0.3948;-0.9626;
976.5000;0.3948;-0.9552;
976.8000;0.3972;-0.9527;
977.1000;0.3948;-0.9602;
977.4000;0.3964;-0.9577;
977.7000;0.3932;-0.9651;
978.0000;0.3956;-0.9676;
978.3000;0.3956;-0.9676;
978.6000;0.3940;-0.9651;
978.9000;0.3948;-0.9626;
979.2000;0.3972;-0.9552;
979.5000;0.3956;-0.9577;
979.8000;0.4005;-0.9503;
980.1000;0.3932;-0.9676;
980.4000;0.3948;-0.9750;
980.7000;0.3907;-0.9899;
981.0000;0.3956;-0.9800;
981.3000;0.3956;-0.9775;
981.6000;0.3964;-0.9750;
981.9000;0.3956;-0.9676;
982.2000;0.3964;-0.9775;
982.5000;0.3980;-0.9701;
982.8000;0.3948;-0.9775;
983.1000;0.3932;-0.9899;
983.4000;0.3948;-0.9824;
983.7000;0.3997;-0.9626;
984.0000;0.3956;-0.9701;
984.3000;0.3932;-0.9725;
984.6000;0.3948;-0.9577;
984.9000;0.3907;-0.9750;
985.2000;0.3980;-0.9552;
985.5000;0.3940;-0.9602;
985.8000;0.3948;-0.9651;
986.1000;0.3940;-0.9725;
986.4000;0.3932;-0.9651;
986.7000;0.3940;-0.9552;
987.0000;0.3940;-0.9527;
987.3000;0.3956;-0.9428;
987.6000;0.3972;-0.9428;
987.9000;0.3964;-0.9428;
988.2000;0.3899;-0.9676;
988.5000;0.3940;-0.9577;
988.8000;0.3964;-0.9552;
989.1000;0.3948;-0.9503;
989.4000;0.3956;-0.9478;
989.7000;0.3956;-0.9453;
990.0000;0.3972;-0.9354;
990.3000;0.3899;-0.9503;
990.6000;0.3948;-0.9280;
990.9000;0.3867;-0.9503;
991.2000;0.4037;-0.9057;
991.5000;0.3956;-0.9280;
991.8000;0.3948;-0.9280;
992.1000;0.3948;-0.9329;
992.4000;0.3948;-0.9305;
992.7000;0.3964;-0.9329;
993.0000;0.3972;-0.9329;
993.3000;0.3948;-0.9354;
993.6000;0.3972;-0.9280;
993.9000;0.3932;-0.9404;
994.2000;0.3956;-0.9404;
994.5000;0.3964;-0.9453;
994.8000;0.3875;-0.9701;
995.1000;0.3972;-0.9527;
995.4000;0.3899;-0.9676;
995.7000;0.3948;-0.9527;
996.0000;0.3932;-0.9552;
996.3000;0.3956;-0.9453;
996.6000;0.3940;-0.9478;
996.9000;0.3956;-0.9428;
997.2000;0.3948;-0.9478;
997.5000;0.3956;-0.9428;
997.8000;0.3964;-0.9404;
998.1000;0.3948;-0.9428;
998.4000;0.3948;-0.9503;
998.7000;0.3956;-0.9503;
999.0000;0.4005;-0.9478;
999.3000;0.3932;-0.9626;
999.6000;0.3923;-0.9602;
999.9000;0.3940;-0.9552;
1000.2000;0.3948;-0.9602;
1000.5000;0.3964;-0.9577;
1000.8000;0.3932;-0.9725;
1001.1000;0.3956;-0.9701;
1001.4000;0.3948;-0.9750;
1001.7000;0.3940;-0.9701;
1002.0000;0.3956;-0.9775;
1002.3000;0.3923;-0.9899;
1002.6000;0.3940;-0.9874;
1002.9000;0.3948;-0.9824;
1003.2000;0.3915;-0.9874;
1003.5000;0.3948;-0.9750;
1003.8000;0.3932;-0.9725;
1004.1000;0.3948;-0.9651;
1004.4000;0.3956;-0.9750;
1004.7000;0.3940;-0.9874;
1005.0000;0.3834;-1.0047;
1005.3000;0.3940;-0.9725;
1005.6000;0.3923;-0.9676;
1005.9000;0.3964;-0.9503;
1006.2000;0.3940;-0.9503;
1006.5000;0.3891;-0.9676;
1006.8000;0.3932;-0.9527;
1007.1000;0.3915;-0.9602;
1007.4000;0.3956;-0.9577;
1007.7000;0.3980;-0.9503;
1008.0000;0.3964;-0.9478;
1008.3000;0.3940;-0.9626;
1008.6000;0.3997;-0.9552;
1008.9000;0.3948;-0.9676;
1009.2000;0.3980;-0.9626;
1009.5000;0.3948;-0.9651;
1009.8000;0.3956;-0.9626;
1010.1000;0.3940;-0.9626;
1010.4000;0.3940;-0.9626;
1010.7000;0.3940;-0.9577;
1011.0000;0.3940;-0.9527;
1011.3000;0.3940;-0.9428;
1011.6000;0.3972;-0.9379;
1011.9000;0.3940;-0.9478;
1012.2000;0.3940;-0.9503;
1012.5000;0.3956;-0.9428;
1012.8000;0.3923;-0.9453;
1013.1000;0.3940;-0.9404;
1013.4000;0.3948;-0.9453;
1013.7000;0.3940;-0.9577;
1014.0000;0.3932;-0.9725;
1014.3000;0.3940;-0.9676;
1014.6000;0.3948;-0.9626;
1014.9000;0.3940;-0.9651;
1015.2000;0.3932;-0.9651;
1015.5000;0.3956;-0.9651;
1015.8000;0.3940;-0.9651;
1016.1000;0.3956;-0.9552;
1016.4000;0.3948;-0.9503;
1016.7000;0.3956;-0.9503;
1017.0000;0.3964;-0.9527;
1017.3000;0.3932;-0.9651;
1017.6000;0.3923;-0.9725;
1017.9000;0.3956;-0.9651;
1018.2000;0.3964;-0.9602;
1018.5000;0.3940;-0.9552;
1018.8000;0.3956;-0.9428;
1019.1000;0.3940;-0.9503;
1019.4000;0.3972;-0.9379;
1019.7000;0.3940;-0.9379;
1020.0000;0.3932;-0.9404;
1020.3000;0.3932;-0.9428;
1020.6000;0.3956;-0.9478;
1020.9000;0.3948;-0.9478;
1021.2000;0.3940;-0.9478;
1021.5000;0.3940;-0.9552;
1021.8000;0.3932;-0.9626;
1022.1000;0.3948;-0.9577;
1022.4000;0.3948;-0.9626;
1022.7000;0.3948;-0.9626;
1023.0000;0.3932;-0.9651;
1023.3000;0.3940;-0.9577;
1023.6000;0.3940;-0.9552;
1023.9000;0.3948;-0.9577;
1024.2000;0.3948;-0.9527;
1024.5000;0.3940;-0.9552;
1024.8000;0.3940;-0.9626;
1025.1000;0.3915;-0.9750;
1025.4000;0.3956;-0.9725;
1025.7000;0.3932;-0.9775;
1026.0000;0.4013;-0.9527;
1026.3000;0.4029;-0.9404;
1026.6000;0.3940;-0.9626;
1026.9000;0.3964;-0.9577;
1027.2000;0.3907;-0.9725;
1027.5000;0.3948;-0.9750;
1027.8000;0.3907;-0.9899;
1028.1000;0.3940;-0.9701;
1028.4000;0.3932;-0.9651;
1028.7000;0.3948;-0.9552;
1029.0000;0.3932;-0.9577;
1029.3000;0.3940;-0.9453;
1029.6000;0.3948;-0.9428;
1029.9000;0.3940;-0.9379;
1030.2000;0.3948;-0.9428;
1030.5000;0.3940;-0.9478;
1030.8000;0.3932;-0.9602;
1031.1000;0.3948;-0.9552;
1031.4000;0.3956;-0.9527;
1031.7000;0.3932;-0.9602;
1032.0000;0.3826;-0.9923;
1032.3000;0.3932;-0.9626;
1032.6000;0.3948;-0.9602;
1032.9000;0.3948;-0.9602;
1033.2000;0.3948;-0.9602;
1033.5000;0.3940;-0.9626;
1033.8000;0.3956;-0.9626;
1034.1000;0.3989;-0.9503;
1034.4000;0.3940;-0.9552;
1034.7000;0.3948;-0.9602;
1035.0000;0.3956;-0.9503;
1035.3000;0.3923;-0.9626;
1035.6000;0.3948;-0.9527;
1035.9000;0.3964;-0.9527;
1036.2000;0.3932;-0.9552;
1036.5000;0.3915;-0.9552;
1036.8000;0.3923;-0.9428;
1037.1000;0.3932;-0.9404;
1037.4000;0.3923;-0.9428;
1037.7000;0.3932;-0.9428;
1038.0000;0.3948;-0.9354;
1038.3000;0.3940;-0.9404;
1038.6000;0.3940;-0.9379;
1038.9000;0.3948;-0.9404;
1039.2000;0.3940;-0.9503;
1039.5000;0.3940;-0.9305;
1039.8000;0.3932;-0.9280;
1040.1000;0.3956;-0.9379;
1040.4000;0.3940;-0.9527;
1040.7000;0.3923;-0.9701;
1041.0000;0.3932;-0.9651;
1041.3000;0.3923;-0.9701;
1041.6000;0.3915;-0.9750;
1041.9000;0.3899;-0.9849;
1042.2000;0.3932;-0.9725;
1042.5000;0.3883;-0.9849;
1042.8000;0.3940;-0.9725;
1043.1000;0.3875;-0.9973;
1043.4000;0.3915;-0.9874;
1043.7000;0.3923;-0.9800;
1044.0000;0.3923;-0.9651;
1044.3000;0.3923;-0.9651;
1044.6000;0.3932;-0.9626;
1044.9000;0.3915;-0.9651;
1045.2000;0.3940;-0.9626;
1045.5000;0.4029;-0.9280;
1045.8000;0.3899;-0.9602;
1046.1000;0.3948;-0.9453;
1046.4000;0.3956;-0.9478;
1046.7000;0.3923;-0.9552;
1047.0000;0.3948;-0.9503;
1047.3000;0.3948;-0.9626;
1047.6000;0.3948;-0.9626;
1047.9000;0.3932;-0.9701;
1048.2000;0.3940;-0.9676;
1048.5000;0.3923;-0.9676;
1048.8000;0.3948;-0.9527;
1049.1000;0.3956;-0.9527;
1049.4000;0.3980;-0.9602;
1049.7000;0.3932;-0.9552;
1050.0000;0.3948;-0.9503;
1050.3000;0.3891;-0.9602;
1050.6000;0.3932;-0.9577;
1050.9000;0.3956;-0.9478;
1051.2000;0.3891;-0.9626;
1051.5000;0.3932;-0.9379;
1051.8000;0.3932;-0.9379;
1052.1000;0.3923;-0.9428;
1052.4000;0.3932;-0.9329;
1052.7000;0.3923;-0.9329;
1053.0000;0.3989;-0.9181;
1053.3000;0.3915;-0.9404;
1053.6000;0.3923;-0.9404;
1053.9000;0.3956;-0.9280;
1054.2000;0.3899;-0.9453;
1054.5000;0.3956;-0.9379;
1054.8000;0.3940;-0.9453;
1055.1000;0.3923;-0.9503;
1055.4000;0.4005;-0.9354;
1055.7000;0.3940;-0.9602;
1056.0000;0.3964;-0.9577;
1056.3000;0.3932;-0.9651;
1056.6000;0.3989;-0.9626;
1056.9000;0.3907;-0.9750;
1057.2000;0.3923;-0.9577;
1057.5000;0.3940;-0.9527;
1057.8000;0.3940;-0.9453;
1058.1000;0.3940;-0.9379;
1058.4000;0.3940;-0.9428;
1058.7000;0.3932;-0.9428;
1059.0000;0.3948;-0.9354;
1059.3000;0.3915;-0.9503;
1059.6000;0.3932;-0.9453;
1059.9000;0.3940;-0.9527;
1060.2000;0.3956;-0.9527;
1060.5000;0.3923;-0.9602;
1060.8000;0.3940;-0.9577;
1061.1000;0.4005;-0.9552;
1061.4000;0.3932;-0.9626;
1061.7000;0.3940;-0.9552;
1062.0000;0.3915;-0.9453;
1062.3000;0.3932;-0.9428;
1062.6000;0.3932;-0.9404;
1062.9000;0.3907;-0.9453;
1063.2000;0.3923;-0.9453;
1063.5000;0.3940;-0.9428;
1063.8000;0.3940;-0.9552;
1064.1000;0.3940;-0.9478;
1064.4000;0.3940;-0.9503;
1064.7000;0.3940;-0.9478;
1065.0000;0.3972;-0.9329;
1065.3000;0.3940;-0.9404;
1065.6000;0.3932;-0.9478;
1065.9000;0.3932;-0.9552;
1066.2000;0.3915;-0.9552;
1066.5000;0.3940;-0.9453;
1066.8000;0.3940;-0.9453;
1067.1000;0.3997;-0.9379;
1067.4000;0.3940;-0.9503;
1067.7000;0.3940;-0.9478;
1068.0000;0.3948;-0.9478;
1068.3000;0.3956;-0.9354;
1068.6000;0.3989;-0.9255;
1068.9000;0.4005;-0.9255;
1069.2000;0.3964;-0.9354;
1069.5000;0.3989;-0.9230;
1069.8000;0.3932;-0.9379;
1070.1000;0.3940;-0.9453;
1070.4000;0.3940;-0.9404;
1070.7000;0.3907;-0.9453;
1071.0000;0.3932;-0.9404;
1071.3000;0.3923;-0.9428;
1071.6000;0.3883;-0.9577;
1071.9000;0.3932;-0.9503;
1072.2000;0.3907;-0.9453;
1072.5000;0.3899;-0.9478;
1072.8000;0.3915;-0.9428;
1073.1000;0.3932;-0.9478;
1073.4000;0.3964;-0.9428;
1073.7000;0.3932;-0.9478;
1074.0000;0.3923;-0.9478;
1074.3000;0.3940;-0.9527;
1074.6000;0.3932;-0.9552;
1074.9000;0.3932;-0.9527;
1075.2000;0.3915;-0.9577;
1075.5000;0.3932;-0.9503;
1075.8000;0.3940;-0.9478;
1076.1000;0.4005;-0.9305;
1076.4000;0.3940;-0.9503;
1076.7000;0.3948;-0.9329;
1077.0000;0.3923;-0.9354;
1077.3000;0.3899;-0.9453;
1077.6000;0.3940;-0.9354;
1077.9000;0.3923;-0.9428;
1078.2000;0.3932;-0.9577;
1078.5000;0.3923;-0.9577;
1078.8000;0.3932;-0.9503;
1079.1000;0.3932;-0.9478;
1079.4000;0.3948;-0.9428;
1079.7000;0.3940;-0.9453;
1080.0000;0.3948;-0.9379;
1080.3000;0.3907;-0.9379;
1080.6000;0.3932;-0.9379;
1080.9000;0.3940;-0.9404;
1081.2000;0.3940;-0.9379;
1081.5000;0.3923;-0.9428;
1081.8000;0.3932;-0.9379;
1082.1000;0.3907;-0.9428;
1082.4000;0.3932;-0.9404;
1082.7000;0.3989;-0.9280;
1083.0000;0.3915;-0.9354;
1083.3000;0.3948;-0.9255;
1083.6000;0.3923;-0.9280;
1083.9000;0.3915;-0.9354;
1084.2000;0.3915;-0.9428;
1084.5000;0.3956;-0.9305;
1084.8000;0.3932;-0.9329;
1085.1000;0.3923;-0.9329;
1085.4000;0.3940;-0.9354;
1085.7000;0.3932;-0.9305;
1086.0000;0.3932;-0.9280;
1086.3000;0.3915;-0.9280;
1086.6000;0.3923;-0.9379;
1086.9000;0.3932;-0.9329;
1087.2000;0.3923;-0.9453;
1087.5000;0.3923;-0.9552;
1087.8000;0.3915;-0.9626;
1088.1000;0.3907;-0.9701;
1088.4000;0.3915;-0.9626;
1088.7000;0.3923;-0.9701;
1089.0000;0.3940;-0.9626;
1089.3000;0.3932;-0.9626;
1089.6000;0.3980;-0.9626;
1089.9000;0.3948;-0.9626;
1090.2000;0.3907;-0.9527;
1090.5000;0.3923;-0.9379;
1090.8000;0.3923;-0.9428;
1091.1000;0.4013;-0.9107;
1091.4000;0.3907;-0.9329;
1091.7000;0.3907;-0.9453;
1092.0000;0.3932;-0.9428;
1092.3000;0.3940;-0.9428;
1092.6000;0.3932;-0.9503;
1092.9000;0.3923;-0.9527;
1093.2000;0.3915;-0.9527;
1093.5000;0.3915;-0.9478;
1093.8000;0.3923;-0.9453;
1094.1000;0.3940;-0.9404;
1094.4000;0.3923;-0.9305;
1094.7000;0.3997;-0.9156;
1095.0000;0.3923;-0.9354;
1095.3000;0.3915;-0.9404;
1095.6000;0.3834;-0.9651;
1095.9000;0.3932;-0.9280;
1096.2000;0.3915;-0.9478;
1096.5000;0.3932;-0.9478;
1096.8000;0.3907;-0.9428;
1097.1000;0.3867;-0.9552;
1097.4000;0.3940;-0.9404;
1097.7000;0.3964;-0.9404;
1098.0000;0.3923;-0.9404;
1098.3000;0.3940;-0.9354;
1098.6000;0.3899;-0.9478;
1098.9000;0.4005;-0.9156;
1099.2000;0.3891;-0.9404;
1099.5000;0.3923;-0.9478;
1099.8000;0.3923;-0.9478;
1100.1000;0.3940;-0.9602;
1100.4000;0.3923;-0.9626;
1100.7000;0.3972;-0.9478;
1101.0000;0.3932;-0.9602;
1101.3000;0.3915;-0.9577;
1101.6000;0.3956;-0.9478;
1101.9000;0.3923;-0.9577;
1102.2000;0.3956;-0.9503;
1102.5000;0.3932;-0.9552;
1102.8000;0.3915;-0.9453;
1103.1000;0.3875;-0.9602;
1103.4000;0.3923;-0.9379;
1103.7000;0.3923;-0.9404;
1104.0000;0.3932;-0.9428;
1104.3000;0.3932;-0.9478;
1104.6000;0.3940;-0.9478;
1104.9000;0.3932;-0.9453;
1105.2000;0.3940;-0.9379;
1105.5000;0.3940;-0.9527;
1105.8000;0.3940;-0.9428;
1106.1000;0.3923;-0.9379;
1106.4000;0.3923;-0.9404;
1106.7000;0.3923;-0.9354;
1107.0000;0.3940;-0.9404;
1107.3000;0.3923;-0.9379;
1107.6000;0.3964;-0.9379;
1107.9000;0.3923;-0.9453;
1108.2000;0.3923;-0.9404;
1108.5000;0.3940;-0.9379;
1108.8000;0.3956;-0.9329;
1109.1000;0.3932;-0.9404;
1109.4000;0.3923;-0.9379;
1109.7000;0.3899;-0.9478;
1110.0000;0.3891;-0.9478;
1110.3000;0.3932;-0.9453;
1110.6000;0.3948;-0.9428;
1110.9000;0.3923;-0.9428;
1111.2000;0.3915;-0.9428;
1111.5000;0.3932;-0.9280;
1111.8000;0.3899;-0.9354;
1112.1000;0.3923;-0.9354;
1112.4000;0.3923;-0.9428;
1112.7000;0.3915;-0.9602;
1113.0000;0.3915;-0.9602;
1113.3000;0.3907;-0.9651;
1113.6000;0.3899;-0.9626;
1113.9000;0.3915;-0.9503;
1114.2000;0.3923;-0.9676;
1114.5000;0.3907;-0.9701;
1114.8000;0.3899;-0.9725;
1115.1000;0.3940;-0.9676;
1115.4000;0.3907;-0.9701;
1115.7000;0.3907;-0.9750;
1116.0000;0.3899;-0.9824;
1116.3000;0.3923;-0.9725;
1116.6000;0.3972;-0.9577;
1116.9000;0.3907;-0.9750;
1117.2000;0.3940;-0.9626;
1117.5000;0.3940;-0.9577;
1117.8000;0.3891;-0.9577;
1118.1000;0.3899;-0.9577;
1118.4000;0.3932;-0.9602;
1118.7000;0.3932;-0.9577;
1119.0000;0.3915;-0.9577;
1119.3000;0.3923;-0.9552;
1119.6000;0.3899;-0.9577;
1119.9000;0.3875;-0.9651;
1120.2000;0.3923;-0.9651;
1120.5000;0.3923;-0.9651;
1120.8000;0.3972;-0.9428;
1121.1000;0.3940;-0.9453;
1121.4000;0.3940;-0.9404;
1121.7000;0.3972;-0.9354;
1122.0000;0.3997;-0.9255;
1122.3000;0.4013;-0.9230;
1122.6000;0.3932;-0.9404;
1122.9000;0.3915;-0.9527;
1123.2000;0.3964;-0.9453;
1123.5000;0.3899;-0.9577;
1123.8000;0.3891;-0.9626;
1124.1000;0.3915;-0.9577;
1124.4000;0.3858;-0.9750;
1124.7000;0.3923;-0.9428;
1125.0000;0.3899;-0.9453;
1125.3000;0.3980;-0.9280;
1125.6000;0.3915;-0.9404;
1125.9000;0.3932;-0.9503;
1126.2000;0.3899;-0.9552;
1126.5000;0.3915;-0.9379;
1126.8000;0.3891;-0.9329;
1127.1000;0.3915;-0.9255;
1127.4000;0.3932;-0.9305;
1127.7000;0.3932;-0.9379;
1128.0000;0.3932;-0.9379;
1128.3000;0.3923;-0.9379;
1128.6000;0.3948;-0.9329;
1128.9000;0.3940;-0.9329;
1129.2000;0.3940;-0.9280;
1129.5000;0.3932;-0.9329;
1129.8000;0.3923;-0.9354;
1130.1000;0.3899;-0.9404;
1130.4000;0.3915;-0.9354;
1130.7000;0.3923;-0.9404;
1131.0000;0.3923;-0.9404;
1131.3000;0.3923;-0.9329;
1131.6000;0.3923;-0.9404;
1131.9000;0.3932;-0.9280;
1132.2000;0.3940;-0.9329;
1132.5000;0.3915;-0.9305;
1132.8000;0.3948;-0.9255;
1133.1000;0.3907;-0.9379;
1133.4000;0.3948;-0.9354;
1133.7000;0.3915;-0.9478;
1134.0000;0.3923;-0.9478;
1134.3000;0.3940;-0.9478;
1134.6000;0.3907;-0.9552;
1134.9000;0.3899;-0.9527;
1135.2000;0.3923;-0.9404;
1135.5000;0.3932;-0.9280;
1135.8000;0.3940;-0.9181;
1136.1000;0.3907;-0.9230;
1136.4000;0.3907;-0.9181;
1136.7000;0.3932;-0.9280;
1137.0000;0.3923;-0.9305;
1137.3000;0.3923;-0.9404;
1137.6000;0.3923;-0.9404;
1137.9000;0.3932;-0.9503;
1138.2000;0.3948;-0.9428;
1138.5000;0.3932;-0.9527;
1138.8000;0.3891;-0.9676;
1139.1000;0.3907;-0.9602;
1139.4000;0.3940;-0.9577;
1139.7000;0.3899;-0.9577;
1140.0000;0.3891;-0.9478;
1140.3000;0.3907;-0.9503;
1140.6000;0.3915;-0.9404;
1140.9000;0.3956;-0.9329;
1141.2000;0.3915;-0.9428;
1141.5000;0.3932;-0.9329;
1141.8000;0.3923;-0.9379;
1142.1000;0.3923;-0.9379;
1142.4000;0.3932;-0.9354;
1142.7000;0.3923;-0.9379;
1143.0000;0.3907;-0.9428;
1143.3000;0.3940;-0.9428;
1143.6000;0.3891;-0.9552;
1143.9000;0.3948;-0.9428;
1144.2000;0.3964;-0.9354;
1144.5000;0.3940;-0.9329;
1144.8000;0.3907;-0.9404;
1145.1000;0.4013;-0.9082;
1145.4000;0.3932;-0.9329;
1145.7000;0.3932;-0.9230;
1146.0000;0.3923;-0.9255;
1146.3000;0.3875;-0.9503;
1146.6000;0.3915;-0.9280;
1146.9000;0.3956;-0.9280;
1147.2000;0.3940;-0.9354;
1147.5000;0.3932;-0.9379;
1147.8000;0.3932;-0.9404;
1148.1000;0.3932;-0.9404;
1148.4000;0.4029;-0.9181;
1148.7000;0.3923;-0.9478;
1149.0000;0.3940;-0.9453;
1149.3000;0.3932;-0.9404;
1149.6000;0.3932;-0.9354;
1149.9000;0.3907;-0.9404;
1150.2000;0.3923;-0.9379;
1150.5000;0.3907;-0.9404;
1150.8000;0.3915;-0.9379;
1151.1000;0.3915;-0.9329;
1151.4000;0.3915;-0.9255;
1151.7000;0.3907;-0.9255;
1152.0000;0.3923;-0.9230;
1152.3000;0.3883;-0.9478;
1152.6000;0.3915;-0.9428;
1152.9000;0.3915;-0.9404;
1153.2000;0.3932;-0.9478;
1153.5000;0.3940;-0.9478;
1153.8000;0.3948;-0.9503;
1154.1000;0.3915;-0.9602;
1154.4000;0.3923;-0.9602;
1154.7000;0.3932;-0.9552;
1155.0000;0.3907;-0.9602;
1155.3000;0.3915;-0.9527;
1155.6000;0.3940;-0.9404;
1155.9000;0.3915;-0.9404;
1156.2000;0.3932;-0.9453;
1156.5000;0.3956;-0.9428;
1156.8000;0.3932;-0.9428;
1157.1000;0.3923;-0.9478;
1157.4000;0.3891;-0.9552;
1157.7000;0.3940;-0.9478;
1158.0000;0.3932;-0.9527;
1158.3000;0.3940;-0.9453;
1158.6000;0.3915;-0.9453;
1158.9000;0.3891;-0.9428;
1159.2000;0.3907;-0.9428;
1159.5000;0.3915;-0.9503;
1159.8000;0.3923;-0.9552;
1160.1000;0.3907;-0.9404;
1160.4000;0.3972;-0.9230;
1160.7000;0.3915;-0.9404;
1161.0000;0.3940;-0.9329;
1161.3000;0.3915;-0.9379;
1161.6000;0.3899;-0.9329;
1161.9000;0.3907;-0.9329;
1162.2000;0.3932;-0.9280;
1162.5000;0.3923;-0.9329;
1162.8000;0.3915;-0.9305;
1163.1000;0.3940;-0.9255;
1163.4000;0.3907;-0.9206;
1163.7000;0.3932;-0.9156;
1164.0000;0.3915;-0.9255;
1164.3000;0.3907;-0.9404;
1164.6000;0.3923;-0.9478;
1164.9000;0.3923;-0.9503;
1165.2000;0.3948;-0.9478;
1165.5000;0.3923;-0.9503;
1165.8000;0.3907;-0.9577;
1166.1000;0.3923;-0.9577;
1166.4000;0.3956;-0.9503;
1166.7000;0.3883;-0.9676;
1167.0000;0.3907;-0.9676;
1167.3000;0.3932;-0.9701;
1167.6000;0.3948;-0.9676;
1167.9000;0.3915;-0.9676;
1168.2000;0.3932;-0.9602;
1168.5000;0.3932;-0.9626;
1168.8000;0.3923;-0.9651;
1169.1000;0.3948;-0.9577;
1169.4000;0.3940;-0.9602;
1169.7000;0.3923;-0.9577;
1170.0000;0.3923;-0.9651;
1170.3000;0.3915;-0.9626;
1170.6000;0.3907;-0.9577;
1170.9000;0.3907;-0.9552;
1171.2000;0.3915;-0.9527;
1171.5000;0.3932;-0.9453;
1171.8000;0.3915;-0.9478;
1172.1000;0.3915;-0.9453;
1172.4000;0.3980;-0.9329;
1172.7000;0.3932;-0.9552;
1173.0000;0.3948;-0.9527;
1173.3000;0.3923;-0.9552;
1173.6000;0.3940;-0.9527;
1173.9000;0.3932;-0.9527;
1174.2000;0.3891;-0.9651;
1174.5000;0.3915;-0.9577;
1174.8000;0.3923;-0.9626;
1175.1000;0.3923;-0.9527;
1175.4000;0.3915;-0.9503;
1175.7000;0.4021;-0.9132;
1176.0000;0.3932;-0.9453;
1176.3000;0.3932;-0.9527;
1176.6000;0.3915;-0.9577;
1176.9000;0.3940;-0.9527;
1177.2000;0.3923;-0.9478;
1177.5000;0.3948;-0.9428;
1177.8000;0.3956;-0.9478;
1178.1000;0.3923;-0.9527;
1178.4000;0.3907;-0.9478;
1178.7000;0.3940;-0.9453;
1179.0000;0.3915;-0.9453;
1179.3000;0.3940;-0.9527;
1179.6000;0.3932;-0.9552;
1179.9000;0.3907;-0.9602;
1180.2000;0.3923;-0.9626;
1180.5000;0.3842;-0.9725;
1180.8000;0.3907;-0.9478;
1181.1000;0.3923;-0.9428;
1181.4000;0.3883;-0.9552;
1181.7000;0.3940;-0.9527;
1182.0000;0.3972;-0.9478;
1182.3000;0.3972;-0.9453;
1182.6000;0.3923;-0.9503;
1182.9000;0.3997;-0.9379;
1183.2000;0.3932;-0.9503;
1183.5000;0.3899;-0.9602;
1183.8000;0.3932;-0.9503;
1184.1000;0.3875;-0.9701;
1184.4000;0.3948;-0.9527;
1184.7000;0.3923;-0.9577;
1185.0000;0.3923;-0.9503;
1185.3000;0.3940;-0.9453;
1185.6000;0.3915;-0.9478;
1185.9000;0.3940;-0.9527;
1186.2000;0.3923;-0.9527;
1186.5000;0.3923;-0.9552;
1186.8000;0.3923;-0.9478;
1187.1000;0.3923;-0.9577;
1187.4000;0.3923;-0.9676;
1187.7000;0.3932;-0.9602;
1188.0000;0.3956;-0.9503;
1188.3000;0.3932;-0.9527;
1188.6000;0.3907;-0.9577;
1188.9000;0.3915;-0.9577;
1189.2000;0.3972;-0.9453;
1189.5000;0.3915;-0.9626;
1189.8000;0.3915;-0.9725;
1190.1000;0.3907;-0.9676;
1190.4000;0.3915;-0.9626;
1190.7000;0.3923;-0.9602;
1191.0000;0.3972;-0.9527;
1191.3000;0.3907;-0.9676;
1191.6000;0.3907;-0.9626;
1191.9000;0.3932;-0.9602;
1192.2000;0.3923;-0.9602;
1192.5000;0.3915;-0.9676;
1192.8000;0.3923;-0.9577;
1193.1000;0.3923;-0.9602;
1193.4000;0.3932;-0.9602;
1193.7000;0.3932;-0.9626;
1194.0000;0.3948;-0.9552;
1194.3000;0.3867;-0.9750;
1194.6000;0.3923;-0.9602;
1194.9000;0.3932;-0.9651;
1195.2000;0.3940;-0.9577;
1195.5000;0.3923;-0.9701;
1195.8000;0.3923;-0.9676;
1196.1000;0.3964;-0.9676;
1196.4000;0.3915;-0.9849;
1196.7000;0.3932;-0.9824;
1197.0000;0.3940;-0.9725;
1197.3000;0.3915;-0.9800;
1197.6000;0.3915;-0.9725;
1197.9000;0.3915;-0.9676;
1198.2000;0.3964;-0.9503;
1198.5000;0.3891;-0.9602;
1198.8000;0.3923;-0.9626;
1199.1000;0.3907;-0.9527;
1199.4000;0.3948;-0.9527;
1199.7000;0.3948;-0.9552;
1200.0000;0.3923;-0.9626;
1200.3000;0.3899;-0.9602;
1200.6000;0.3858;-0.9775;
1200.9000;0.3948;-0.9602;
1201.2000;0.3899;-0.9701;
1201.5000;0.3923;-0.9651;
1201.8000;0.3915;-0.9676;
1202.1000;0.3932;-0.9602;
1202.4000;0.3899;-0.9602;
1202.7000;0.3915;-0.9676;
1203.0000;0.3923;-0.9651;
1203.3000;0.3932;-0.9651;
1203.6000;0.3948;-0.9626;
1203.9000;0.3932;-0.9651;
1204.2000;0.3915;-0.9725;
1204.5000;0.3923;-0.9701;
1204.8000;0.3932;-0.9626;
1205.1000;0.3899;-0.9750;
1205.4000;0.3899;-0.9849;
1205.7000;0.3923;-0.9750;
1206.0000;0.3964;-0.9725;
1206.3000;0.3907;-0.9874;
1206.6000;0.3980;-0.9701;
1206.9000;0.3899;-0.9849;
1207.2000;0.3948;-0.9676;
1207.5000;0.3883;-0.9800;
1207.8000;0.3923;-0.9626;
1208.1000;0.3891;-0.9750;
1208.4000;0.3940;-0.9602;
1208.7000;0.3932;-0.9602;
1209.0000;0.3923;-0.9676;
1209.3000;0.3923;-0.9626;
1209.6000;0.3907;-0.9676;
1209.9000;0.3940;-0.9602;
1210.2000;0.3932;-0.9651;
1210.5000;0.3915;-0.9701;
1210.8000;0.3907;-0.9750;
1211.1000;0.3923;-0.9775;
1211.4000;0.3923;-0.9849;
1211.7000;0.3850;-1.0047;
1212.0000;0.3915;-0.9800;
1212.3000;0.3907;-0.9775;
1212.6000;0.3940;-0.9725;
1212.9000;0.3923;-0.9775;
1213.2000;0.4005;-0.9527;
1213.5000;0.3948;-0.9626;
1213.8000;0.3907;-0.9651;
1214.1000;0.3899;-0.9552;
1214.4000;0.3915;-0.9602;
1214.7000;0.3915;-0.9577;
1215.0000;0.3826;-0.9899;
1215.3000;0.3940;-0.9676;
1215.6000;0.3899;-0.9775;
1215.9000;0.3915;-0.9824;
1216.2000;0.3915;-0.9849;
1216.5000;0.3899;-0.9874;
1216.8000;0.3899;-0.9849;
1217.1000;0.4013;-0.9527;
1217.4000;0.3932;-0.9750;
1217.7000;0.3940;-0.9701;
1218.0000;0.3972;-0.9527;
1218.3000;0.3915;-0.9602;
1218.6000;0.3923;-0.9577;
1218.9000;0.3915;-0.9552;
1219.2000;0.3940;-0.9453;
1219.5000;0.3932;-0.9453;
1219.8000;0.3980;-0.9379;
1220.1000;0.3891;-0.9651;
1220.4000;0.3932;-0.9527;
1220.7000;0.3883;-0.9701;
1221.0000;0.3915;-0.9602;
1221.3000;0.3964;-0.9478;
1221.6000;0.3940;-0.9527;
1221.9000;0.3964;-0.9428;
1222.2000;0.3899;-0.9626;
1222.5000;0.3932;-0.9577;
1222.8000;0.3834;-0.9948;
1223.1000;0.3923;-0.9651;
1223.4000;0.3915;-0.9725;
1223.7000;0.3923;-0.9602;
1224.0000;0.3923;-0.9552;
1224.3000;0.3915;-0.9552;
1224.6000;0.3923;-0.9651;
1224.9000;0.3940;-0.9552;
1225.2000;0.3915;-0.9626;
1225.5000;0.3891;-0.9626;
1225.8000;0.3915;-0.9552;
1226.1000;0.3915;-0.9676;
1226.4000;0.3899;-0.9800;
1226.7000;0.3899;-0.9800;
1227.0000;0.3891;-0.9725;
1227.3000;0.3923;-0.9701;
1227.6000;0.3940;-0.9676;
1227.9000;0.3915;-0.9725;
1228.2000;0.3915;-0.9725;
1228.5000;0.3923;-0.9651;
1228.8000;0.3915;-0.9725;
1229.1000;0.3940;-0.9775;
1229.4000;0.3883;-0.9899;
1229.7000;0.3932;-0.9750;
1230.0000;0.3850;-1.0047;
1230.3000;0.3923;-0.9998;
1230.6000;0.3891;-1.0121;
1230.9000;0.3915;-1.0022;
1231.2000;0.3932;-0.9923;
1231.5000;0.3883;-0.9998;
1231.8000;0.3907;-0.9899;
1232.1000;0.3923;-0.9874;
1232.4000;0.3915;-0.9800;
1232.7000;0.3940;-0.9800;
1233.0000;0.3964;-0.9676;
1233.3000;0.3899;-0.9775;
1233.6000;0.3923;-0.9750;
1233.9000;0.3915;-0.9676;
1234.2000;0.3915;-0.9651;
1234.5000;0.3932;-0.9676;
1234.8000;0.3915;-0.9725;
1235.1000;0.3891;-0.9750;
1235.4000;0.3923;-0.9676;
1235.7000;0.3956;-0.9577;
1236.0000;0.3915;-0.9775;
1236.3000;0.3899;-0.9824;
1236.6000;0.3932;-0.9775;
1236.9000;0.3899;-0.9775;
1237.2000;0.3923;-0.9824;
1237.5000;0.3923;-0.9750;
1237.8000;0.3956;-0.9701;
1238.1000;0.3891;-0.9800;
1238.4000;0.3940;-0.9651;
1238.7000;0.3915;-0.9676;
1239.0000;0.3923;-0.9651;
1239.3000;0.3964;-0.9503;
1239.6000;0.3932;-0.9626;
1239.9000;0.3915;-0.9626;
1240.2000;0.3899;-0.9651;
1240.5000;0.3932;-0.9626;
1240.8000;0.3923;-0.9602;
1241.1000;0.3923;-0.9626;
1241.4000;0.3826;-0.9899;
1241.7000;0.3915;-0.9577;
1242.0000;0.3948;-0.9453;
1242.3000;0.3923;-0.9478;
1242.6000;0.3940;-0.9527;
1242.9000;0.3923;-0.9577;
1243.2000;0.3932;-0.9676;
1243.5000;0.3923;-0.9725;
1243.8000;0.3932;-0.9750;
1244.1000;0.3940;-0.9701;
1244.4000;0.3915;-0.9775;
1244.7000;0.3932;-0.9701;
1245.0000;0.3907;-0.9676;
1245.3000;0.3923;-0.9626;
1245.6000;0.3915;-0.9552;
1245.9000;0.3956;-0.9478;
1246.2000;0.3915;-0.9577;
1246.5000;0.3923;-0.9552;
1246.8000;0.3932;-0.9453;
1247.1000;0.3948;-0.9354;
1247.4000;0.3915;-0.9354;
1247.7000;0.3932;-0.9404;
1248.0000;0.3964;-0.9354;
1248.3000;0.3923;-0.9478;
1248.6000;0.3997;-0.9305;
1248.9000;0.3948;-0.9404;
1249.2000;0.3907;-0.9428;
1249.5000;0.3923;-0.9453;
1249.8000;0.3915;-0.9503;
1250.1000;0.3907;-0.9453;
1250.4000;0.3915;-0.9503;
1250.7000;0.3899;-0.9552;
1251.0000;0.3923;-0.9478;
1251.3000;0.3923;-0.9478;
1251.6000;0.3932;-0.9379;
1251.9000;0.3915;-0.9354;
1252.2000;0.3923;-0.9329;
1252.5000;0.3972;-0.9280;
1252.8000;0.3940;-0.9379;
1253.1000;0.3932;-0.9428;
1253.4000;0.3940;-0.9404;
1253.7000;0.3915;-0.9503;
1254.0000;0.3907;-0.9478;
1254.3000;0.3964;-0.9404;
1254.6000;0.3891;-0.9577;
1254.9000;0.3907;-0.9527;
1255.2000;0.3948;-0.9478;
1255.5000;0.3923;-0.9478;
1255.8000;0.3940;-0.9379;
1256.1000;0.3932;-0.9453;
1256.4000;0.3923;-0.9354;
1256.7000;0.3907;-0.9329;
1257.0000;0.3932;-0.9255;
1257.3000;0.3923;-0.9230;
1257.6000;0.3923;-0.9206;
1257.9000;0.3948;-0.9280;
1258.2000;0.3867;-0.9577;
1258.5000;0.3923;-0.9329;
1258.8000;0.3948;-0.9255;
1259.1000;0.3915;-0.9329;
1259.4000;0.3915;-0.9305;
1259.7000;0.3915;-0.9428;
1260.0000;0.3932;-0.9453;
1260.3000;0.3964;-0.9379;
1260.6000;0.3915;-0.9453;
1260.9000;0.3923;-0.9453;
1261.2000;0.3899;-0.9503;
1261.5000;0.3915;-0.9453;
1261.8000;0.3932;-0.9453;
1262.1000;0.3948;-0.9478;
1262.4000;0.4021;-0.9305;
1262.7000;0.4005;-0.9305;
1263.0000;0.3923;-0.9453;
1263.3000;0.3940;-0.9379;
1263.6000;0.3923;-0.9404;
1263.9000;0.3932;-0.9428;
1264.2000;0.3956;-0.9404;
1264.5000;0.3923;-0.9478;
1264.8000;0.3932;-0.9478;
1265.1000;0.3923;-0.9577;
1265.4000;0.3915;-0.9503;
1265.7000;0.3932;-0.9527;
1266.0000;0.3891;-0.9503;
1266.3000;0.3923;-0.9428;
1266.6000;0.3915;-0.9404;
1266.9000;0.3867;-0.9577;
1267.2000;0.3907;-0.9453;
1267.5000;0.3923;-0.9478;
1267.8000;0.3899;-0.9577;
1268.1000;0.3907;-0.9626;
1268.4000;0.3932;-0.9602;
1268.7000;0.3915;-0.9626;
1269.0000;0.3940;-0.9453;
1269.3000;0.3915;-0.9503;
1269.6000;0.3915;-0.9478;
1269.9000;0.3923;-0.9428;
1270.2000;0.3907;-0.9503;
1270.5000;0.3940;-0.9478;
1270.8000;0.3883;-0.9626;
1271.1000;0.3932;-0.9527;
1271.4000;0.3915;-0.9577;
1271.7000;0.3899;-0.9527;
1272.0000;0.3923;-0.9527;
1272.3000;0.3923;-0.9577;
1272.6000;0.3915;-0.9651;
1272.9000;0.3932;-0.9725;
1273.2000;0.3932;-0.9701;
1273.5000;0.3923;-0.9651;
1273.8000;0.3972;-0.9552;
1274.1000;0.3923;-0.9725;
1274.4000;0.3932;-0.9701;
1274.7000;0.3972;-0.9577;
1275.0000;0.3948;-0.9552;
1275.3000;0.3932;-0.9503;
1275.6000;0.3875;-0.9676;
1275.9000;0.3932;-0.9527;
1276.2000;0.3940;-0.9503;
1276.5000;0.3923;-0.9577;
1276.8000;0.3923;-0.9651;
1277.1000;0.3883;-0.9651;
1277.4000;0.3883;-0.9602;
1277.7000;0.3899;-0.9552;
1278.0000;0.3932;-0.9577;
1278.3000;0.3915;-0.9602;
1278.6000;0.3956;-0.9602;
1278.9000;0.3956;-0.9577;
1279.2000;0.3923;-0.9750;
1279.5000;0.3915;-0.9701;
1279.8000;0.3956;-0.9527;
1280.1000;0.3875;-0.9824;
1280.4000;0.3932;-0.9651;
1280.7000;0.3932;-0.9626;
1281.0000;0.3883;-0.9577;
1281.3000;0.3899;-0.9527;
1281.6000;0.3915;-0.9577;
1281.9000;0.3915;-0.9503;
1282.2000;0.3907;-0.9478;
1282.5000;0.3940;-0.9478;
1282.8000;0.3932;-0.9478;
1283.1000;0.3932;-0.9453;
1283.4000;0.3891;-0.9503;
1283.7000;0.3915;-0.9478;
1284.0000;0.3923;-0.9527;
1284.3000;0.3907;-0.9527;
1284.6000;0.3899;-0.9478;
1284.9000;0.3948;-0.9404;
1285.2000;0.3980;-0.9329;
1285.5000;0.3940;-0.9503;
1285.8000;0.3932;-0.9478;
1286.1000;0.3923;-0.9503;
1286.4000;0.3948;-0.9404;
1286.7000;0.3923;-0.9453;
1287.0000;0.3923;-0.9527;
1287.3000;0.3915;-0.9552;
1287.6000;0.3940;-0.9577;
1287.9000;0.3907;-0.9651;
1288.2000;0.3932;-0.9527;
1288.5000;0.3915;-0.9651;
1288.8000;0.3883;-0.9775;
1289.1000;0.3932;-0.9626;
1289.4000;0.3932;-0.9602;
1289.7000;0.3915;-0.9701;
1290.0000;0.3932;-0.9676;
1290.3000;0.3956;-0.9626;
1290.6000;0.3940;-0.9651;
1290.9000;0.3932;-0.9527;
1291.2000;0.3891;-0.9602;
1291.5000;0.3915;-0.9503;
1291.8000;0.3907;-0.9503;
1292.1000;0.3907;-0.9428;
1292.4000;0.3907;-0.9329;
1292.7000;0.3989;-0.9156;
1293.0000;0.3899;-0.9503;
1293.3000;0.3867;-0.9626;
1293.6000;0.3932;-0.9552;
1293.9000;0.3932;-0.9478;
1294.2000;0.3923;-0.9478;
1294.5000;0.3956;-0.9354;
1294.8000;0.3915;-0.9404;
1295.1000;0.3915;-0.9354;
1295.4000;0.3923;-0.9404;
1295.7000;0.3932;-0.9255;
1296.0000;0.3923;-0.9305;
1296.3000;0.3923;-0.9379;
1296.6000;0.3940;-0.9404;
1296.9000;0.3915;-0.9404;
1297.2000;0.3915;-0.9428;
1297.5000;0.3932;-0.9255;
1297.8000;0.3923;-0.9305;
1298.1000;0.3932;-0.9280;
1298.4000;0.4029;-0.8934;
1298.7000;0.4013;-0.8958;
1299.0000;0.3980;-0.9082;
1299.3000;0.3923;-0.9181;
1299.6000;0.3907;-0.9181;
1299.9000;0.3899;-0.9230;
1300.2000;0.3891;-0.9156;
1300.5000;0.3785;-0.9428;
1300.8000;0.3907;-0.9206;
1301.1000;0.3915;-0.9156;
1301.4000;0.3915;-0.9255;
1301.7000;0.3940;-0.9206;
1302.0000;0.3907;-0.9280;
1302.3000;0.3915;-0.9280;
1302.6000;0.3915;-0.9329;
1302.9000;0.3923;-0.9379;
1303.2000;0.3923;-0.9428;
1303.5000;0.3923;-0.9428;
1303.8000;0.3923;-0.9379;
1304.1000;0.3932;-0.9428;
1304.4000;0.3923;-0.9404;
1304.7000;0.3907;-0.9428;
1305.0000;0.3899;-0.9428;
1305.3000;0.3915;-0.9428;
1305.6000;0.3940;-0.9404;
1305.9000;0.3915;-0.9404;
1306.2000;0.3932;-0.9354;
1306.5000;0.3932;-0.9329;
1306.8000;0.3940;-0.9379;
1307.1000;0.3867;-0.9602;
1307.4000;0.3915;-0.9527;
1307.7000;0.3907;-0.9602;
1308.0000;0.3907;-0.9602;
1308.3000;0.3899;-0.9626;
1308.6000;0.3915;-0.9503;
1308.9000;0.3891;-0.9527;
1309.2000;0.3907;-0.9428;
1309.5000;0.3915;-0.9404;
1309.8000;0.3915;-0.9503;
1310.1000;0.3907;-0.9577;
1310.4000;0.3932;-0.9577;
1310.7000;0.3923;-0.9626;
1311.0000;0.3915;-0.9602;
1311.3000;0.3932;-0.9577;
1311.6000;0.3923;-0.9676;
1311.9000;0.3948;-0.9577;
1312.2000;0.3948;-0.9577;
1312.5000;0.3923;-0.9651;
1312.8000;0.3915;-0.9626;
1313.1000;0.3923;-0.9602;
1313.4000;0.3923;-0.9602;
1313.7000;0.3940;-0.9552;
1314.0000;0.3915;-0.9626;
1314.3000;0.3907;-0.9626;
1314.6000;0.3915;-0.9701;
1314.9000;0.3899;-0.9676;
1315.2000;0.3842;-0.9775;
1315.5000;0.3940;-0.9577;
1315.8000;0.3907;-0.9626;
1316.1000;0.3907;-0.9577;
1316.4000;0.3907;-0.9701;
1316.7000;0.3907;-0.9750;
1317.0000;0.3940;-0.9800;
1317.3000;0.3932;-0.9874;
1317.6000;0.3907;-0.9824;
1317.9000;0.3932;-0.9775;
1318.2000;0.3923;-0.9775;
1318.5000;0.3915;-0.9750;
1318.8000;0.3923;-0.9775;
1319.1000;0.3907;-0.9725;
1319.4000;0.3915;-0.9651;
1319.7000;0.3932;-0.9651;
1320.0000;0.3923;-0.9577;
1320.3000;0.3940;-0.9552;
1320.6000;0.3940;-0.9577;
1320.9000;0.3923;-0.9626;
1321.2000;0.3923;-0.9651;
1321.5000;0.3923;-0.9552;
1321.8000;0.3940;-0.9453;
1322.1000;0.3940;-0.9453;
1322.4000;0.3940;-0.9478;
1322.7000;0.3915;-0.9552;
1323.0000;0.3915;-0.9552;
1323.3000;0.3923;-0.9527;
1323.6000;0.3972;-0.9379;
1323.9000;0.3899;-0.9428;
1324.2000;0.3923;-0.9404;
1324.5000;0.3907;-0.9478;
1324.8000;0.3932;-0.9404;
1325.1000;0.3932;-0.9379;
1325.4000;0.3932;-0.9305;
1325.7000;0.3932;-0.9329;
1326.0000;0.3915;-0.9329;
1326.3000;0.3923;-0.9379;
1326.6000;0.3923;-0.9379;
1326.9000;0.3932;-0.9354;
1327.2000;0.4005;-0.9206;
1327.5000;0.3980;-0.9329;
1327.8000;0.3923;-0.9404;
1328.1000;0.3923;-0.9404;
1328.4000;0.3940;-0.9379;
1328.7000;0.3907;-0.9478;
1329.0000;0.3923;-0.9453;
1329.3000;0.3907;-0.9503;
1329.6000;0.3923;-0.9478;
1329.9000;0.3932;-0.9527;
1330.2000;0.3923;-0.9552;
1330.5000;0.3923;-0.9527;
1330.8000;0.3932;-0.9428;
1331.1000;0.3842;-0.9577;
1331.4000;0.3907;-0.9453;
1331.7000;0.3923;-0.9404;
1332.0000;0.3923;-0.9305;
1332.3000;0.4029;-0.9033;
1332.6000;0.3923;-0.9354;
1332.9000;0.3923;-0.9404;
1333.2000;0.3923;-0.9428;
1333.5000;0.3923;-0.9379;
1333.8000;0.3940;-0.9354;
1334.1000;0.3899;-0.9478;
1334.4000;0.3850;-0.9701;
1334.7000;0.3940;-0.9503;
1335.0000;0.3915;-0.9527;
1335.3000;0.3915;-0.9527;
1335.6000;0.3923;-0.9478;
1335.9000;0.3915;-0.9404;
1336.2000;0.3940;-0.9379;
1336.5000;0.3932;-0.9428;
1336.8000;0.3932;-0.9453;
1337.1000;0.3915;-0.9453;
1337.4000;0.3915;-0.9552;
1337.7000;0.3948;-0.9552;
1338.0000;0.3932;-0.9577;
1338.3000;0.3923;-0.9626;
1338.6000;0.3907;-0.9577;
1338.9000;0.3923;-0.9602;
1339.2000;0.3907;-0.9725;
1339.5000;0.3907;-0.9676;
1339.8000;0.3923;-0.9626;
1340.1000;0.3923;-0.9626;
1340.4000;0.3915;-0.9626;
1340.7000;0.3915;-0.9503;
1341.0000;0.3915;-0.9552;
1341.3000;0.3923;-0.9404;
1341.6000;0.3932;-0.9379;
1341.9000;0.3915;-0.9428;
1342.2000;0.3915;-0.9478;
1342.5000;0.3923;-0.9428;
1342.8000;0.3932;-0.9428;
1343.1000;0.3915;-0.9552;
1343.4000;0.3932;-0.9577;
1343.7000;0.3907;-0.9725;
1344.0000;0.3923;-0.9676;
1344.3000;0.3923;-0.9701;
1344.6000;0.3940;-0.9626;
1344.9000;0.4046;-0.9305;
1345.2000;0.3948;-0.9552;
1345.5000;0.3923;-0.9552;
1345.8000;0.3883;-0.9626;
1346.1000;0.3948;-0.9478;
1346.4000;0.3923;-0.9428;
1346.7000;0.3932;-0.9428;
1347.0000;0.3940;-0.9379;
1347.3000;0.3932;-0.9478;
1347.6000;0.3923;-0.9503;
1347.9000;0.3989;-0.9453;
1348.2000;0.3932;-0.9602;
1348.5000;0.3907;-0.9676;
1348.8000;0.3956;-0.9552;
1349.1000;0.3932;-0.9552;
1349.4000;0.3907;-0.9577;
1349.7000;0.3923;-0.9577;
1350.0000;0.3899;-0.9651;
1350.3000;0.3915;-0.9577;
1350.6000;0.3915;-0.9626;
1350.9000;0.3907;-0.9626;
1351.2000;0.3907;-0.9577;
1351.5000;0.4005;-0.9280;
1351.8000;0.3932;-0.9478;
1352.1000;0.3923;-0.9602;
1352.4000;0.3915;-0.9552;
1352.7000;0.3932;-0.9478;
1353.0000;0.3964;-0.9354;
1353.3000;0.3915;-0.9428;
1353.6000;0.3915;-0.9453;
1353.9000;0.3940;-0.9354;
1354.2000;0.3801;-0.9725;
1354.5000;0.3989;-0.9255;
1354.8000;0.3932;-0.9428;
1355.1000;0.3915;-0.9428;
1355.4000;0.3940;-0.9428;
1355.7000;0.3940;-0.9428;
1356.0000;0.3948;-0.9453;
1356.3000;0.3899;-0.9552;
1356.6000;0.3923;-0.9503;
1356.9000;0.3956;-0.9478;
1357.2000;0.3997;-0.9379;
1357.5000;0.3940;-0.9503;
1357.8000;0.3932;-0.9428;
1358.1000;0.3940;-0.9329;
1358.4000;0.3907;-0.9404;
1358.7000;0.3923;-0.9428;
1359.0000;0.3956;-0.9379;
1359.3000;0.3923;-0.9503;
1359.6000;0.3923;-0.9577;
1359.9000;0.3923;-0.9602;
1360.2000;0.3915;-0.9552;
1360.5000;0.3932;-0.9602;
1360.8000;0.3883;-0.9701;
1361.1000;0.3915;-0.9725;
1361.4000;0.3923;-0.9676;
1361.7000;0.3899;-0.9701;
1362.0000;0.3907;-0.9577;
1362.3000;0.3923;-0.9527;
1362.6000;0.3923;-0.9577;
1362.9000;0.3989;-0.9354;
1363.2000;0.3915;-0.9552;
1363.5000;0.3923;-0.9602;
1363.8000;0.3891;-0.9626;
1364.1000;0.3932;-0.9552;
1364.4000;0.3932;-0.9552;
1364.7000;0.3956;-0.9503;
1365.0000;0.3915;-0.9552;
1365.3000;0.3932;-0.9453;
1365.6000;0.3923;-0.9428;
1365.9000;0.3907;-0.9503;
1366.2000;0.3923;-0.9552;
1366.5000;0.3989;-0.9354;
1366.8000;0.3891;-0.9527;
1367.1000;0.3907;-0.9453;
1367.4000;0.3932;-0.9379;
1367.7000;0.3932;-0.9428;
1368.0000;0.3915;-0.9577;
1368.3000;0.3932;-0.9577;
1368.6000;0.3915;-0.9552;
1368.9000;0.4013;-0.9329;
1369.2000;0.3932;-0.9404;
1369.5000;0.3923;-0.9428;
1369.8000;0.3842;-0.9577;
1370.1000;0.3923;-0.9379;
1370.4000;0.3923;-0.9280;
1370.7000;0.3891;-0.9428;
1371.0000;0.3948;-0.9280;
1371.3000;0.3923;-0.9404;
1371.6000;0.3923;-0.9305;
1371.9000;0.3948;-0.9230;
1372.2000;0.3915;-0.9404;
1372.5000;0.3883;-0.9478;
1372.8000;0.3907;-0.9428;
1373.1000;0.3923;-0.9428;
1373.4000;0.3940;-0.9329;
1373.7000;0.3932;-0.9379;
1374.0000;0.3915;-0.9503;
1374.3000;0.3932;-0.9453;
1374.6000;0.3948;-0.9305;
1374.9000;0.3923;-0.9379;
1375.2000;0.3932;-0.9305;
1375.5000;0.3907;-0.9305;
1375.8000;0.3907;-0.9255;
1376.1000;0.3915;-0.9280;
1376.4000;0.3907;-0.9305;
1376.7000;0.3915;-0.9206;
1377.0000;0.3907;-0.9280;
1377.3000;0.3932;-0.9255;
1377.6000;0.3932;-0.9230;
1377.9000;0.3907;-0.9354;
1378.2000;0.3948;-0.9305;
1378.5000;0.3997;-0.9181;
1378.8000;0.3948;-0.9305;
1379.1000;0.3932;-0.9329;
1379.4000;0.3940;-0.9329;
1379.7000;0.3923;-0.9354;
1380.0000;0.3923;-0.9379;
1380.3000;0.3932;-0.9354;
1380.6000;0.3907;-0.9428;
1380.9000;0.3932;-0.9329;
1381.2000;0.3932;-0.9329;
1381.5000;0.3932;-0.9354;
1381.8000;0.3948;-0.9354;
1382.1000;0.3899;-0.9527;
1382.4000;0.3899;-0.9527;
1382.7000;0.3907;-0.9527;
1383.0000;0.3915;-0.9527;
1383.3000;0.3899;-0.9503;
1383.6000;0.3948;-0.9428;
1383.9000;0.3932;-0.9602;
1384.2000;0.3858;-0.9775;
1384.5000;0.3923;-0.9602;
1384.8000;0.3915;-0.9602;
1385.1000;0.3932;-0.9552;
1385.4000;0.3932;-0.9503;
1385.7000;0.3923;-0.9478;
1386.0000;0.3932;-0.9478;
1386.3000;0.3932;-0.9552;
1386.6000;0.3923;-0.9626;
1386.9000;0.3923;-0.9602;
1387.2000;0.3932;-0.9478;
1387.5000;0.3940;-0.9428;
1387.8000;0.3923;-0.9453;
1388.1000;0.3923;-0.9404;
1388.4000;0.3923;-0.9404;
1388.7000;0.3923;-0.9428;
1389.0000;0.3907;-0.9478;
1389.3000;0.3915;-0.9478;
1389.6000;0.3923;-0.9503;
1389.9000;0.3932;-0.9602;
1390.2000;0.3923;-0.9626;
1390.5000;0.3907;-0.9651;
1390.8000;0.3940;-0.9552;
1391.1000;0.3940;-0.9527;
1391.4000;0.3923;-0.9503;
1391.7000;0.3907;-0.9577;
1392.0000;0.3932;-0.9527;
1392.3000;0.3940;-0.9527;
1392.6000;0.3923;-0.9478;
1392.9000;0.3915;-0.9453;
1393.2000;0.3923;-0.9404;
1393.5000;0.3932;-0.9404;
1393.8000;0.3932;-0.9404;
1394.1000;0.3923;-0.9404;
1394.4000;0.3915;-0.9379;
1394.7000;0.3940;-0.9280;
1395.0000;0.3932;-0.9379;
1395.3000;0.3932;-0.9428;
1395.6000;0.3915;-0.9478;
1395.9000;0.3923;-0.9478;
1396.2000;0.3948;-0.9428;
1396.5000;0.3940;-0.9453;
1396.8000;0.3915;-0.9602;
1397.1000;0.3923;-0.9577;
1397.4000;0.3932;-0.9577;
1397.7000;0.3923;-0.9527;
1398.0000;0.3932;-0.9453;
1398.3000;0.3932;-0.9478;
1398.6000;0.3932;-0.9404;
1398.9000;0.3932;-0.9354;
1399.2000;0.3932;-0.9305;
1399.5000;0.3932;-0.9230;
1399.8000;0.3964;-0.9132;
